#   1 NUMBER                 Running object number                                     
#   2 EXT_NUMBER             FITS extension number                                     
#   3 FLUX_BEST              Best of FLUX_AUTO and FLUX_ISOCOR                          [count]
#   4 FLUXERR_BEST           RMS error for BEST flux                                    [count]
#   5 MAG_BEST               Best of MAG_AUTO and MAG_ISOCOR                            [mag]
#   6 MAGERR_BEST            RMS error for MAG_BEST                                     [mag]
#   7 KRON_RADIUS            Kron apertures in units of A or B                         
#   8 X_IMAGE                Object position along x                                    [pixel]
#   9 Y_IMAGE                Object position along y                                    [pixel]
#  10 A_IMAGE                Profile RMS along major axis                               [pixel]
#  11 B_IMAGE                Profile RMS along minor axis                               [pixel]
#  12 THETA_IMAGE            Position angle (CCW/x)                                     [deg]
         1   1     960937.1     175.4648 -14.9567   0.0002  3.50   1107.5234    183.5919     5.340     4.968 -24.84
         2   1     39013.66     156.6322 -11.4780   0.0044  3.53     63.5538     54.8550     4.774     4.327  14.13
         3   1     5967.769     116.8617  -9.4395   0.0213  4.03    984.9713     18.2245     4.232     2.082 -89.63
         4   1      9936.33      68.8736  -9.9931   0.0075  3.50   1445.6385     16.2632     2.084     1.959  11.85
         5   1     3395.491     58.17172  -8.8273   0.0186  3.50     91.2070     19.4933     1.722     1.675 -35.97
         6   1     209.2855     42.93069  -5.8018   0.2228  5.40    144.9073      5.7573     1.034     0.633   9.20
         7   1     46217.76     80.22186 -11.6620   0.0019  3.50   1078.3911     61.4081     2.423     2.319  59.57
         8   1     109.6157      31.0941  -5.0997   0.3081  6.30   1183.4889     11.4957     0.507     0.493  45.21
         9   1      585.869     69.31089  -6.9195   0.1285  6.46    384.5130     19.1514     1.297     0.942   6.16
        10   1     1159.835     86.03714  -7.6610   0.0806  6.28    366.8659     26.2161     1.525     1.280  22.60
        11   1     573.4666     73.12899  -6.8963   0.1385  7.73    382.6375     25.5770     1.060     0.890  39.76
        12   1     413.6871      61.4551  -6.5417   0.1613  6.21   1110.6573     36.5201     1.208     0.841 -30.93
        13   1      766.426     90.82057  -7.2112   0.1287  6.43    326.6969     34.9270     1.803     1.163  -8.22
        14   1      44870.2     80.59761 -11.6299   0.0020  3.50    537.4368     81.5308     2.430     2.348  -8.32
        15   1     210.0981     42.22104  -5.8061   0.2182  6.22   1521.2738     40.0138     0.742     0.662  86.08
        16   1     209.3334      49.4704  -5.8021   0.2566  6.79   1170.7142     40.8831     1.092     0.519  36.57
        17   1      322.033     55.24126  -6.2698   0.1863  6.09    915.1624     44.3197     1.038     0.830 -57.45
        18   1     277.7855     38.08233  -6.1093   0.1489  8.87    440.3444     45.6934     0.570     0.337  43.21
        19   1     1417.659     52.14638  -7.8789   0.0399  3.50    128.1098     76.7034     1.561     1.491 -24.20
        20   1     66683.69     83.36176 -12.0600   0.0014  3.50    788.9786    123.3897     2.498     2.419   4.77
        21   1     1683.719     125.8255  -8.0657   0.0812  6.74    376.6921     91.3488     2.288     1.605  61.82
        22   1     517.5907     75.36711  -6.7850   0.1581  5.96    421.1934     84.3888     1.544     1.098 -71.75
        23   1     2056.669     54.41467  -8.2829   0.0287  3.50     56.0558     98.1717     1.678     1.562   6.10
        24   1     820.1246      86.3876  -7.2847   0.1144  6.28    452.6898     99.9307     1.568     1.275   0.54
        25   1     274.6748     47.60292  -6.0970   0.1882  5.95    495.7605     92.9689     0.891     0.757  -1.80
        26   1     268.6844     46.64114  -6.0731   0.1885  8.14   1075.7949     97.6177     0.767     0.445  18.15
        27   1     288104.8     95.52266 -13.6489   0.0004  3.50    317.9671    195.1555     2.896     2.730 -41.00
        28   1     280.2682     54.69159  -6.1189   0.2119  7.53    990.2151    118.7656     0.770     0.712  56.10
        29   1     54484.43     297.3309 -11.8407   0.0059  4.73    403.6314    236.5366     6.946     5.992 -40.23
        30   1     159.0653     35.19613  -5.5039   0.2403  7.99    415.3349    118.3205     0.572     0.336 -44.34
        31   1     37434.54     77.15002 -11.4332   0.0022  3.50   1468.2545    163.8892     2.296     2.241 -10.68
        32   1      307.777     51.85587  -6.2206   0.1830  8.56    418.0072    132.4838     0.792     0.500   0.89
        33   1         8480     74.76336  -9.8210   0.0096  3.67    877.2186    171.7650     2.130     2.070 -61.45
        34   1     241.6152      49.4704  -5.9578   0.2224  6.63    353.7884    148.7737     0.925     0.639 -84.62
        35   1     127.2219     27.48356  -5.2614   0.2346  5.02   1280.5729    152.7571     0.724     0.458  70.56
        36   1      1365.85     63.56515  -7.8385   0.0505  5.82    325.5382    173.2196     1.818     1.670  -4.13
        37   1     120.4602      29.6007  -5.2021   0.2669  6.72   1580.0000    158.0047     0.842     0.289  90.00
        38   1     1051.164     85.68525  -7.5542   0.0885  6.16   1445.8735    166.7163     1.480     1.385  25.87
        39   1     550.3578     44.65549  -6.8516   0.0881  3.50    104.0993    167.9453     1.408     1.211  84.99
        40   1     116.8867      31.0941  -5.1694   0.2889  6.59    634.5320    161.5320     0.509     0.489  45.00
        41   1     367.8981     59.20139  -6.4143   0.1748  6.42   1368.4977    170.4764     0.962     0.894   1.76
        42   1     151.4938     36.46106  -5.4510   0.2614  6.52    651.2306    170.4272     0.769     0.448  19.56
        43   1     228.3018     42.22104  -5.8963   0.2008  8.72    353.0000    174.9999     0.852     0.289  90.00
        44   1     567.8269     73.95068  -6.8855   0.1414  7.27    575.3188    181.4357     1.271     0.859  32.56
        45   1     1082.872     72.29795  -7.5864   0.0725  5.38   1350.5814    194.1510     1.441     1.348 -59.92
        46   1      453.973     59.96204  -6.6426   0.1434  6.57   1354.9644    188.1913     1.031     0.844  38.80
        47   1     5156.241      142.491  -9.2808   0.0300  4.73    827.3460    212.4521     4.318     2.214 -12.76
        48   1     1961.371     76.75739  -8.2314   0.0425  4.84    548.9800    208.1718     1.701     1.562 -58.90
        49   1     1824.076     116.2135  -8.1526   0.0692  6.64    349.6498    210.0761     2.003     1.599  47.49
        50   1     295.3995     46.96392  -6.1760   0.1727  7.55    268.8281    196.8623     0.736     0.566  48.35
        51   1     1639.591     54.41467  -8.0368   0.0360  3.50   1306.0121    213.7669     1.671     1.540  -5.55
        52   1     5028.152     180.1379  -9.2535   0.0389  5.54    561.9318    232.0031     3.529     3.154 -29.96
        53   1     85496.79     85.86137 -12.3299   0.0011  3.50     67.5820    267.4367     2.529     2.465   0.37
        54   1     386.8107     64.57174  -6.4687   0.1813  6.86    250.8531    205.3313     1.503     0.627  36.19
        55   1     652.8837     76.16467  -7.0371   0.1267  5.19    684.2394    212.3623     1.588     1.414 -21.58
        56   1     122310.6      86.3876 -12.7187   0.0008  3.50    997.3749    261.3199     2.518     2.501 -17.14
        57   1     1863.658      57.1235  -8.1759   0.0333  3.71   1226.0275    225.6272     1.640     1.514  56.46
        58   1     741.2997     72.06856  -7.1750   0.1056  8.48   1122.8446    224.0565     1.867     1.284  68.89
        59   1     1458.448     120.1758  -7.9097   0.0895  6.80    345.1105    223.5607     2.007     1.648  39.52
        60   1     805.0812     67.99056  -7.2646   0.0917  5.08    774.7054    224.2255     1.487     1.275 -64.85
        61   1     1417.984     101.3543  -7.8792   0.0776  5.27    112.9839    245.6963     2.199     1.771 -78.23
        62   1     213.4856     37.68048  -5.8234   0.1917  8.75   1125.8469    231.3209     0.924     0.677  71.18
        63   1     490.6482     66.87038  -6.7269   0.1480  7.47    547.5412    231.7082     1.074     0.772 -44.04
        64   1     353329.8     95.04702 -13.8705   0.0003  3.50    439.4165    313.6676     2.829     2.729 -36.18
        65   1     4236.942     115.1689  -9.0676   0.0295  4.77    612.7988    256.8020     2.731     2.242 -30.84
        66   1     873.5432     99.54967  -7.3532   0.1238  6.70    838.1739    240.4633     1.587     1.461   3.13
        67   1     715.1459     81.89915  -7.1360   0.1244  6.81   1372.6396    253.3756     1.534     1.006 -71.57
        68   1     350.4878     47.75455  -6.3617   0.1480  6.96    107.4887    251.8521     1.125     0.945 -51.68
        69   1     19900.19     73.95068 -10.7471   0.0040  3.50   1486.3608    289.1078     2.189     2.129   1.53
        70   1     199.4238     39.63735  -5.7494   0.2159  8.14   1352.0000    254.4976     0.805     0.311  31.85
        71   1     4359.197     65.03796  -9.0985   0.0162  3.64   1522.2334    283.4614     1.855     1.818  52.53
        72   1     458.2483     69.09259  -6.6528   0.1637  6.65   1273.7917    272.2899     1.216     0.928   3.53
        73   1     14717.24     74.15469 -10.4196   0.0055  3.50    201.6433    304.5838     2.210     2.163   9.79
        74   1     312029.1     91.81318 -13.7355   0.0003  3.50    890.7019    352.8531     2.715     2.642 -41.86
        75   1     58529.87      82.0834 -11.9184   0.0015  3.50    905.3503    320.1975     2.421     2.364  24.63
        76   1     1937.697     94.88795  -8.2182   0.0532  5.18    515.0864    291.2042     1.937     1.813  18.54
        77   1     300490.4     91.15264 -13.6946   0.0003  3.50   1345.7841    352.8824     2.668     2.625 -27.02
        78   1     1856.879     61.94479  -8.1720   0.0362  3.89   1327.5552    295.5386     1.682     1.633  16.39
        79   1     864.5187     51.49022  -7.3419   0.0647  5.36   1475.5227    294.7332     1.492     1.373 -23.85
        80   1     1202.995     104.1478  -7.7007   0.0940  5.59   1413.4884    298.9619     2.178     1.670 -22.82
        81   1     899.4257     81.89915  -7.3849   0.0989  5.20    563.3644    303.5232     1.717     1.492 -20.79
        82   1     9869.271     71.24552  -9.9857   0.0078  3.50    697.2142    323.5642     2.099     2.085  49.40
        83   1      187.679     35.62276  -5.6835   0.2061  8.27    247.3224    294.2916     0.554     0.344 -43.19
        84   1     462.8004     66.41702  -6.6635   0.1559  7.46     85.5744    310.1268     1.365     0.616 -48.78
        85   1      991.235     93.92784  -7.4904   0.1029  5.54    641.3198    322.5255     1.952     1.534  77.66
        86   1     2036.878     92.46899  -8.2724   0.0493  5.22    595.3931    328.8960     1.903     1.716 -32.28
        87   1     6943.624     87.25758  -9.6040   0.0136  4.19    867.0430    347.9109     2.268     2.009  23.15
        88   1     383.6711     56.85843  -6.4599   0.1609  5.93   1545.7670    331.2282     1.148     0.833  43.51
        89   1     224.9403     46.64114  -5.8802   0.2252  6.96    955.6965    326.4326     1.006     0.480   7.93
        90   1     504.7996     58.68882  -6.7578   0.1263  6.20     93.5771    333.6953     0.972     0.941  55.49
        91   1     304.3094     45.65911  -6.2083   0.1629  5.32   1439.5736    336.6214     0.956     0.824 -18.30
        92   1     5450.575     86.03714  -9.3411   0.0171  4.20    431.7452    357.2964     2.159     2.036 -83.40
        93   1     1170.365      81.5294  -7.6708   0.0757  6.04     54.7642    351.3235     1.450     1.334  36.89
        94   1     10003.23     73.74612 -10.0003   0.0080  3.69    760.9797    369.6311     2.098     2.025  22.48
        95   1     49444.05     81.15797 -11.7353   0.0018  3.50    231.3501    396.6443     2.438     2.346 -26.63
        96   1     3953.911     74.35813  -8.9926   0.0204  4.10    442.7023    368.9082     1.895     1.795  30.23
        97   1     1930.514     79.84435  -8.2142   0.0449  4.74   1500.1451    362.7213     1.888     1.590   0.99
        98   1     544.2485     73.74612  -6.8395   0.1472  6.83   1033.3584    362.1609     1.242     0.996 -58.96
        99   1     248.7588     50.07742  -5.9894   0.2186  5.45    533.3394    361.2865     1.220     0.716  -8.83
       100   1     233.0095     48.85584  -5.9184   0.2277  6.54   1416.1498    364.6965     1.045     0.567 -71.96
       101   1     712.4941     67.76801  -7.1320   0.1033  6.48      1.7934    381.5630     2.153     0.808  85.38
       102   1     492.6294     71.87883  -6.7313   0.1585  5.92   1083.9889    375.3525     1.454     1.092 -64.09
       103   1     672.6339     65.70773  -7.0694   0.1061  6.62    753.3802    376.5252     1.873     1.157  41.53
       104   1     710.1769     76.16467  -7.1284   0.1165  6.34    992.6725    374.2662     1.285     1.157  16.77
       105   1     407.9713     64.57174  -6.5266   0.1719  7.04     72.0663    371.2897     1.284     0.692  -5.19
       106   1     203.9148     43.97369  -5.7736   0.2342  7.74    209.7980    370.4336     0.757     0.448 -20.39
       107   1     7713.223     67.32069  -9.7181   0.0095  3.50    354.4630    399.6178     2.015     1.927  17.26
       108   1      6838.96     65.03796  -9.5875   0.0103  3.50   1461.0834    398.5524     1.973     1.892  -9.62
       109   1     348.9087     58.68882  -6.3568   0.1827  5.85     67.1807    384.9309     1.527     0.709  84.48
       110   1     135.9012     33.43519  -5.3331   0.2672  6.14     87.0254    376.7699     0.694     0.421   1.10
       111   1     44983.77     78.70093 -11.6326   0.0019  3.50    433.2188    421.0812     2.333     2.294   2.46
       112   1     383.4158     57.91145  -6.4592   0.1640  6.75    125.8206    382.1245     0.976     0.759 -25.56
       113   1     1634.489     64.33736  -8.0335   0.0427  4.11   1088.6281    395.3354     1.647     1.544  16.84
       114   1     21614.14     74.56102 -10.8368   0.0037  3.50    837.3126    417.0416     2.190     2.176  -0.46
       115   1     751.8765     87.43054  -7.1904   0.1263  7.55    626.6415    397.2807     1.368     1.025 -84.30
       116   1     115.3041     28.56175  -5.1546   0.2690  5.87   1196.0000    390.9907     0.849     0.289  90.00
       117   1     1123.132     77.54066  -7.6261   0.0750  6.06      2.0189    413.5535     2.715     0.982  88.66
       118   1     286.4092     49.16408  -6.1425   0.1864  5.38    977.6584    397.7161     1.234     0.713 -45.75
       119   1     593.3502      82.0834  -6.9333   0.1502  7.12    526.5233    405.4549     1.416     0.997  81.85
       120   1     140823.1     86.21255 -12.8717   0.0007  3.50    807.5491    462.6602     2.555     2.475 -14.27
       121   1     3724.123     63.86601  -8.9276   0.0186  3.56    926.3503    425.5708     1.893     1.807  34.32
       122   1      16009.9     74.35813 -10.5110   0.0050  3.50    252.0299    439.4119     2.200     2.154   6.52
       123   1      326.849     59.70957  -6.2859   0.1984  6.41    281.9644    408.1780     1.164     0.805  29.18
       124   1      139.295     35.19613  -5.3598   0.2744  6.05    943.7690    403.4148     0.746     0.452 -19.26
       125   1      983.861       89.817  -7.4823   0.0991  5.77    159.3223    422.2342     1.823     1.389  51.62
       126   1     310.2051      63.1524  -6.2291   0.2211  7.70    299.5127    426.9843     1.409     0.499  88.57
       127   1     279.7494     50.67717  -6.1169   0.1967  7.34   1204.3010    419.4577     1.015     0.481  -8.30
       128   1     574.7485     81.15797  -6.8987   0.1533  7.05   1179.8237    428.1474     1.268     1.091  43.94
       129   1     1304.692     71.66835  -7.7888   0.0597  4.97   1421.9889    434.3695     1.561     1.400 -10.87
       130   1     347.3022     47.91922  -6.3518   0.1498  8.47    133.4179    424.2214     0.751     0.455  71.45
       131   1     163.2361     37.28051  -5.5320   0.2480  6.14   1580.9548    421.4904     0.779     0.499   2.63
       132   1     225.7141     35.62276  -5.8839   0.1714  8.26    136.3274    421.6681     0.574     0.335  45.20
       133   1     150.7225     36.46106  -5.4454   0.2627  7.37   1063.4728    425.5190     0.503     0.496  46.61
       134   1     488.6035     60.96148  -6.7224   0.1355  8.40    718.8472    431.2665     1.078     0.508  67.24
       135   1      8322.82     199.9323  -9.8007   0.0261  5.00    850.2134    469.1349     7.548     2.225  21.82
       136   1     5339.822     75.76694  -9.3188   0.0154  3.90     21.3253    451.8556     2.060     1.922   5.18
       137   1     677.4677     69.96172  -7.0772   0.1122  6.04    151.0911    435.1286     1.241     1.134  51.93
       138   1     634.8436     67.54472  -7.0067   0.1155  5.43    305.5746    441.5392     1.442     1.138 -51.09
       139   1     993.9893     78.31608  -7.4935   0.0856  5.59    122.1032    446.8862     1.507     1.357  85.17
       140   1     88.05652     28.56175  -4.8619   0.3523  6.28    353.6777    435.6659     0.573     0.336 -45.54
       141   1     5606.698     70.82017  -9.3718   0.0137  3.84     34.4943    459.3141     1.978     1.858 -40.63
       142   1      861.276     89.14168  -7.3379   0.1124  5.30    883.2843    448.6035     2.240     1.327   8.67
       143   1     304.5463      57.1235  -6.2091   0.2037  8.37    654.3730    445.0174     1.075     0.452 -25.28
       144   1     1726.014     58.94566  -8.0926   0.0371  3.68    468.4330    465.1303     1.735     1.537  46.31
       145   1     312.1635     45.98878  -6.2360   0.1600  5.49   1533.5865    454.5111     0.992     0.775   2.57
       146   1     605.0685     45.98878  -6.9545   0.0825  3.92   1096.4275    462.4618     1.424     1.022  13.25
       147   1     86.59912     26.92828  -4.8438   0.3377  6.17   1224.3199    454.6659     0.572     0.336  45.66
       148   1     2210.308     70.17731  -8.3611   0.0345  4.30    734.7417    473.5643     1.678     1.675 -33.57
       149   1     363.7458     60.71316  -6.4020   0.1813  7.85    723.9954    463.4890     1.225     0.497 -62.96
       150   1     1530.537     64.57174  -7.9621   0.0458  4.33    254.3181    473.0178     1.616     1.462   2.70
       151   1     2891.189     63.62903  -8.6527   0.0239  3.78    922.8595    479.3813     1.766     1.691  52.44
       152   1     2798.675     131.9211  -8.6174   0.0512  5.05     82.6225    497.7401     2.808     2.572 -64.18
       153   1     1125.187     60.21346  -7.6281   0.0581  4.00   1276.8651    479.2165     1.665     1.468  88.30
       154   1     162.1331     41.86171  -5.5247   0.2804  6.10   1198.3260    468.1647     0.748     0.646 -25.48
       155   1     110.0341     35.62276  -5.1038   0.3516  8.23    561.6644    466.6414     0.589     0.326 -45.83
       156   1     21862.88      182.967 -10.8493   0.0091  4.39    518.4863    534.3797     4.585     3.993  35.04
       157   1     753.6005     88.11899  -7.1929   0.1270  5.49    839.4061    489.4297     2.625     1.021 -82.78
       158   1     2236.347     107.1506  -8.3738   0.0520  4.40   1186.5585    497.1438     2.870     2.196 -19.22
       159   1     252.9653     45.32704  -6.0077   0.1946  5.24   1167.6361    477.6234     1.408     0.553 -32.52
       160   1     1199.841     49.77484  -7.6978   0.0451  3.50   1070.7618    485.5689     1.530     1.377 -13.33
       161   1     187.9873     29.08586  -5.6853   0.1680  3.50    682.6039    480.4048     0.940     0.796 -42.47
       162   1     135.1721       33.884  -5.3272   0.2722  6.47   1309.2524    483.2264     0.842     0.348  17.61
       163   1     11671.33     71.87883 -10.1678   0.0067  3.50   1302.1998    513.8845     2.199     2.034 -11.30
       164   1     142.0968       33.884  -5.3815   0.2590  7.08    424.4974    490.9983     0.783     0.318  57.40
       165   1     1263.103     92.63223  -7.7536   0.0796  5.30    762.6140    505.6696     1.905     1.689  28.56
       166   1       374.29     60.71316  -6.4330   0.1762  6.16    366.5007    499.2484     1.260     0.822  48.63
       167   1     641.5828      49.4704  -7.0181   0.0837  3.93    863.6866    503.5776     1.343     1.234  22.83
       168   1     3187.244     102.0969  -8.7585   0.0348  4.07   1461.1053    516.8407     3.619     1.833  25.64
       169   1     344.0219     55.24126  -6.3415   0.1744  6.08   1310.3586    502.6223     1.013     0.854 -36.56
       170   1     1170.658     44.53425  -7.6711   0.0413  4.10   1309.9906    514.6970     1.620     1.411 -22.15
       171   1     1125.746     113.5839  -7.6286   0.1096  6.57    164.5679    511.4854     2.258     1.386   7.81
       172   1     129.3739     23.95961  -5.2796   0.2011  3.50    442.7246    504.0079     0.742     0.697 -86.67
       173   1      705.123     48.54564  -7.1207   0.0748  3.80   1179.1429    515.1553     1.350     1.289 -11.69
       174   1     554.0376     50.67717  -6.8588   0.0993  4.11    642.2802    520.8373     1.392     1.165   1.64
       175   1     322839.7     89.98504 -13.7725   0.0003  3.50   1315.8740    589.2564     2.687     2.599 -42.35
       176   1     315.4542     62.18819  -6.2473   0.2141  7.90    854.1042    522.2997     0.956     0.691 -68.93
       177   1     254.3755     47.60292  -6.0137   0.2032  6.24   1519.3199    519.8759     0.921     0.674  20.54
       178   1     1561.744     52.14638  -7.9840   0.0363  3.50    999.6552    541.7060     1.603     1.513 -28.24
       179   1     580181.8      98.1744 -14.4089   0.0002  3.50    483.1308    632.6259     2.923     2.829 -22.05
       180   1     403.8584     66.87038  -6.5156   0.1798  6.02    404.2003    537.3937     1.629     0.795  25.91
       181   1     2285.171     59.45602  -8.3973   0.0283  3.50   1041.6521    560.4193     1.871     1.615  18.42
       182   1     6938.387     65.96053  -9.6031   0.0103  3.50   1242.7411    574.0024     1.965     1.902  15.00
       183   1     1603.402     96.31017  -8.0126   0.0652  6.18   1336.7484    576.2883     1.689     1.511  46.19
       184   1     1800.478     96.31017  -8.1385   0.0581  5.01     45.8391    572.7825     2.209     1.759  55.25
       185   1      1560.78     72.08869  -7.9834   0.0502  3.50   1448.4077    573.2255     2.427     1.834  31.02
       186   1     9520.621     71.24552  -9.9467   0.0081  3.57    319.1037    583.7047     2.101     2.038  10.34
       187   1     9480.354     70.17731  -9.9421   0.0080  3.50    144.8991    582.1780     2.092     1.988   6.05
       188   1     168.1554     37.68356  -5.5643   0.2434  6.56    778.6027    557.7814     0.764     0.454  72.64
       189   1     6336.274     140.2469  -9.5046   0.0240  4.20    782.6398    598.1360     3.581     3.291 -54.00
       190   1     504.7914     65.96053  -6.7578   0.1419  5.96    139.6730    566.2111     1.262     1.044 -56.24
       191   1     135.0565      40.7647  -5.3263   0.3278  7.28    633.2245    568.5837     0.738     0.455 -19.06
       192   1     481.2228     77.15002  -6.7059   0.1741  6.63   1001.7448    578.1380     1.679     0.844 -30.64
       193   1     803.1146     71.87883  -7.2619   0.0972  5.68     75.9331    586.1184     1.344     1.253   8.66
       194   1     1086.459     54.41467  -7.5900   0.0544  3.64   1555.2452   1002.6024     1.588     1.451  82.62
       195   1     726.3477     53.00837  -7.1529   0.0793  4.11    654.4363   1598.2251     1.877     1.182  -3.37
       196   1     431.9058     49.16408  -6.5885   0.1236  4.12    373.5573   1595.8197     1.482     1.020  36.48
       197   1     279.1246     49.77484  -6.1145   0.1937  4.94   1384.0912   1594.5430     1.370     0.797 -20.53
       198   1      1132.39     63.86601  -7.6350   0.0612  4.32   1108.5786   1586.2300     1.637     1.397  20.02
       199   1     156.8219     36.87306  -5.4885   0.2553  8.62   1520.3411   1570.6622     0.583     0.330  44.87
       200   1     1631.968     90.48729  -8.0318   0.0602  5.07    784.3228   1566.9884     2.019     1.655 -83.28
       201   1     2090.903      68.8736  -8.3008   0.0358  4.13     21.5558   1567.9171     1.798     1.652   5.06
       202   1     301537.8     93.28228 -13.6984   0.0003  3.50   1224.3740    860.6606     2.788     2.686 -17.12
       203   1     948.4757     67.54472  -7.4426   0.0773  4.22    939.8437    868.9674     1.862     1.435  48.59
       204   1     164.3486     37.68356  -5.5394   0.2490  5.96    643.2285    870.7622     0.935     0.438 -45.21
       205   1     118.1879     35.19613  -5.1814   0.3234  6.66    454.2346    868.5067     1.131     0.261  72.34
       206   1     696.5905     48.23344  -7.1074   0.0752  3.64   1157.1371    861.1000     1.501     1.228  18.10
       207   1     131.4993     35.19613  -5.2973   0.2907  6.19   1554.3735    861.8177     0.752     0.447 -72.24
       208   1     454.5651     46.64114  -6.6440   0.1114  4.04   1339.3500    859.9583     1.494     0.943 -33.29
       209   1     145.4915     40.01666  -5.4071   0.2987  8.52    545.0226    857.5148     0.802     0.312  31.94
       210   1     170.3212     39.25437  -5.5782   0.2503  7.75    363.4892    850.4928     0.511     0.489  45.09
       211   1     1065.377     54.69159  -7.5688   0.0558  3.50   1106.0938    844.6609     1.760     1.494  26.46
       212   1     513.5222     42.57734  -6.7764   0.0900  3.50   1063.7421    845.9602     1.312     1.129 -67.19
       213   1     800.8439     82.45067  -7.2589   0.1118  6.12   1206.1924    845.9416     1.559     1.216 -72.74
       214   1     2161.013       103.42  -8.3366   0.0520  5.45   1247.1584    839.2393     2.080     1.839 -64.82
       215   1     1381.942     65.26983  -7.8512   0.0513  4.29    298.8562    838.0092     1.600     1.513  19.73
       216   1     200.5953     45.98878  -5.7558   0.2490  6.04   1520.5083    838.5259     1.021     0.595  45.37
       217   1      277.332     44.99252  -6.1075   0.1762  5.36    818.9594    836.8229     0.944     0.770  62.37
       218   1     6390.273     70.17731  -9.5138   0.0119  3.56    654.3229    824.2866     2.094     1.988  45.13
       219   1     91.64832     28.56175  -4.9053   0.3384  6.98    779.6790    820.6904     0.561     0.341 -44.39
       220   1     252.0344     60.46383  -6.0036   0.2605  7.57    878.1466    817.7387     1.038     0.638  -8.31
       221   1     5619.184     66.18917  -9.3742   0.0128  3.50   1378.5778    804.4237     1.938     1.902  23.98
       222   1     76.36353     19.04117  -4.7072   0.2708  4.03    127.3256    809.3419     0.578     0.333 -45.69
       223   1      17143.4     83.36176 -10.5852   0.0053  3.50    695.5547    799.8779     2.757     2.166  85.84
       224   1     2519.162     59.70957  -8.5031   0.0257  3.50     41.0353    802.0317     1.787     1.718  25.74
       225   1     273.2231     45.65911  -6.0913   0.1815  7.41    295.4832    796.0338     0.794     0.500 -88.71
       226   1     2658.145     95.36438  -8.5614   0.0390  3.99   1427.3678    775.2017     2.944     2.026 -85.54
       227   1     1467.156     66.18917  -7.9162   0.0490  4.06    391.5318    768.1796     1.845     1.529 -34.33
       228   1     333.1741     62.18819  -6.3067   0.2027  6.19    140.4605    769.0315     1.154     0.906 -79.40
       229   1     192.1831     39.63735  -5.7093   0.2240  7.79   1342.5264    756.4967     0.504     0.495  47.32
       230   1     279.4767     50.07742  -6.1159   0.1946  8.77    193.6102    755.8049     0.752     0.451  71.94
       231   1      1449.68     62.67215  -7.9032   0.0469  4.07    556.2836    744.2448     1.635     1.516 -43.37
       232   1     397418.1     96.62337 -13.9981   0.0003  3.50    404.7125    725.5301     2.926     2.741 -23.10
       233   1     606.6476     67.99056  -6.9573   0.1217  5.11    649.6644    737.5411     1.431     1.311  80.86
       234   1     67046.23     82.81631 -12.0659   0.0013  3.50    848.3532    727.9817     2.440     2.390  27.96
       235   1     973.0052     52.14638  -7.4703   0.0582  3.73   1178.1917    728.8092     1.450     1.413  49.59
       236   1      402.439      61.4551  -6.5118   0.1658  5.79   1395.0338    722.7587     1.257     0.934  -6.55
       237   1     552.4642     49.16408  -6.8558   0.0966  4.00   1157.9709    739.4138     1.300     1.183  25.36
       238   1     1456.713     66.87038  -7.9084   0.0499  4.19    808.4107    717.3168     1.712     1.558  61.40
       239   1     1221.373      57.1235  -7.7171   0.0508  3.90   1163.6417    710.4113     1.569     1.437  18.03
       240   1     1571.466     79.65491  -7.9908   0.0550  4.39   1339.0957    705.6172     1.927     1.783 -43.73
       241   1     236.9512     42.57734  -5.9366   0.1951  8.86    538.5058    708.5009     0.503     0.497 -45.16
       242   1     2352.744     59.20139  -8.4289   0.0273  3.50    952.3793    704.2740     1.754     1.680  41.61
       243   1     605.3131     74.76336  -6.9550   0.1341  5.55    582.5709    700.6096     1.760     1.081  -8.00
       244   1     659.8747     55.01987  -7.0487   0.0905  4.86   1213.7377    692.9648     1.654     1.311  49.08
       245   1     390.5772     41.21119  -6.4793   0.1146  6.09   1213.9957    688.5043     1.281     0.956  32.91
       246   1     302.7489     54.69159  -6.2027   0.1962  6.62    316.1907    693.2253     1.068     0.678  16.65
       247   1     3716.148     188.7382  -8.9252   0.0552  6.27    472.3976    684.3198     3.426     2.791  70.77
       248   1      1947.25      63.1524  -8.2236   0.0352  3.77    644.1541    686.8884     1.784     1.628  11.81
       249   1     222.6908     39.25437  -5.8693   0.1914  4.84    130.9193    688.8408     0.908     0.746  89.99
       250   1     2532.424     123.8896  -8.5088   0.0531  5.93    543.5008    682.6275     2.380     1.929 -61.15
       251   1       246.33     46.96392  -5.9788   0.2071  8.28    401.1937    686.6044     0.747     0.454 -17.79
       252   1      168.806     36.46106  -5.5685   0.2346  7.22    230.4653    674.4924     0.501     0.498 -55.24
       253   1     584.7496     60.71316  -6.9174   0.1128  4.93    870.9258    656.2454     1.438     1.103 -83.76
       254   1     66311.15     80.59761 -12.0540   0.0013  3.50   1464.2911    649.7216     2.376     2.337   7.84
       255   1     345.9996     63.86601  -6.3477   0.2005  7.24    414.5716   1534.2604     1.291     0.650  -1.91
       256   1     337.7125     60.46383  -6.3214   0.1944  7.76    653.2200    647.1567     0.953     0.671 -18.88
       257   1     10299.42     70.82017 -10.0320   0.0075  3.50    536.7826    641.2125     2.116     2.023  32.74
       258   1     684.3903     68.21239  -7.0883   0.1082  5.02    806.0591    631.8589     1.450     1.353  -7.11
       259   1     986.8931     65.03796  -7.4857   0.0716  4.70   1581.7861    624.8724     1.502     1.346 -13.34
       260   1     300.8745     60.21346  -6.1960   0.2173  7.63   1151.4745    619.8642     1.117     0.574  26.33
       261   1        84.63     43.97369  -4.8188   0.5643  7.63    946.1581    610.6085     0.762     0.445 -18.98
       262   1     1136.421     59.70957  -7.6388   0.0571  4.20    586.3733    606.9351     1.618     1.366  24.50
       263   1     31234.38     82.26724 -11.2366   0.0029  3.50    269.0331   1508.4434     2.421     2.340  -2.38
       264   1     288.9231     60.96148  -6.1520   0.2291  6.77   1100.4559   1521.1467     1.382     0.605 -36.36
       265   1     135.0356     35.62276  -5.3261   0.2865  5.65    882.5081    593.5080     0.983     0.405  70.92
       266   1     361.9728     51.85587  -6.3967   0.1556  7.04   1565.8789   1564.7484     1.077     0.515  54.25
       267   1     58340.66     83.72341 -11.9149   0.0016  3.50    303.8441   1564.8947     2.503     2.399  -8.96
       268   1     1020.317     71.24552  -7.5218   0.0758  5.02    861.0883   1562.5150     1.563     1.346 -75.64
       269   1     2399.087     73.33527  -8.4501   0.0332  4.27    654.2137   1543.8607     1.803     1.720  83.28
       270   1     1517.656     57.64999  -7.9529   0.0413  3.50     92.3784   1571.7429     1.699     1.645  71.48
       271   1     335.2262     42.57734  -6.3133   0.1379  4.25    483.5715   1515.7090     1.192     0.926 -55.72
       272   1     3204.108     65.26983  -8.7643   0.0221  3.65    134.8632   1543.1174     1.860     1.806  13.47
       273   1     1033.557     74.35813  -7.5358   0.0781  4.48    863.0587   1546.9192     2.300     1.276  41.04
       274   1     605.6111     69.31089  -6.9555   0.1243  8.49   1491.3170   1576.4253     1.082     0.645  84.13
       275   1     57996.08     85.33191 -11.9085   0.0016  3.50    487.3314   1559.3033     2.550     2.455  -7.17
       276   1     552.7473     73.54099  -6.8563   0.1445  6.10   1221.4912   1552.6814     1.347     1.128 -81.10
       277   1     24225.66     156.2459 -10.9607   0.0070  3.66    681.9229   1553.8239     4.749     4.052 -31.20
       278   1     382.9312     53.85655  -6.4578   0.1527  5.10   1425.6112    895.1287     1.331     0.900  22.26
       279   1     337.0812     64.57174  -6.3193   0.2080  7.49   1429.5490   1536.9336     1.283     0.613 -28.78
       280   1     151.5464      31.0941  -5.4514   0.2228  5.39    733.4185   1529.7542     0.745     0.453 -70.71
       281   1     7617.043     69.74545  -9.7045   0.0099  3.50    392.3029   1516.1542     2.143     1.971   3.84
       282   1     128.7588     30.10673  -5.2744   0.2539  7.34     12.3253   1523.9998     0.908     0.212 -61.76
       283   1     227.6002     45.65911  -5.8929   0.2179  7.79   1096.0144   1505.0276     0.627     0.612 -88.72
       284   1      1000.54      99.3978  -7.5006   0.1079  7.67   1546.3038   1516.7902     1.531     1.154 -66.02
       285   1     225.5331     39.25437  -5.8830   0.1890  4.54     77.8286   1489.1013     1.245     0.648 -77.26
       286   1     410.9353     40.01666  -6.5344   0.1058  3.50    960.9188    878.8605     1.204     1.126 -38.69
       287   1     2516.428     78.31608  -8.5020   0.0338  3.98   1103.3296    870.8542     2.033     2.005 -63.53
       288   1     187.8716     36.87306  -5.6847   0.2131  6.75    670.7684    880.5677     0.732     0.453  20.33
       289   1     211.6703     41.13362  -5.8141   0.2110  5.90    844.0126   1499.6898     0.731     0.667   4.82
       290   1     1160.464     86.91064  -7.6616   0.0813  4.85   1177.0453    879.9774     1.894     1.786   8.50
       291   1     114.1852      26.3613  -5.1440   0.2507  5.68    987.0000    898.9809     0.858     0.289  90.00
       292   1     250.0205     51.26991  -5.9949   0.2227  8.18    542.0078    878.4955     0.795     0.500   1.11
       293   1     791.4865     54.13633  -7.2461   0.0743  3.91    723.2290   1505.4597     1.565     1.306 -27.09
       294   1     1152.797     107.1506  -7.6544   0.1009  6.65    326.2498    890.1096     2.090     1.302  22.82
       295   1     507.5027     73.74612  -6.7636   0.1578  7.21    339.9203    886.6306     1.415     0.775   1.88
       296   1     113180.5      84.9771 -12.6344   0.0008  3.50   1592.4192    881.6258     2.521     2.454  77.78
       297   1     546.2501     44.99252  -6.8435   0.0894  3.50   1304.3325    887.0422     1.542     1.113  75.03
       298   1     482.7075      86.3876  -6.7092   0.1944  8.33    575.0490   1482.7100     1.286     0.867 -58.95
       299   1      92.7373     25.78186  -4.9181   0.3019  5.16   1494.5195   1491.4725     0.508     0.491 -44.36
       300   1     842380.1     113.0507 -14.8138   0.0001  3.50    183.6504    883.3855     3.376     3.248 -26.41
       301   1      8111.31     192.0705  -9.7727   0.0257  4.91    224.2593    880.2744     7.312     2.198  87.90
       302   1     705.2578     43.28115  -7.1209   0.0666  3.50   1499.9142    887.1636     1.342     1.208 -26.46
       303   1     161.9674     34.76426  -5.5236   0.2331  7.89    680.6743    890.3394     0.577     0.334  45.59
       304   1     107.3087     23.95961  -5.0766   0.2425  5.71   1346.6783   1438.3159     0.565     0.340  44.70
       305   1     475.9077     60.71316  -6.6938   0.1385  5.39   1001.2723    913.9100     1.204     1.096 -17.82
       306   1      6173.15     70.82017  -9.4763   0.0125  3.59    302.6043    901.8692     2.057     1.976 -34.46
       307   1     2377.245     60.71316  -8.4402   0.0277  3.50    308.0414   1409.4983     1.862     1.681  24.91
       308   1      384.241     53.85655  -6.4615   0.1522  7.53    999.4856   1476.4879     1.042     0.500   0.19
       309   1     964.6317     53.00837  -7.4609   0.0597  3.70   1322.3406    929.8042     1.571     1.384  46.81
       310   1     1569.895     97.09128  -7.9897   0.0672  5.44    538.4570    897.4306     1.930     1.748  24.11
       311   1     355.4979     59.96204  -6.3771   0.1832  5.91   1315.2382    905.9017     1.271     0.849 -65.12
       312   1     283.4041     51.26991  -6.1310   0.1965  7.37    253.0125    917.6941     0.750     0.681  -8.55
       313   1     99.82971     28.56175  -4.9981   0.3107  6.94    647.3333   1439.7006     0.562     0.341  43.22
       314   1     1669.673     66.41702  -8.0566   0.0432  4.25   1067.0040    940.5593     1.748     1.481  57.77
       315   1       1379.4     59.96204  -7.8492   0.0472  3.77    806.9286    923.3117     1.717     1.605  54.07
       316   1     871.7479     66.18917  -7.3510   0.0825  4.79    838.4766    913.9816     1.456     1.366  19.68
       317   1     142192.6     89.31099 -12.8822   0.0007  3.50   1090.3253   1435.6704     2.678     2.602 -24.50
       318   1     2516.965     69.96172  -8.5022   0.0302  4.12    618.8485   1441.0917     1.824     1.681 -20.92
       319   1     14730.41     73.54099 -10.4205   0.0054  3.50   1178.3044    931.0342     2.200     2.100  38.41
       320   1     592.0579     52.14638  -6.9309   0.0957  3.58    349.3109   1411.7700     1.882     1.196  62.17
       321   1      473.999     65.50088  -6.6894   0.1501  6.08   1270.9783   1439.8505     1.332     0.943 -20.07
       322   1     359.2088     44.61699  -6.3884   0.1349  6.76    452.3064    979.3577     1.305     0.918  81.81
       323   1     737.9403     89.31099  -7.1701   0.1314  6.86    516.0170    940.1130     1.572     1.143  52.78
       324   1     3289.223     67.54472  -8.7927   0.0223  3.78    224.4050   1436.6439     1.858     1.776  25.05
       325   1      179.631     41.86171  -5.6360   0.2531  8.71    266.5218    950.5099     0.506     0.493  45.84
       326   1     347.6549     49.16408  -6.3529   0.1536  6.33      1.4694   1413.4290     1.832     0.497  88.51
       327   1     402.0665     58.43084  -6.5107   0.1578  5.72    329.5879   1407.5964     1.160     0.944  56.42
       328   1     1181.385     89.47997  -7.6810   0.0823  5.60    726.7031   1061.0808     1.902     1.434  -1.71
       329   1     17759.58     78.31608 -10.6236   0.0048  3.50   1126.1254   1420.6357     2.320     2.283 -34.01
       330   1     266.8719     46.96392  -6.0658   0.1911  7.42    340.5222   1434.0300     0.823     0.499  88.08
       331   1     205.1942     38.86762  -5.7804   0.2057  6.34   1395.5034   1416.4733     0.955     0.417  18.61
       332   1     413.2156     59.70957  -6.5404   0.1569  5.60    416.5175    966.6982     1.204     0.998 -86.97
       333   1     524.2394      75.1664  -6.7988   0.1557  6.44    806.3504   1390.4209     1.497     0.983   8.80
       334   1     750.2499     76.36275  -7.1880   0.1105  6.88    654.4577    951.8931     1.279     1.030 -83.77
       335   1     696.8173     86.56229  -7.1078   0.1349  7.49    444.5871    948.8864     1.338     1.037  48.92
       336   1     1828.334     77.54066  -8.1551   0.0461  4.80   1386.4298   1416.6014     1.745     1.580 -19.09
       337   1     2529.838     70.82017  -8.5077   0.0304  4.03    713.0336   1391.7222     1.908     1.719 -20.41
       338   1      178.041     28.56175  -5.6263   0.1742  4.12   1362.4108   1404.8667     1.096     0.485 -41.91
       339   1     79324.48     87.25758 -12.2485   0.0012  3.50    114.2376   1394.7201     2.616     2.498  -1.66
       340   1     589.4052     88.11899  -6.9260   0.1624  6.83    152.1142   1353.1615     1.596     1.092 -65.26
       341   1     280.1235     50.37819  -6.1184   0.1953  7.70    569.1644   1067.8490     0.772     0.568 -43.09
       342   1     230.9335     36.87306  -5.9087   0.1734  4.91   1596.9502   1067.0289     0.796     0.782 -16.11
       343   1     919.1122      68.4335  -7.4084   0.0809  4.56    798.0073    982.2230     1.606     1.483   3.70
       344   1      1396.71     65.96053  -7.8628   0.0513  4.17   1038.5699   1393.6556     1.740     1.511  30.41
       345   1     801346.8     123.0331 -14.7596   0.0002  3.50   1159.4207   1367.8370     4.253     3.061  14.88
       346   1     852.5397     79.65491  -7.3268   0.1015  5.49   1031.5436   1401.7448     1.635     1.348 -12.92
       347   1     7233.106     69.09259  -9.6483   0.0104  3.50   1428.3390   1390.1252     2.054     2.011   6.40
       348   1     249.2046      31.0941  -5.9914   0.1355  3.50      6.6790   1064.1102     1.017     0.834  40.45
       349   1     32490.06     81.34389 -11.2794   0.0027  3.50    512.0229   1081.2988     2.420     2.358   4.43
       350   1     100.3112     28.56175  -5.0034   0.3092  6.53    690.3514   1062.3279     0.583     0.330 -44.06
       351   1     9097.925     69.09259  -9.8974   0.0082  3.50   1148.0118   1083.0813     2.077     1.994   4.60
       352   1     276.9354     38.08233  -6.1059   0.1493  3.91    386.2715   1331.4457     1.056     0.912  17.03
       353   1     331.4761     57.64999  -6.3011   0.1889  6.17   1452.9968   1087.1072     1.198     0.771 -58.44
       354   1     325.9106     58.94566  -6.2827   0.1964  7.45   1273.8695   1386.6851     0.947     0.678 -70.91
       355   1     1758.762     89.98504  -8.1130   0.0556  4.59   1218.8118   1073.2251     2.076     1.942 -45.94
       356   1     10471.21     73.74612 -10.0500   0.0076  3.50    751.7597   1105.7528     2.217     2.100  12.71
       357   1     8514.392     74.35813  -9.8254   0.0095  3.57   1018.7115   1373.8862     2.215     2.044  -6.00
       358   1      1052.63       94.569  -7.5557   0.0976  6.33   1563.2683   1066.9034     1.782     1.315  83.42
       359   1     13855.81     131.8065 -10.3541   0.0103  3.78    609.6934   1274.1565     4.528     2.845 -59.48
       360   1     800.7074     61.70043  -7.2587   0.0837  4.81    892.7061   1306.1189     1.549     1.116  10.69
       361   1     1051.909     102.2447  -7.5549   0.1056  6.46    678.2251   1107.0538     1.876     1.409 -62.61
       362   1      292.163     52.43528  -6.1641   0.1949  7.56    396.6889   1089.9775     0.741     0.678  78.17
       363   1     856.6582     96.62337  -7.3320   0.1225  5.86    468.3743   1091.7927     2.027     1.408 -46.24
       364   1     775.4408      50.9744  -7.2239   0.0714  3.60    107.1247   1333.7366     1.518     1.393 -13.23
       365   1     219.6913     35.62276  -5.8545   0.1761  8.32    429.3362   1094.3151     0.570     0.337 -44.00
       366   1     4013.332     66.41702  -9.0088   0.0180  3.50   1331.1583   1279.3628     1.970     1.868  75.43
       367   1      286.597      52.7226  -6.1432   0.1998  5.09    604.7341   1347.7476     1.192     0.949 -57.72
       368   1     1292.167     101.8005  -7.7783   0.0856  6.80   1139.4703   1332.1129     1.774     1.329 -87.52
       369   1     30427.69     93.37164 -11.2082   0.0033  3.50    659.7674   1321.3124     2.433     2.376  30.37
       370   1      128.113     35.62276  -5.2690   0.3020  6.25    857.8014   1239.4314     0.723     0.459 -19.51
       371   1      2978.94     68.13649  -8.6852   0.0248  4.30    669.4908   1308.7526     2.328     1.762 -43.07
       372   1     514.8695     45.98878  -6.7792   0.0970  3.70    263.9217   1320.5797     1.360     1.159  87.69
       373   1     6868.233     80.22186  -9.5921   0.0127  3.68    762.0509   1292.6244     2.478     2.041 -18.67
       374   1     255.2484     51.85587  -6.0174   0.2206  7.14    357.7406   1132.2766     1.404     0.389 -39.54
       375   1     187878.2     96.31017 -13.1847   0.0006  3.50    724.7364   1299.5771     3.024     2.641 -13.41
       376   1     3338.219     61.86967  -8.8088   0.0201  3.93    655.5963   1331.2336     2.017     1.842  31.50
       377   1     2903.848     101.9488  -8.6574   0.0381  4.62   1035.9092   1308.7830     2.653     1.947 -41.41
       378   1      1217940     190.6495 -15.2141   0.0002  3.50    994.9653   1222.6685     5.784     5.394 -19.01
       379   1     230.6769     42.57734  -5.9075   0.2004  8.91     53.4880   1300.5010     0.511     0.489 -45.19
       380   1     848.8954     61.20879  -7.3221   0.0783  4.52    412.4759   1293.8391     1.533     1.269  -9.04
       381   1     66.41431     23.32057  -4.5557   0.3813  5.31     18.3292   1177.3368     0.577     0.333 -45.33
       382   1     476.6803     70.39225  -6.6956   0.1604  7.15    855.2511   1263.6660     1.107     0.924  59.91
       383   1     163.5427     42.57734  -5.5341   0.2827  6.43    545.2073   1292.8115     0.772     0.565 -44.28
       384   1     531.6492      52.7226  -6.8141   0.1077  4.46    219.3738   1131.4594     1.373     1.069  -6.91
       385   1     770.2842     72.92212  -7.2166   0.1028  5.74    547.3595   1130.1282     1.403     1.218 -12.52
       386   1     3275.689     70.60654  -8.7883   0.0234  3.90    807.7176   1266.6025     1.924     1.789  21.43
       387   1     218.1346     39.63735  -5.8468   0.1973  8.08    216.5173   1262.5000     0.506     0.493  45.65
       388   1     333.9142     60.96148  -6.3091   0.1983  6.63    698.2567   1275.2428     1.003     0.875  17.21
       389   1     2630.699     67.99056  -8.5502   0.0281  3.94    304.5523   1235.6240     1.863     1.665  17.19
       390   1     2272.763     139.5992  -8.3914   0.0667  6.94    478.9644   1112.3188     2.246     1.896  26.17
       391   1     1391.268     53.29259  -7.8585   0.0416  3.50    338.7310   1203.1586     1.573     1.551   0.22
       392   1     823.7728     64.80527  -7.2895   0.0854  4.67    672.3082   1243.6260     1.569     1.270  47.75
       393   1     400.5663     60.21346  -6.5067   0.1632  5.81   1153.2820   1229.8678     1.141     0.988  39.15
       394   1     191.8169     38.47698  -5.7072   0.2178  7.77    914.0069   1229.0000     0.857     0.289   0.00
       395   1     323.4972     44.99252  -6.2747   0.1510  5.23     47.8610   1239.1243     0.880     0.857  45.73
       396   1     1539.886     107.5728  -7.9687   0.0759  5.30   1429.0743   1213.7865     2.303     1.899  59.46
       397   1     1456.294     69.74545  -7.9081   0.0520  3.74    124.1070   1196.0702     2.116     1.754 -62.96
       398   1     14236.85     74.15469 -10.3835   0.0057  3.50    512.8182   1215.8978     2.207     2.136  18.66
       399   1     14484.54     155.4705 -10.4023   0.0117  3.50   1278.7723   1211.9110     5.884     3.522  81.67
       400   1     955.7682      88.4612  -7.4509   0.1005  6.05    599.3818   1231.2102     1.577     1.429   7.90
       401   1     16185.45     75.56728 -10.5228   0.0051  3.50    813.5754   1011.1389     2.235     2.154  15.31
       402   1     864.8947      88.4612  -7.3424   0.1111  6.70    674.5300   1115.2982     1.503     1.231   6.97
       403   1     1018.691     76.95396  -7.5201   0.0820  4.66   1441.9402   1201.8494     1.810     1.623  52.81
       404   1     1452.489      75.1664  -7.9053   0.0562  4.16   1075.6211   1204.6588     1.940     1.764  35.90
       405   1     125.1329      31.0941  -5.2434   0.2699  6.68   1216.5016   1205.4938     0.501     0.499 -44.33
       406   1     367.1006     53.85655  -6.4120   0.1593  7.44    673.8192   1184.0554     0.844     0.648  49.05
       407   1     1701.092     70.82017  -8.0768   0.0452  4.59    838.6197   1209.0641     1.628     1.530 -85.52
       408   1     547.5908     54.96711  -6.8461   0.1090  4.51    549.4365   1182.2438     1.365     1.162  63.25
       409   1      63.3595     13.46414  -4.5045   0.2308  3.50    675.3583   1199.3076     0.576     0.333 -42.80
       410   1     7740.809     149.6277  -9.7220   0.0210  4.14    757.6690   1174.0706     3.728     3.671 -60.08
       411   1      270.066     53.29259  -6.0787   0.2143  7.80    769.3131   1146.9307     0.740     0.662 -78.72
       412   1     9296.462     73.95068  -9.9208   0.0086  3.50   1194.6738   1220.2112     2.219     2.135  79.35
       413   1     192.7257      40.7647  -5.7123   0.2297  6.32    176.1746   1183.1825     0.768     0.562  39.53
       414   1     15940.92      75.1664 -10.5063   0.0051  3.50    183.3151   1131.2631     2.216     2.194 -13.66
       415   1     49494.34     81.89915 -11.7364   0.0018  3.50   1299.5167   1166.4532     2.435     2.419 -18.28
       416   1     403.7374     58.43084  -6.5152   0.1572  7.48    607.3633   1134.8856     0.926     0.679  18.15
       417   1     728219.1     102.3924 -14.6557   0.0002  3.50    693.7169   1152.9563     3.059     2.944 -22.86
       418   1     156.0256      31.0941  -5.4830   0.2164  7.65   1599.5134   1168.4937     0.513     0.486  45.15
       419   1      5436.51     67.99056  -9.3383   0.0136  3.56    236.1729   1159.1083     2.071     1.853  28.20
       420   1     512.0812     74.35813  -6.7733   0.1577  6.45   1053.3411   1197.7760     1.511     0.930  44.72
       421   1     832.9637     70.17731  -7.3016   0.0915  4.59   1352.9100   1154.7657     1.612     1.495 -16.10
       422   1     1239.575     54.41467  -7.7332   0.0477  3.50     99.1970   1152.6021     1.653     1.566   8.20
       423   1     368.6072     52.43528  -6.4164   0.1545  5.38    887.8405   1162.5740     1.077     0.954 -13.08
       424   1     1595.848      68.4335  -8.0075   0.0466  4.40   1553.3666   1238.3259     1.624     1.543 -27.73
       425   1     205.5831      47.2845  -5.7825   0.2498  7.54    566.4995   1159.0022     0.808     0.499 -87.43
       426   1     1276.627     76.16467  -7.7652   0.0648  4.28    432.3238   1260.6810     2.008     1.654  39.16
       427   1     30464.74     79.46503 -11.2095   0.0028  3.50    147.8708   1139.7605     2.374     2.252   9.27
       428   1     313.2339     47.60292  -6.2397   0.1650  4.61    329.8651   1080.5231     1.274     0.873 -14.78
       429   1     787.1166     86.21255  -7.2401   0.1189  7.60    661.9436   1142.2557     1.277     1.052  61.69
       430   1     2437.794     98.32816  -8.4675   0.0438  4.28    329.5141   1121.3391     2.885     1.935  58.33
       431   1      6731.11     72.08869  -9.5702   0.0116  3.61    427.8490   1108.7538     2.144     1.993 -17.07
       432   1     839.6276     65.26983  -7.3102   0.0844  4.92   1526.4594   1096.9325     1.378     1.341  39.79
       433   1     3060.474     69.52851  -8.7145   0.0247  3.96    642.2300   1090.5520     1.837     1.782  37.76
       434   1     29448.91     79.65491 -11.1727   0.0029  3.50    777.9921   1096.1091     2.360     2.304  22.62
       435   1     83.05237     19.04117  -4.7984   0.2490  4.85    921.3041   1080.3595     0.575     0.334 -47.43
       436   1     227.0465       33.884  -5.8903   0.1621  4.13   1136.1643   1096.0422     0.930     0.750  -2.76
       437   1     8230.291     72.08869  -9.7885   0.0095  3.61    525.2730   1039.9672     2.081     2.004  34.31
       438   1     284.3126     36.46106  -6.1345   0.1393  3.50     42.8696   1084.8866     1.308     0.832 -24.10
       439   1     376.1748     38.08233  -6.4385   0.1099  3.50      6.7479   1074.3256     1.284     0.955 -15.28
       440   1     189.1157     38.08233  -5.6918   0.2187  8.92   1268.9790   1022.3209     0.914     0.210  27.93
       441   1      208.843     42.93069  -5.7996   0.2232  6.89    452.9906   1015.7997     0.813     0.506 -57.16
       442   1     341.0736     54.13633  -6.3321   0.1724  7.19    121.8084   1039.4487     1.226     0.489  -4.72
       443   1     158.4404     35.19613  -5.4997   0.2412  7.29    467.0000   1041.9911     0.854     0.289  90.00
       444   1     470424.8     95.20583 -14.1812   0.0002  3.50     50.2349   1025.0107     2.836     2.743 -13.34
       445   1     42185.18     81.71449 -11.5629   0.0021  3.50    632.9081   1041.5154     2.403     2.380  15.37
       446   1     1812.208     92.46899  -8.1455   0.0554  4.31    302.4147   1031.5602     2.780     1.760  69.62
       447   1     18879.67     76.16467 -10.6900   0.0044  3.50   1379.8350   1027.0431     2.268     2.220  39.83
       448   1     2372.005     71.66835  -8.4378   0.0328  4.09    344.5314   1012.6006     1.832     1.773   6.93
       449   1     28986.71     78.89265 -11.1555   0.0030  3.50    558.3825    986.2112     2.344     2.301  40.36
       450   1     1899.479     115.9533  -8.1966   0.0663  6.28    454.1959    987.8431     2.011     1.798  42.05
       451   1     136.0511     30.10673  -5.3343   0.2403  7.27    266.6644   1011.6666     0.578     0.333 -44.91
       452   1     2722.193     72.29795  -8.5873   0.0288  3.99    542.3759   1002.9365     1.958     1.742  41.73
       453   1     221.9371     55.51406  -5.8656   0.2716  7.71    233.2841    999.1209     0.876     0.616 -61.34
       454   1     694.7241     51.56372  -7.1045   0.0806  4.05   1273.6108   1001.1901     1.429     1.188  -3.61
