#   1 NUMBER                 Running object number                                     
#   2 EXT_NUMBER             FITS extension number                                     
#   3 FLUX_BEST              Best of FLUX_AUTO and FLUX_ISOCOR                          [count]
#   4 FLUXERR_BEST           RMS error for BEST flux                                    [count]
#   5 MAG_BEST               Best of MAG_AUTO and MAG_ISOCOR                            [mag]
#   6 MAGERR_BEST            RMS error for MAG_BEST                                     [mag]
#   7 KRON_RADIUS            Kron apertures in units of A or B                         
#   8 X_IMAGE                Object position along x                                    [pixel]
#   9 Y_IMAGE                Object position along y                                    [pixel]
#  10 A_IMAGE                Profile RMS along major axis                               [pixel]
#  11 B_IMAGE                Profile RMS along minor axis                               [pixel]
#  12 THETA_IMAGE            Position angle (CCW/x)                                     [deg]
         1   1     105581.9     80.64646 -12.5590   0.0008  3.50   1809.4619     47.7751     2.089     2.052  -1.17
         2   1      1908.76     85.27242  -8.2019   0.0485  3.97    128.1734     25.0814     2.091     1.738 -45.03
         3   1     6433.707     134.9773  -9.5212   0.0228  4.54    104.8332     15.3222     3.175     2.184  -6.11
         4   1      1226.05     59.96079  -7.7213   0.0531  3.72    391.8920     13.0684     1.504     1.341  59.41
         5   1     529.4646     74.12109  -6.8096   0.1520  6.76    683.3903     13.6875     1.254     0.771  -2.32
         6   1        21175     99.88973 -10.8146   0.0051  3.50   1272.4957      2.9619     3.973     2.324  -9.60
         7   1     595.0635     49.64063  -6.9364   0.0906  3.67    710.6763     10.1252     1.267     1.089  38.74
         8   1     3730.669     50.04586  -8.9295   0.0146  3.50   1789.0267      2.0099     1.899     1.180   0.33
         9   1     497.7581     67.26379  -6.7425   0.1468  8.50    146.3240      5.9299     0.738     0.673 -81.33
        10   1     154.2981     33.02587  -5.4709   0.2324  6.64    889.3494      3.7148     0.562     0.339  41.64
        11   1     156.6531     34.81232  -5.4873   0.2413  5.82   1557.7551     13.9713     0.685     0.430 -88.59
        12   1     553.4354     70.48958  -6.8577   0.1383  5.29    481.9894     21.4538     1.249     1.094   5.47
        13   1     745.7653     74.93414  -7.1815   0.1091  4.57    283.2458     24.3629     1.667     1.254 -14.97
        14   1     283.5536      53.1767  -6.1316   0.2037  6.52    573.2457     21.3041     0.854     0.623 -30.80
        15   1     5089.567     64.19075  -9.2667   0.0137  3.50   1592.2009     39.7215     1.666     1.578 -60.76
        16   1     535.6843     57.20248  -6.8223   0.1160  4.61   1992.9584     28.7470     1.178     1.024  10.63
        17   1     1225.144     62.59768  -7.7205   0.0555  3.50     37.1807     37.4445     1.688     1.470  76.99
        18   1     160.1467     40.69718  -5.5113   0.2760  6.20     54.5985     26.8429     0.736     0.448  70.13
        19   1     977.8069     51.63502  -7.4756   0.0573  3.59    430.7780     35.4037     1.277     1.273 -74.85
        20   1     276434.8     86.21469 -13.6040   0.0003  3.50     84.8643     83.8007     2.244     2.160  -3.95
        21   1      6670.77     66.66052  -9.5604   0.0109  3.50   1392.4606     47.2534     1.707     1.656  40.24
        22   1     520.4089     80.14398  -6.7909   0.1672  6.38    483.5290     37.2027     1.500     0.835 -89.12
        23   1     334.4832     60.63077  -6.3109   0.1969  5.97    290.7148     33.5543     1.164     0.705  14.45
        24   1     197.7161     41.19049  -5.7401   0.2262  8.37   1831.3383     28.3340     0.580     0.332 -44.82
        25   1     259.3528      52.7955  -6.0347   0.2211  6.73    857.3048     32.0227     0.738     0.676  79.38
        26   1     6323.448     66.35683  -9.5024   0.0114  3.51   1630.2522     50.6770     1.677     1.660  43.05
        27   1     434.9465     65.74523  -6.5961   0.1642  7.78    199.1733     36.0702     0.846     0.670 -50.26
        28   1      621.543     46.70563  -6.9837   0.0816  3.50    898.0880     43.1428     1.244     1.113  55.11
        29   1     302.2133     63.55831  -6.2008   0.2284  6.22    700.6210     40.5510     0.995     0.802 -75.23
        30   1     280.1497     49.23206  -6.1185   0.1908  4.93    985.7956     43.1997     0.887     0.868  79.54
        31   1     252.3301     52.02472  -6.0049   0.2239  5.31    945.3765     43.4737     0.946     0.807 -80.54
        32   1     164.4714     45.83255  -5.5402   0.3026  8.01    781.5137     40.5179     0.509     0.490  44.80
        33   1      378.972     56.84828  -6.4465   0.1629  7.30   1639.3257     43.8012     0.736     0.651  22.33
        34   1      339.024     60.29671  -6.3256   0.1931  6.61   1689.1411     47.4660     1.155     0.572  64.14
        35   1     21693.28     73.02294 -10.8408   0.0037  3.50   1562.9475     78.6238     1.875     1.830  79.05
        36   1     287.8295      57.5545  -6.1478   0.2172  6.37   1044.5131     48.8061     0.817     0.795  88.44
        37   1     292.6118     37.06055  -6.1657   0.1375  3.50    938.2899     53.6231     1.014     0.910  20.78
        38   1     1253.803     104.0494  -7.7456   0.0901  5.34   1211.8975     67.4396     1.823     1.643 -27.65
        39   1     176.9055     39.69215  -5.6194   0.2437  4.28    630.8182     59.8182     1.530     0.484  43.25
        40   1     270.3356     38.13499  -6.0798   0.1532  3.50    910.6484     64.0894     1.372     0.665 -45.58
        41   1     342.9612     61.62207  -6.3381   0.1951  7.20    888.1830     64.1118     0.830     0.666 -47.87
        42   1     1974.511     108.2359  -8.2386   0.0595  4.98   1157.3732    136.9296     2.620     1.404 -11.59
        43   1     4490.511     69.62464  -9.1307   0.0168  3.72   1858.2599     84.9909     1.685     1.631  71.86
        44   1     338.0638     62.27417  -6.3225   0.2001  6.90    166.9249     74.9768     1.158     0.573 -64.99
        45   1     647.3778     76.26997  -7.0279   0.1279  6.19   1145.3097     75.9414     1.204     0.982  58.20
        46   1     399.9636     66.96284  -6.5051   0.1818  7.33    146.2144     73.8695     1.021     0.657 -59.05
        47   1     2697.359     59.28325  -8.5773   0.0239  3.50    147.8975     85.5553     1.568     1.494 -70.42
        48   1     1545.687     70.20245  -7.9728   0.0493  4.43   1742.1411     83.2871     1.455     1.356  52.08
        49   1     132.8293     33.02587  -5.3082   0.2700  6.45   2024.6877     74.6615     0.570     0.337 -46.24
        50   1     80429.13     80.64646 -12.2635   0.0011  3.50    409.0343    119.3527     2.062     2.012 -22.81
        51   1     274.2057     55.40885  -6.0952   0.2194  9.56   1958.4961     77.4801     0.500     0.499  28.47
        52   1     548.9629     66.35683  -6.8489   0.1313  5.19   1138.6598    136.9196     1.253     1.021  65.79
        53   1     1384.791     98.05299  -7.8535   0.0769  5.79    467.8998     96.5909     1.569     1.440 -35.84
        54   1     1037.299     98.05299  -7.5398   0.1027  6.53   1929.6885     92.0373     1.368     1.284  31.82
        55   1     4348.999     66.66052  -9.0960   0.0166  3.50    203.0595    103.3458     1.747     1.635  42.96
        56   1     561.1134      76.7978  -6.8726   0.1486  6.32    913.5170     90.7653     1.286     0.914 -66.85
        57   1     14509.55     177.3949 -10.4041   0.0133  4.01    363.6902    158.2316     6.237     2.478  70.04
        58   1     1462.254     60.66286  -7.9126   0.0451  4.54    210.1937     98.8311     1.596     1.463  11.85
        59   1     1061.472     54.30424  -7.5648   0.0556  3.67    965.2560     96.5028     1.346     1.281 -24.37
        60   1      2648.34     65.74523  -8.5574   0.0270  3.76    224.8436    103.2407     1.645     1.472  16.46
        61   1     646.8359     62.59768  -7.0270   0.1051  4.80   1234.5125     98.0901     1.307     0.994  86.90
        62   1     363.3267     64.19075  -6.4007   0.1919  6.39   1740.3676     94.4370     0.961     0.826 -69.49
        63   1     519.3179     78.35995  -6.7886   0.1639  8.40   1289.9292     93.2749     1.065     0.647  32.15
        64   1     339.3618     62.59768  -6.3267   0.2003  8.02    907.1627     95.6481     0.751     0.653  60.49
        65   1     608.2867     64.19075  -6.9603   0.1146  4.32    662.3414    104.0908     1.497     1.164  60.39
        66   1     480.0842     62.59768  -6.7033   0.1416  4.66    617.4846    104.8935     1.247     1.103   3.78
        67   1     393.5917     71.90802  -6.4876   0.1984  6.64   1173.9756    104.3713     1.815     0.503 -32.58
        68   1     362.4841     66.05173  -6.3982   0.1979  6.69    421.6488    104.4429     0.953     0.821  64.64
        69   1     889.9984     66.35683  -7.3735   0.0810  4.57    638.8632    111.4689     1.340     1.250   1.28
        70   1     477.9048     50.84665  -6.6984   0.1155  4.42    975.7573    108.3102     1.079     0.964  25.38
        71   1     820.5018     78.35995  -7.2852   0.1037  5.05    238.1115    116.7018     1.428     1.303 -37.68
        72   1     5992.981     73.29902  -9.4441   0.0133  3.50     17.1366    129.8689     1.977     1.734 -37.25
        73   1     97.57458     49.23206  -4.9733   0.5480  8.81   1199.4955    107.5183     0.500     0.500  14.02
        74   1     174.9709      34.2272  -5.6074   0.2124  5.62   1351.7662    115.7704     0.853     0.347  71.84
        75   1     690.3895     51.63502  -7.0977   0.0812  3.60   1575.7261    124.6857     1.290     1.222  48.11
        76   1     1655.567     62.27417  -8.0474   0.0408  3.60    237.8255    134.5454     1.599     1.469 -64.98
        77   1     523.8473     44.03449  -6.7980   0.0913  3.58   1053.9829    123.9276     1.136     1.095 -89.50
        78   1     232.2014     46.70563  -5.9147   0.2184  6.46    272.5155    120.5023     0.972     0.413  18.66
        79   1     1964.717     112.6256  -8.2332   0.0623  5.11    217.8281    136.0206     2.547     1.523   3.12
        80   1     345358.4     88.52649 -13.8457   0.0003  3.50    841.4165    202.0947     2.290     2.207 -26.26
        81   1     135.7081     36.51147  -5.3315   0.2922  5.46    265.3993    127.2258     0.767     0.450  71.91
        82   1     491.8751     49.23206  -6.7296   0.1087  3.50    617.4883    135.3488     1.385     1.135  38.37
        83   1     379.3606     42.63621  -6.4476   0.1221  3.50    497.8210    132.3410     1.251     0.947  15.89
        84   1     1549.376     113.8741  -7.9754   0.0798  5.21   1421.2386    171.0096     2.618     1.421   3.11
        85   1     341.0458     51.24235  -6.3320   0.1632  5.21   1461.6962    135.4933     1.147     0.672  53.07
        86   1     250.0272     41.67797  -5.9950   0.1810  4.56    991.9123    136.6467     0.904     0.696 -64.24
        87   1     116315.6     83.11328 -12.6641   0.0008  3.50     57.8205    180.8305     2.121     2.063   1.03
        88   1     890179.5     264.9703 -14.8737   0.0003  3.50    446.7198    423.8297     7.028     6.434 -23.01
        89   1     845.9652     88.75436  -7.3184   0.1139  6.05   1018.4108    148.9804     1.360     1.234  33.26
        90   1     449.0532     78.35995  -6.6307   0.1895  7.28   1777.9203    146.9513     1.247     0.737 -74.82
        91   1     209.0115     49.23206  -5.8004   0.2558  7.44    927.2054    146.3951     0.778     0.445  18.42
        92   1     384.9701     52.02472  -6.4636   0.1468  4.67    942.3511    154.6954     1.160     0.849 -59.53
        93   1     484.3409     56.13318  -6.7129   0.1259  4.48    499.2713    155.0822     1.129     1.096 -69.81
        94   1     89.92419     28.42414  -4.8847   0.3433  5.71    217.6546    152.3335     0.583     0.330  44.53
        95   1     2511.113     112.4461  -8.4997   0.0486  4.65    267.4341    181.0154     2.502     1.838 -86.61
        96   1     405.7961     43.57338  -6.5208   0.1166  3.50    115.1227    164.5790     1.171     1.046 -33.13
        97   1     290.1803     54.67493  -6.1567   0.2046  6.12   1861.7961    161.3596     0.969     0.640 -16.23
        98   1     201.4573     44.94251  -5.7605   0.2423  6.25   1309.8341    161.8151     0.762     0.564  46.14
        99   1     762.0911     97.64013  -7.2050   0.1391  7.08   1774.1622    168.8051     1.489     0.996  35.94
       100   1     621.3711     54.30424  -6.9834   0.0949  4.24    965.9404    168.9172     1.215     1.075  38.12
       101   1     317.7897     55.04311  -6.2553   0.1881  6.61    946.1003    163.9012     0.831     0.673  45.04
       102   1     2375.602     105.9729  -8.4394   0.0484  4.68   1478.5349    185.2039     2.317     1.719  65.92
       103   1     199.0376     31.77916  -5.7473   0.1734  3.50    692.0450    169.4879     0.828     0.679  85.91
       104   1     208.8115     50.44785  -5.7994   0.2624  7.59    123.7763    168.6057     0.747     0.448  19.01
       105   1      590.787     67.56342  -6.9286   0.1242  4.68   1175.8380    180.9934     1.451     1.118 -32.67
       106   1     552.3645     51.63502  -6.8556   0.1015  3.53   1651.2532    188.5265     1.423     1.243  -2.23
       107   1     760.9817     91.22334  -7.2034   0.1302  7.44    853.2240    187.4356     1.178     1.020  48.89
       108   1     2679.629     61.29342  -8.5702   0.0248  3.50   1286.7784    198.1050     1.602     1.476  59.92
       109   1     190.6901      52.7955  -5.7008   0.3007  8.07   1297.4166    183.2076     0.745     0.451  70.39
       110   1      3403.46     63.55831  -8.8298   0.0203  3.50   1316.4335    199.2946     1.617     1.599 -66.66
       111   1     391.2908     50.84665  -6.4812   0.1411  4.34   1382.2776    191.1088     1.089     1.003  -1.59
       112   1      272.155     57.20248  -6.0870   0.2283  5.92   1127.5168    190.2158     0.980     0.724   2.25
       113   1     721.2838     90.55666  -7.1453   0.1363  6.03   1996.5325    198.5749     1.484     1.196 -38.76
       114   1     450.2682     67.26379  -6.6337   0.1622  6.11   1874.3276    200.9094     1.055     0.900  84.50
       115   1     428.6735       69.042  -6.5803   0.1749  5.62    286.9711    202.8932     1.456     0.814  36.64
       116   1     1169.175     73.84808  -7.6697   0.0686  4.76    905.5334    210.8043     1.516     1.257 -87.00
       117   1     283.7827     56.13318  -6.1325   0.2148  5.91   1385.7551    203.5934     0.983     0.713 -87.31
       118   1     373.6184     56.84828  -6.4311   0.1652  5.13   1567.1519    207.3578     1.127     0.855  23.80
       119   1     362.6268     60.63077  -6.3986   0.1816  6.27    174.6127    209.0812     1.036     0.731 -15.94
       120   1     481.4791     73.02294  -6.7064   0.1647  6.05   1674.9954    221.7847     1.556     0.718 -84.52
       121   1     3730.709     64.81702  -8.9295   0.0189  3.50   1319.2437    234.4955     1.677     1.557  87.11
       122   1     228.4841     45.83255  -5.8971   0.2178  8.19   1766.5563    214.5098     0.502     0.494  56.15
       123   1     283.0902      53.1767  -6.1298   0.2040  5.97   1560.6688    218.9956     1.027     0.628 -35.88
       124   1     1130.889     60.29671  -7.6336   0.0579  3.98    867.2000    232.7005     1.481     1.249  15.26
       125   1     443.5031     69.33393  -6.6172   0.1698  5.64   1769.6071    230.5946     1.235     0.957  10.83
       126   1       742.51     73.57407  -7.1768   0.1076  4.54   1024.9519    238.0278     1.547     1.339   8.89
       127   1     1529.104     79.12946  -7.9611   0.0562  3.71   1603.9935    247.9480     2.268     1.582  36.25
       128   1     238.5447     54.67493  -5.9439   0.2489  6.71    801.4216    235.3030     0.936     0.549  32.27
       129   1     300.7247     62.91952  -6.1954   0.2272  6.99   1172.6427    236.1177     0.974     0.671  17.78
       130   1     362.9541     56.84828  -6.3996   0.1701  4.95   1848.4601    245.3051     1.236     0.837  57.40
       131   1       835.45     57.90438  -7.3048   0.0753  3.83    240.0003    249.9222     1.395     1.286 -60.10
       132   1     577839.1     93.19478 -14.4045   0.0002  3.50    850.3535    332.4452     2.442     2.305 -10.62
       133   1     872.2267     48.82006  -7.3516   0.0608  3.50     58.4184    256.2734     1.390     1.098  29.38
       134   1     4770.588     164.6393  -9.1964   0.0375  5.44    599.3572    281.6423     2.831     2.551 -59.38
       135   1     454.1475     58.25216  -6.6430   0.1393  5.19   1938.5734    258.9586     1.062     0.897 -66.93
       136   1     513.5447     60.63077  -6.7764   0.1282  5.13    505.8069    267.4176     1.189     0.933 -55.77
       137   1     1884.405     98.87353  -8.1879   0.0570  4.42    726.3789    275.9170     2.355     1.672  10.96
       138   1     282.3876     58.59787  -6.1271   0.2254  6.30   1078.7241    267.7991     0.894     0.768   6.10
       139   1     13564.26     71.62658 -10.3310   0.0057  3.50     51.8876    293.7979     1.834     1.800  41.00
       140   1     1930.634      92.9778  -8.2142   0.0523  4.49    985.2731    284.1187     2.066     1.635   9.43
       141   1     668.8151     46.27115  -7.0633   0.0751  3.53   1168.9657    273.8155     1.204     1.120  34.52
       142   1     171.1136     42.15982  -5.5832   0.2676  7.17   1515.5095    267.5219     0.501     0.498  41.85
       143   1     292.0646      53.1767  -6.1637   0.1977  5.54   1480.8132    272.1343     0.979     0.748 -28.88
       144   1     272.8219     55.04311  -6.0897   0.2191  6.71   2025.0941    273.3091     0.888     0.596 -29.87
       145   1     136.8246     31.77916  -5.3404   0.2522  5.23    838.2280    275.0131     0.697     0.420 -89.45
       146   1     288.5616     50.04586  -6.1506   0.1883  5.10   1156.8646    278.5295     1.034     0.720  47.16
       147   1     300.1017     55.77219  -6.1932   0.2018  4.92    818.3969    282.1840     1.184     0.854 -46.76
       148   1     627.6932     74.66411  -6.9944   0.1292  5.78    547.8062    284.5416     1.323     0.987  20.93
       149   1     145.9034     35.95401  -5.4102   0.2676  6.38   1571.4686    279.4843     0.500     0.499  78.09
       150   1     415.5758     50.84665  -6.5466   0.1329  4.29    433.3553    289.3799     1.187     0.938  60.81
       151   1     1643.419     56.84828  -8.0394   0.0376  3.50   1438.4133    294.8807     1.451     1.440  54.96
       152   1     1072.881     72.18837  -7.5764   0.0731  3.82   1524.7085    298.4335     2.206     1.295 -13.69
       153   1     1572.007      92.9778  -7.9911   0.0642  4.18    961.7872    304.3109     2.325     1.670  30.98
       154   1     328.1715      68.1587  -6.2903   0.2256  7.22   1876.1555    293.9982     0.947     0.748  -2.17
       155   1     5497.573      115.109  -9.3504   0.0227  4.28    616.9211    320.3971     2.491     2.308 -76.42
       156   1     264.1417     34.81232  -6.0546   0.1431  3.50     92.8669    301.6922     1.030     0.744  77.39
       157   1     3297.056     64.81702  -8.7953   0.0213  3.50     69.5812    315.5953     1.696     1.590   6.94
       158   1     358.4507     56.84828  -6.3861   0.1722  6.36   1643.0951    303.6768     0.911     0.689  67.24
       159   1     668255.1     246.5702 -14.5624   0.0004  3.50    182.8338    589.6677     6.547     5.990 -17.24
       160   1     14086.67     192.5723 -10.3720   0.0148  4.86    666.2453    350.5802     4.069     3.045 -43.26
       161   1     21744.01     73.57407 -10.8433   0.0037  3.50   1015.9412    335.1689     1.898     1.836  -2.43
       162   1     3706.038     72.46763  -8.9223   0.0212  3.87    906.0149    327.7777     1.738     1.578  28.58
       163   1     1450.173     65.74523  -7.9035   0.0492  3.98    517.9651    330.8407     1.530     1.391 -11.76
       164   1      6230.52     67.86171  -9.4863   0.0118  3.50    212.7338    342.3271     1.717     1.698 -10.85
       165   1     271.9889      53.1767  -6.0864   0.2123  5.80   1528.4736    323.8529     1.128     0.583 -25.76
       166   1     19115.03     128.8526 -10.7034   0.0073  3.50    365.0495    367.1026     3.945     2.723  31.65
       167   1     1317.856     97.01756  -7.7997   0.0799  6.92    223.4326    338.8359     1.345     1.155 -18.41
       168   1     190.7483     48.40457  -5.7012   0.2756  6.20    393.0092    326.4298     0.778     0.612  88.69
       169   1     1193.674     75.73847  -7.6922   0.0689  4.47   1552.3898    340.3760     1.755     1.281 -70.86
       170   1     240.8179     49.64063  -5.9542   0.2239  6.59    979.0529    328.9881     0.891     0.529 -45.02
       171   1     604.8893     90.33334  -6.9542   0.1622  6.33    509.2126    338.2973     1.403     1.140  53.12
       172   1     774.5945     50.84665  -7.2227   0.0713  3.50   1351.5309    339.9496     1.317     1.259 -18.50
       173   1      493.584     64.50464  -6.7334   0.1419  5.34     87.0966    337.3274     1.133     1.033  -0.16
       174   1     351.8147     67.26379  -6.3658   0.2076  6.34    516.4710    339.5151     0.944     0.916   9.02
       175   1     864.9031      118.396  -7.3424   0.1487  7.25    449.1992    351.3694     1.804     1.164  66.75
       176   1      214.621     38.13499  -5.8292   0.1930  7.76    340.6568    338.6789     0.576     0.334 -44.04
       177   1     235.0645     45.83255  -5.9280   0.2117  7.89     18.4387    339.5136     0.502     0.494 -59.38
       178   1     39427.24     77.58281 -11.4895   0.0021  3.50   2012.5479    377.7096     1.965     1.941  -5.54
       179   1     196.3854     44.03449  -5.7328   0.2435  6.04   1321.6935    342.1476     1.435     0.306  -7.37
       180   1     483.9984     71.62658  -6.7121   0.1607  6.82    819.7367    348.5327     1.087     0.817  37.06
       181   1      568.176     70.77554  -6.8862   0.1353  4.68   1581.1191    354.8746     1.754     1.033  41.61
       182   1     4446.024     67.86171  -9.1199   0.0166  3.50    194.4534    368.6043     1.744     1.650  16.24
       183   1     17441.94     72.18837 -10.6040   0.0045  3.50   1780.8149    377.0105     1.841     1.791  41.80
       184   1     369.5365     63.23972  -6.4191   0.1858  7.24    319.9995    356.0051     0.798     0.769 -56.50
       185   1     1538.035     127.5924  -7.9674   0.0901  7.08    674.2722    372.8461     2.021     1.252  65.35
       186   1     265.9346     53.93102  -6.0619   0.2202  5.98   1757.2687    360.8631     1.021     0.633 -82.31
       187   1     150.2252     34.81232  -5.4419   0.2517  7.41   1126.6635    355.3196     0.573     0.336  44.22
       188   1     173.3683     27.70443  -5.5974   0.1735  3.50   1511.3940    359.2988     0.973     0.538  31.31
       189   1     494.6174     45.38971  -6.7357   0.0997  3.50   1261.5867    364.9217     1.182     1.125 -35.27
       190   1     1355.904     86.21469  -7.8306   0.0691  4.38    323.8481    381.0164     2.248     1.374 -82.32
       191   1     2440.906     107.6746  -8.4689   0.0479  3.89   1120.2247    387.0502     2.740     2.203  86.45
       192   1     784.7346     96.80914  -7.2368   0.1340  5.96   1563.5935    374.4207     1.635     1.279 -81.82
       193   1     11327.88     70.48958 -10.1354   0.0068  3.50    984.0757    387.4174     1.860     1.695   8.44
       194   1      1562.48     55.77219  -7.9845   0.0388  3.50   1830.3179    384.2396     1.452     1.374  16.01
       195   1     233.3079     48.82006  -5.9198   0.2272  6.22     52.3316    371.5791     1.000     0.478   8.05
       196   1     904.0098     74.66411  -7.3904   0.0897  4.64    165.2072    385.3449     1.532     1.327  68.46
       197   1     1297.631     105.3995  -7.7829   0.0882  5.48   1062.4883    389.1773     1.957     1.483 -36.24
       198   1     1024.974     60.63077  -7.5268   0.0642  3.92    204.7382    384.4936     1.404     1.377 -26.39
       199   1     610.7322     50.84665  -6.9646   0.0904  3.96   1253.9581    382.9557     1.137     1.118   8.64
       200   1     494.2836     71.62658  -6.7349   0.1574  6.86   1795.1074    383.5205     1.156     0.737  84.67
       201   1     1277.971     105.2077  -7.7663   0.0894  5.07   1805.7225    392.5271     2.111     1.589 -36.17
       202   1      416.843      76.7978  -6.5499   0.2001  8.15   1051.7521    383.1138     1.054     0.648 -81.82
       203   1      1122.27     106.7326  -7.6252   0.1033  6.26    693.1362    394.6886     1.660     1.373 -48.35
       204   1     8865.677     254.3127  -9.8693   0.0312  5.02   1710.8243    462.4604     7.902     2.556 -56.96
       205   1     2121.092     67.26379  -8.3164   0.0344  3.50    356.0075    399.2673     2.094     1.398  24.78
       206   1     196.6346      52.7955  -5.7341   0.2916  7.17   1030.0178    386.9988     1.016     0.392  31.21
       207   1     7408.095     73.02294  -9.6743   0.0107  3.59    386.4282    432.4780     1.860     1.780  71.40
       208   1     286.5732     43.57338  -6.1431   0.1651  4.37     21.9219    390.9725     1.053     0.720  -1.62
       209   1     576.1064     61.29342  -6.9013   0.1155  4.71    847.7771    394.5114     1.499     0.904  -8.45
       210   1     91309.11     79.89156 -12.4013   0.0010  3.50   2029.8105    438.5792     2.052     2.012   7.36
       211   1     169.9026     39.17997  -5.5755   0.2504  6.51   1767.9999    402.2373     0.679     0.425   0.00
       212   1      1228.81     89.88503  -7.7237   0.0794  4.80    605.1092    424.9921     1.868     1.461 -66.04
       213   1     230.7827     47.56269  -5.9080   0.2238  5.99    743.6935    406.9743     0.727     0.671 -88.73
       214   1      272.558     69.62464  -6.0886   0.2774  5.53   1762.0509    413.4962     1.375     0.895 -39.50
       215   1     224.0945     54.30424  -5.8761   0.2632  7.57    580.2028    412.4201     1.028     0.392 -84.56
       216   1     157.7728     25.42332  -5.4951   0.1750  5.00    752.4601    408.4857     0.500     0.498  64.56
       217   1     433.5135     72.18837  -6.5925   0.1808  6.86    127.6279    414.3544     1.073     0.795  25.72
       218   1     161.8231     42.15982  -5.5226   0.2829  8.51     73.6791    409.3561     0.581     0.330  46.43
       219   1     185.8818     38.66101  -5.6731   0.2259  4.62    873.7270    416.4099     0.958     0.588  69.42
       220   1     1732.073     74.12109  -8.0964   0.0465  4.25    645.8036    425.6741     1.752     1.360  22.24
       221   1     736.5944     95.97095  -7.1681   0.1415  6.74    658.7817    424.3543     1.785     0.914  22.34
       222   1     91.73035     28.42414  -4.9063   0.3365  5.70    783.6660    422.3215     0.572     0.336  44.43
       223   1     468.5193     52.41153  -6.6768   0.1215  4.53   1744.4257    431.9495     1.155     0.946  65.50
       224   1     5290.894     166.2266  -9.3088   0.0341  5.69   1189.6262    477.4317     2.678     2.521  12.51
       225   1     5079.359     64.19075  -9.2645   0.0137  3.50   1109.1060    443.9356     1.678     1.619  16.91
       226   1     1143.801     74.12109  -7.6459   0.0704  4.36   1211.0142    440.7294     1.666     1.371  22.73
       227   1     555.2145     70.20245  -6.8612   0.1373  5.18   1532.0546    436.9987     1.228     1.171 -38.19
       228   1     452.0531     52.41153  -6.6380   0.1259  3.50   1048.1542    438.2735     1.446     1.255 -17.22
       229   1     3329.905     101.8917  -8.8061   0.0332  3.50    940.3657    459.3797     2.722     2.465 -64.24
       230   1     687.3505     91.44449  -7.0929   0.1445  7.14    715.2385    436.4827     1.283     1.011  -2.16
       231   1     788.6447     88.29803  -7.2422   0.1216  5.35   1769.5176    446.9224     1.718     1.252 -86.01
       232   1     1956.148       69.042  -8.2285   0.0383  3.65   1061.6099    451.1226     1.808     1.551   2.10
       233   1       228.35     53.93102  -5.8965   0.2565  7.56   1285.4969    453.0514     0.780     0.500 -88.65
       234   1     171.0748     45.83255  -5.5830   0.2909  7.67    689.4866    450.4881     0.501     0.498 -45.33
       235   1     2778.487     66.66052  -8.6095   0.0261  3.68   1565.6835    470.0931     1.688     1.534 -31.73
       236   1     202.6156     41.19049  -5.7667   0.2208  4.56   1969.4630    457.7380     1.142     0.533  19.95
       237   1     1296.964     58.25216  -7.7823   0.0488  3.72   1414.5518    469.9916     1.465     1.298  72.45
       238   1      1305.57     117.8831  -7.7895   0.0981  6.07   1149.1206    477.0926     2.047     1.447 -79.16
       239   1     218.8832     59.62298  -5.8505   0.2958  8.18    613.4832    469.9482     0.806     0.500  89.38
       240   1     360.3942      53.1767  -6.3919   0.1602  5.68   1839.6208    473.2774     0.922     0.729  42.92
       241   1     163.9081     40.19781  -5.5365   0.2663  8.09   2014.6526   1001.2986     0.568     0.338  42.62
       242   1     142.3757     19.06749  -5.3836   0.1454  3.50   1147.7345   1488.7040     0.691     0.439  13.44
       243   1     3262.056     59.96079  -8.7837   0.0200  3.50    694.5386   1485.0111     1.571     1.541 -50.08
       244   1     64139.62      74.3931 -12.0178   0.0013  3.50    571.6934   1484.4438     1.979     1.876 -12.30
       245   1     2506.854     61.62207  -8.4978   0.0267  3.50    999.3563   1481.8912     1.662     1.475  30.62
       246   1      232.002      47.1361  -5.9137   0.2206  7.18    257.8102   1485.6067     0.780     0.446  18.19
       247   1     6089.506     65.12789  -9.4615   0.0116  3.50   1831.3969   1479.0569     1.687     1.637 -60.50
       248   1      200.736     50.04586  -5.7566   0.2708  6.40    751.9529   1479.2719     0.726     0.677 -14.46
       249   1     3237.044     66.35683  -8.7754   0.0223  3.66    284.2863   1444.3567     1.634     1.554  56.24
       250   1     999.9702     86.91469  -7.5000   0.0944  5.94     26.9301   1443.2224     1.336     1.271 -43.15
       251   1     536.5399     79.38431  -6.8240   0.1607  6.43   1571.9082    877.3828     1.256     0.960 -42.56
       252   1     273.6412     50.84665  -6.0930   0.2018  5.70   1332.6335    877.8453     0.889     0.684 -21.13
       253   1     286.9569     57.90438  -6.1445   0.2191  8.08    884.0001    874.8244     0.815     0.504 -59.08
       254   1     401.3545     41.67797  -6.5088   0.1128  3.50   1177.5527    872.7018     1.190     0.903  34.08
       255   1     373.6528     38.13499  -6.4312   0.1108  3.50   1740.7078    871.2864     1.078     0.878  39.00
       256   1      598.462     44.94251  -6.9426   0.0816  3.50   1790.9937    864.2093     1.210     1.121 -80.80
       257   1     366.4427     61.62207  -6.4100   0.1826  7.23    689.1591    865.7153     1.084     0.514 -55.01
       258   1     450.9177     69.62464  -6.6352   0.1677  6.40   1055.7269    863.4653     1.006     0.961  81.04
       259   1     589.7924     90.33334  -6.9267   0.1663  7.32    711.4678    862.6530     1.388     0.879  46.43
       260   1      200.616     41.67797  -5.7559   0.2256  5.76   1370.2036    861.1992     0.749     0.563  48.93
       261   1     2173.858     127.9086  -8.3431   0.0639  6.06   1144.3640    858.0820     2.029     1.732  24.90
       262   1     243.4988     44.94251  -5.9662   0.2004  9.28    758.9995    861.6761     0.906     0.212  28.26
       263   1     799628.6     238.2377 -14.7572   0.0003  3.50     51.3554    806.0956     6.313     5.767 -24.14
       264   1     3281.525     147.6962  -8.7902   0.0489  6.33   1127.5105    830.7728     2.137     2.006 -34.81
       265   1     181.9027     51.63502  -5.6496   0.3083  7.94   1229.7480    849.3907     0.752     0.448 -18.56
       266   1     600.6622     85.74485  -6.9466   0.1550  8.47   1137.4692    829.3912     0.974     0.827 -11.71
       267   1     9291.966      154.905  -9.9203   0.0181  4.38   1347.4686    824.9389     3.351     2.954  55.71
       268   1     554.5586     77.32202  -6.8599   0.1514  5.89    992.6465    828.8445     1.442     0.953  35.72
       269   1     983.2212     82.38099  -7.4816   0.0910  4.85   1084.3108    826.4221     1.713     1.352   4.65
       270   1     78.06995     16.81595  -4.7312   0.2339  3.50   1462.0265    840.0000     0.841     0.289   0.00
       271   1      315.524     57.90438  -6.2476   0.1993  6.75   1060.1503    827.1253     0.866     0.666 -46.20
       272   1     368.4192     61.94898  -6.4159   0.1826  7.06   1332.7360    852.3954     0.945     0.638 -17.62
       273   1     762.6423      99.4845  -7.2058   0.1417  8.98   1574.0288    816.9374     1.399     0.680   8.47
       274   1     361564.7     193.2646 -13.8955   0.0006  3.50   1871.4940    794.0126     5.807     3.203  -3.87
       275   1     454096.7     169.7138 -14.1429   0.0004  3.50    813.2519    816.0778     4.519     4.112 -38.43
       276   1     575.3807     71.90802  -6.8999   0.1357  9.31    621.6631    839.3502     0.891     0.520  44.18
       277   1     1861.693     101.2953  -8.1748   0.0591  4.63    555.1373    834.8345     2.229     1.697 -86.99
       278   1      460.932     70.48958  -6.6591   0.1661  7.58    119.4686    810.0130     1.050     0.653  26.35
       279   1     365.3201     49.71883  -6.4067   0.1478  7.01    107.6784    809.1938     1.984     0.646   2.90
       280   1     349.6021     64.50464  -6.3589   0.2004  6.33    910.3207    849.3344     1.110     0.725  33.35
       281   1     860.4827     51.24235  -7.3369   0.0647  3.50   1447.2010    807.1247     1.382     1.194  19.81
       282   1     167.5566     33.02587  -5.5604   0.2141  4.50   1664.7714    805.7755     0.750     0.553  46.18
       283   1     98.26892     22.01725  -4.9810   0.2433  5.00    658.6967    806.6771     0.559     0.342 -46.07
       284   1     307.6715     58.59787  -6.2202   0.2068  5.53   1200.8015    837.0159     1.189     0.724  19.92
       285   1     3826.995     63.55831  -8.9571   0.0180  3.50    305.2797    802.3553     1.688     1.550   6.29
       286   1     268.2228      52.7955  -6.0712   0.2138  6.13   1130.3900    799.7067     0.928     0.631 -72.24
       287   1     1027.574     56.13318  -7.5295   0.0593  3.82    222.5953    798.3151     1.362     1.267  -9.51
       288   1     830.6182     74.66411  -7.2985   0.0976  5.42     84.2013    858.3296     1.276     1.163  38.77
       289   1     1109.908     100.2933  -7.6132   0.0981  8.24   1804.6478    790.9237     1.755     0.667   7.01
       290   1     548.7213     77.06036  -6.8484   0.1525  6.41   1954.7866    789.4080     1.380     0.835 -31.37
       291   1     500.7537     79.89156  -6.7491   0.1733  7.94   1528.5065    789.4638     1.025     0.797 -41.73
       292   1     761.6011     69.33393  -7.2043   0.0989  4.58   1376.2958    788.5655     1.388     1.314  51.23
       293   1     967.6906     90.55666  -7.4643   0.1016  5.58   1184.2833    787.4568     1.492     1.390 -19.55
       294   1      3999.59     69.62464  -9.0050   0.0189  3.87    787.2900    785.9064     1.656     1.562  20.20
       295   1     1598.974      127.434  -8.0096   0.0866  7.55    812.2521    852.2372     1.662     1.359  84.00
       296   1      316.665     41.19049  -6.2515   0.1413  3.74    862.4449    787.0170     1.002     0.978 -68.46
       297   1     1744.926     76.26997  -8.1044   0.0475  4.31    933.4962    783.9318     1.684     1.459 -74.02
       298   1      398.156     65.12789  -6.5001   0.1776  5.92    696.4888    837.7012     1.008     0.941  12.41
       299   1     194.7231     34.81232  -5.7235   0.1942  4.17   1620.8645    781.8224     0.843     0.671 -45.62
       300   1     673534.8     374.1141 -14.5709   0.0006  3.50   1878.6038    793.8107     8.284     5.954 -83.13
       301   1     681.5648     62.91952  -7.0838   0.1003  4.57   1689.2435    779.1378     1.250     1.184  61.04
       302   1      320.827     59.62298  -6.2657   0.2018  7.35    399.1388    849.5854     0.876     0.601 -79.95
       303   1     255.6904     53.93102  -6.0193   0.2291  6.53   1225.1324    777.3067     0.884     0.594 -31.93
       304   1     947.3914     77.84272  -7.4413   0.0892  4.79   1164.8923    773.0032     1.581     1.309 -30.99
       305   1     252.0192      53.1767  -6.0036   0.2291  5.39   1785.5435    773.6741     1.066     0.742  31.27
       306   1     1150.379      92.5423  -7.6521   0.0874  5.40   1947.0393    770.3995     1.655     1.392  25.42
       307   1     845.4751     91.22334  -7.3178   0.1172  6.27   1927.5562    770.2277     1.333     1.247 -60.77
       308   1      42192.4     81.64213 -11.5631   0.0021  3.50    372.1603    841.8734     2.241     1.936  21.99
       309   1     4873.382     66.66052  -9.2196   0.0149  3.50    793.8867    768.2208     1.780     1.627  54.42
       310   1     192.8116     45.83255  -5.7128   0.2581  8.02   1586.4937    768.4950     0.507     0.493 -45.03
       311   1     544.4323     82.38099  -6.8399   0.1643  7.77   1753.3341    764.9332     1.050     0.843 -70.23
       312   1      820.517     87.60909  -7.2852   0.1160  5.72   1809.5046    844.8180     1.528     1.213  12.24
       313   1     244.9113     47.56269  -5.9725   0.2109  8.49   1977.5157    760.0013     0.792     0.315  57.73
       314   1     322.2698     50.84665  -6.2705   0.1713  4.78   1052.4498    845.6486     1.133     0.785  34.22
       315   1     1805.563     58.59787  -8.1415   0.0352  3.50    861.8187    753.5352     1.565     1.391  11.33
       316   1     4455.614     63.87531  -9.1223   0.0156  3.50   1163.8752    750.7202     1.715     1.585  38.94
       317   1     1333.032     81.39436  -7.8121   0.0663  3.50    347.2904    748.0423     2.114     1.995  68.32
       318   1     2486.597     65.12789  -8.4890   0.0284  3.71    201.2393    746.6599     1.610     1.470  13.43
       319   1     1430.391     62.59768  -7.8886   0.0475  3.86    726.3062    833.0647     1.472     1.407 -51.83
       320   1     242.8868     51.24235  -5.9635   0.2291  8.29   1548.7632    742.2305     0.861     0.348 -71.98
       321   1     65091.31     78.61729 -12.0338   0.0013  3.50   1346.6143    728.6304     2.016     1.963  13.83
       322   1     26077.88     74.12109 -11.0407   0.0031  3.50   1177.9420    731.7640     1.921     1.835  29.29
       323   1      393.323     39.17997  -6.4869   0.1082  3.50    981.9722    736.4737     1.109     0.935   4.60
       324   1     318.9562     66.66052  -6.2593   0.2270  7.55    448.5146    734.7404     1.133     0.531 -21.56
       325   1     544.7925     58.12915  -6.8406   0.1159  5.37   1126.8220    732.2231     1.404     1.061  56.30
       326   1     8756.043     140.5487  -9.8558   0.0174  3.63   1276.5438    723.8607     5.877     2.024  -6.82
       327   1     11076.07     71.90802 -10.1110   0.0071  3.50   1125.0989    721.1459     1.858     1.815  56.76
       328   1     722.7762     70.77554  -7.1475   0.1063  4.67    305.0830    722.4964     1.370     1.303 -51.87
       329   1     359.2817     60.63077  -6.3886   0.1833  5.91    253.1653    723.5607     0.995     0.823  53.87
       330   1     211.2572     44.94251  -5.8120   0.2310  6.91    770.3755    722.2330     0.760     0.451  73.25
       331   1     2093.444     58.94156  -8.3022   0.0306  3.50   1693.6685    714.4827     1.538     1.469  51.76
       332   1     810.7128     97.01756  -7.2722   0.1300  6.16    919.2883    714.8568     1.572     1.242   2.14
       333   1     402.1813     63.55831  -6.5111   0.1716  7.22   1335.6875    713.1447     0.935     0.665  18.70
       334   1      562.427     66.35683  -6.8752   0.1281  5.18   1474.3412    709.9744     1.259     1.020 -65.96
       335   1     106.7896     29.12608  -5.0713   0.2962  5.94    716.3162    706.6331     0.584     0.329  46.98
       336   1     601.7762     52.41153  -6.9486   0.0946  4.22    895.8243    683.5277     1.208     1.047  -0.68
       337   1     301.5734     60.29671  -6.1985   0.2171  5.95   1036.6012    682.1358     1.172     0.677  38.85
       338   1     333.0376     60.29671  -6.3062   0.1966  6.24   1184.3301    680.1354     0.998     0.744  13.55
       339   1     1111.257     59.62298  -7.6145   0.0583  3.79   1058.2676    674.8370     1.495     1.328  56.26
       340   1     1853.708     63.23972  -8.1701   0.0370  3.71    234.4664    671.7878     1.587     1.422  17.03
       341   1     922.3182     85.27242  -7.4122   0.1004  4.92    982.6715    671.6805     1.916     1.230 -36.51
       342   1     337.8018     46.90992  -6.3217   0.1508  5.92    984.5021    666.9946     1.021     0.920 -34.31
       343   1     441.8914     61.94898  -6.6133   0.1522  5.17   1434.9608    671.0262     1.339     0.868 -83.51
       344   1     623.9502     85.74485  -6.9879   0.1492  5.71    995.7694    666.6066     1.761     1.017  14.55
       345   1     711.8326     62.59768  -7.1309   0.0955  3.86   1744.4965    663.0329     1.599     1.271 -42.42
       346   1     198.6492     38.13499  -5.7452   0.2085  4.39   1041.9802    664.5038     0.818     0.704 -89.08
       347   1     25604.71     73.84808 -11.0208   0.0031  3.50   1462.7933    658.7515     1.889     1.844  11.92
       348   1      196.672     43.10735  -5.7344   0.2380  6.07    425.5007    662.9695     0.791     0.500  89.00
       349   1     227.6479     47.56269  -5.8932   0.2269  6.17    899.9340    661.9762     0.905     0.525  44.46
       350   1     545.0953     54.67493  -6.8412   0.1089  4.38   1295.7434    658.1915     1.206     1.019  45.18
       351   1     196.5825     39.69215  -5.7339   0.2193  7.91     91.6682    651.2997     0.562     0.341  43.30
       352   1     213.5865     46.27115  -5.8239   0.2353  5.46    996.4734    649.5101     1.056     0.499  88.32
       353   1     205.1641     45.83255  -5.7803   0.2426  8.43    110.4912    650.5098     0.503     0.497 -44.91
       354   1     201.3474     49.23206  -5.7599   0.2655  8.86   1956.4946    649.5038     0.510     0.490  45.02
       355   1     576.5593     75.20321  -6.9021   0.1417  6.51   1818.9509   1303.7490     1.252     0.842  75.03
       356   1     317.2825     58.59787  -6.2536   0.2006  5.33    238.3468    617.7585     1.015     0.921  58.77
       357   1     5124.805     64.19075  -9.2742   0.0136  3.50   2017.8744    613.9269     1.660     1.614  56.68
       358   1     356.5782     64.50464  -6.3804   0.1965  6.22    630.4832    635.7822     1.247     0.672  -7.93
       359   1     299.0809     55.04311  -6.1895   0.1999  6.18    344.8906    614.6657     0.907     0.705 -65.37
       360   1     10454.15     71.06036 -10.0482   0.0074  3.50   1786.0872    608.0667     1.808     1.743  46.56
       361   1     331.9347     63.87531  -6.3026   0.2090  5.34   1212.3641    608.3660     1.237     0.911  24.37
       362   1     133.1807     33.02587  -5.3111   0.2693  6.53   1457.6943    608.3623     0.577     0.332  47.43
       363   1     676.2626     59.96079  -7.0753   0.0963  4.07    480.0258    606.8798     1.364     1.246  17.53
       364   1     405.3361     67.56342  -6.5195   0.1810  5.97    347.0199    606.9939     1.309     0.776  -1.58
       365   1     511.5392     78.87379  -6.7722   0.1674  5.50    129.9168    605.7891     1.318     1.235 -10.74
       366   1     131.5629     35.95401  -5.2978   0.2968  6.50    680.4874    606.5022     0.502     0.497 -45.86
       367   1     471.0581     55.04311  -6.6827   0.1269  4.59    415.5907    603.8599     1.135     0.996  21.63
       368   1     1148.579     109.9026  -7.6504   0.1039  7.36    394.6762    603.0170     1.635     1.089 -23.52
       369   1     182.5781     41.67797  -5.6536   0.2479  5.69   1444.0271    636.8337     0.944     0.461  36.63
       370   1     263.7006     43.27989  -6.0528   0.1782  5.74   1887.3071    598.8437     1.208     0.673  58.33
       371   1     671902.5     92.10474 -14.5683   0.0001  3.50   1517.1985    577.5103     2.408     2.284 -52.54
       372   1     563.3037     61.29342  -6.8769   0.1182  4.71   1886.2079    592.7399     1.149     1.138   8.21
       373   1     127733.5     81.14582 -12.7658   0.0007  3.50   1865.4287    577.7015     2.073     2.056  -8.11
       374   1     631.3173     76.26997  -7.0006   0.1312  5.11   1536.7620    639.7656     1.562     1.121  57.60
       375   1     130.8253     34.81232  -5.2917   0.2890  7.28    113.6168    587.7084     0.578     0.330 -41.20
       376   1     611.0585      52.7955  -6.9652   0.0938  3.76   1240.8992    583.9879     1.443     1.084  35.42
       377   1     39344.13     75.20321 -11.4872   0.0021  3.50    711.9183    576.7157     1.969     1.870  13.51
       378   1     1376.476     87.37823  -7.8469   0.0689  5.20    898.8638    580.3779     1.683     1.328 -21.85
       379   1     6154.258     65.74523  -9.4729   0.0116  3.50    406.0890    576.0743     1.744     1.621  27.67
       380   1     12772.11     71.90802 -10.2657   0.0061  3.50   1557.4213    572.9794     1.847     1.792  76.50
       381   1     934.5999     98.66904  -7.4266   0.1147  7.32     99.1602    577.9515     1.453     0.985  52.28
       382   1     470.1847     59.28325  -6.6807   0.1369  4.85    482.4049    579.9248     1.121     1.037  65.32
       383   1     721.4281     47.56269  -7.1455   0.0716  3.50   1103.0275    594.7149     1.295     1.148  74.39
       384   1     287.6484     44.94251  -6.1472   0.1697  9.19     86.6344    569.6783     0.586     0.328 -43.33
       385   1     3508.588     90.55666  -8.8628   0.0280  3.50   1096.8718    562.9997     2.346     2.210   3.24
       386   1     1754.156     59.38366  -8.1102   0.0368  3.83    516.1978    564.6166     1.565     1.493  50.72
       387   1     2265.753     60.06699  -8.3880   0.0288  4.23    511.3543    557.6904     1.619     1.530  31.53
       388   1      28545.5     77.06036 -11.1388   0.0029  3.50    386.7159    618.4713     1.968     1.922  36.95
       389   1     1752.439      117.368  -8.1091   0.0727  5.78   1662.8389    561.9915     2.046     1.588 -57.17
       390   1     1401.312     54.67493  -7.8663   0.0424  3.50   1241.2201    559.8046     1.541     1.258  43.41
       391   1     2893.042     61.94898  -8.6534   0.0233  3.55    919.2565    556.9337     1.559     1.530   2.08
       392   1     962.5591     92.32378  -7.4586   0.1042  6.13    211.3030    643.0975     1.453     1.243  -2.22
       393   1     1293.117     56.84828  -7.7791   0.0477  3.58   1330.7441    557.3806     1.502     1.283  16.21
       394   1     376.2185     56.84828  -6.4386   0.1641  4.91    451.6042    557.4345     1.104     0.938  45.61
       395   1     685.9965     94.27221  -7.0908   0.1492  6.37   1917.2318    556.0329     1.805     0.943 -46.72
       396   1     747.4399     88.98164  -7.1839   0.1293  5.91   1477.8682    554.0110     1.839     0.972 -67.23
       397   1      1045.39     55.04311  -7.5482   0.0572  3.70    938.8872    554.6553     1.449     1.203  25.30
       398   1     997.7657     98.66904  -7.4976   0.1074  5.72   1676.9399    547.6714     1.744     1.353  42.19
       399   1     254.1681     42.63621  -6.0128   0.1822  4.62    681.8658    545.6970     0.941     0.683 -69.27
       400   1     436.3361     42.15982  -6.5996   0.1049  3.50   1563.0192    544.6736     1.195     0.963   5.36
       401   1     281.3053     38.13499  -6.1229   0.1472  3.50    164.1234    544.2238     1.240     0.774 -22.96
       402   1     636.8408     73.29902  -7.0101   0.1250  4.50    970.9246    542.0450     1.537     1.373  30.55
       403   1     209.0712     59.62298  -5.8007   0.3097  7.87    354.1595    543.1529     0.762     0.570  47.56
       404   1      98.6283      20.0989  -4.9850   0.2213  3.76   1822.3032    542.6533     0.569     0.337  47.07
       405   1     563.6362     46.27115  -6.8775   0.0892  3.50    833.2484    537.7213     1.212     1.172  22.70
       406   1     984.2728     65.74523  -7.4828   0.0725  4.27   1542.9141    535.5258     1.429     1.299 -40.06
       407   1     446.3768     61.62207  -6.6243   0.1499  5.15   1038.8423    535.6721     1.117     0.996  62.51
       408   1      369.668     58.94156  -6.4195   0.1732  5.59   1964.4108    534.4493     1.110     0.816  44.50
       409   1     760.1908     48.82006  -7.2023   0.0697  3.50   1835.9806    531.0473     1.376     1.121 -65.98
       410   1     605.8064     83.35595  -6.9558   0.1494  6.41    332.8315    531.7992     1.617     0.822 -27.68
       411   1     109496.5     126.5134 -12.5985   0.0013  3.50    157.6020    603.6813     2.330     2.219  34.04
       412   1     116.8093     35.95401  -5.1687   0.3343  7.45   1264.6720    530.3199     0.569     0.338  44.61
       413   1     29352.36     75.20321 -11.1691   0.0028  3.50   1103.8108    522.9552     1.938     1.891  29.31
       414   1     1057.409     86.44865  -7.5606   0.0888  4.63    907.2650    526.6978     1.861     1.474 -36.10
       415   1     471.9001     90.77943  -6.6846   0.2089  6.99    872.2320    528.4277     1.633     0.818 -40.12
       416   1     449.8152     66.35683  -6.6326   0.1602  5.32   1200.7853    523.0508     1.181     1.056  23.79
       417   1     772.5168      82.8699  -7.2198   0.1165  5.27    619.0013    518.9406     1.605     1.191  16.43
       418   1     1192.619     68.37601  -7.6913   0.0623  5.23   1673.3867    514.2360     1.649     1.562  20.66
       419   1     2233.255     114.2283  -8.3723   0.0555  4.66   1678.4257    506.4077     2.623     1.805 -12.36
       420   1     2139.767     58.94156  -8.3259   0.0299  3.55    552.0630    513.6752     1.503     1.435   1.98
       421   1      3166.95     61.94898  -8.7516   0.0212  3.50    899.0430    508.8032     1.663     1.488  25.76
       422   1     322.0258     59.62298  -6.2697   0.2011  6.72   1952.1431    509.5196     0.902     0.689 -55.70
       423   1     564.1552      52.7955  -6.8785   0.1016  3.79   1350.1960    506.7321     1.295     1.144 -64.95
       424   1     246.2625     57.20248  -5.9785   0.2523  7.09   1926.0156    507.2760     0.756     0.668   1.98
       425   1     943.0652       69.042  -7.4364   0.0795  3.63    162.6341    503.4966     2.397     1.173  45.38
       426   1     716.1864     76.26997  -7.1376   0.1157  4.50   1022.3694    501.1506     1.899     1.181 -74.82
       427   1     286.9712     50.04586  -6.1446   0.1894  6.74    722.1318    502.3650     1.069     0.421 -13.80
       428   1     860.1246     77.32202  -7.3364   0.0976  4.81   1040.4272    489.4378     1.699     1.199  67.00
       429   1     1355.699     58.59787  -7.8304   0.0469  3.69   1048.4701    488.6781     1.433     1.391  37.41
       430   1     413.3303      53.1767  -6.5407   0.1397  4.68   1754.6143    488.8909     1.122     0.929  64.39
       431   1     339.9423     60.63077  -6.3285   0.1937  6.81   1718.9164    486.9879     0.796     0.761  60.34
       432   1     792.2947     81.14582  -7.2472   0.1112  5.58    241.2384    485.4906     1.514     1.102  44.75
       433   1     466.6295     71.34403  -6.6724   0.1660  6.46    230.7698    486.2963     1.117     0.860 -22.05
       434   1     853.7388     49.23206  -7.3283   0.0626  3.50    587.1591    484.3729     1.285     1.233  -5.77
       435   1     769.6407     98.46411  -7.2157   0.1389  7.08   1196.2550   1145.0044     1.687     0.904  81.72
       436   1      1137.83     56.13318  -7.6402   0.0536  3.72    620.5593   1462.3882     1.334     1.323 -36.50
       437   1     312.6237     51.24235  -6.2376   0.1780  7.26     64.9432   1477.5061     0.770     0.500  -1.77
       438   1     352.7804     59.62298  -6.3688   0.1835  5.65   1265.6992    882.2071     1.023     0.875  15.19
       439   1     8654.107     64.81702  -9.8431   0.0081  3.50   2036.9603   1449.2378     1.669     1.635 -82.50
       440   1     2497.122     91.88519  -8.4936   0.0400  4.33    306.7383   1461.7168     2.130     1.661  57.85
       441   1     351.8278     63.87531  -6.3658   0.1972  7.12    167.8910    482.3438     0.910     0.683  64.33
       442   1     1890.854     142.8295  -8.1916   0.0820  6.08   1452.3297   1455.6101     2.434     1.774 -81.99
       443   1     1753.835     62.27417  -8.1100   0.0386  3.95   1472.8912   1446.1143     1.417     1.360  -4.42
       444   1     230.9766     54.67493  -5.9089   0.2571  6.41    242.5124   1456.0022     0.833     0.686   2.04
       445   1     347.5062     67.26379  -6.3524   0.2102  6.60     99.1986   1444.6796     1.223     0.681  53.38
       446   1     7014.033      68.4544  -9.6149   0.0106  3.50   1480.4592   1418.7833     1.759     1.699  71.45
       447   1     252.8956     51.24235  -6.0074   0.2200  4.84    313.6223   1407.0294     1.453     0.603 -35.68
       448   1     218.0801      30.4815  -5.8465   0.1518  3.61   1318.1168    894.8870     0.850     0.678  41.81
       449   1     217.7229     39.17997  -5.8448   0.1954  7.85   1722.6807    894.3307     0.570     0.337  45.54
       450   1     237.3307     49.64063  -5.9384   0.2272  6.53    989.0447    893.0366     0.926     0.526  44.17
       451   1     84832.34     82.62581 -12.3214   0.0011  3.50    134.2125    893.8351     2.162     2.039  -5.34
       452   1     419.5201     64.50464  -6.5569   0.1670  5.80   1930.8470    881.2982     1.262     0.771 -35.95
       453   1     1194.204     100.8957  -7.6927   0.0918  6.22   1137.4237    899.0834     1.534     1.355  85.18
       454   1     599.2991     52.02472  -6.9441   0.0943  3.90   1884.3975   1423.1409     1.211     1.147  50.39
       455   1     402.5106     67.86171  -6.5119   0.1831  7.11   1965.0105   1404.2197     0.923     0.767  85.72
       456   1     411047.3     90.10946 -14.0347   0.0002  3.50   1756.1310   1374.0619     2.358     2.227 -62.56
       457   1      478.848     51.24235  -6.7005   0.1162  3.89   1455.9060   1422.6364     1.249     1.092 -42.32
       458   1      707.876     98.05299  -7.1249   0.1504  7.63   1056.3966   1430.6028     1.352     0.960  68.90
       459   1     1340.752     58.25216  -7.8184   0.0472  3.65    119.2739   1426.8264     1.447     1.410 -15.88
       460   1     663.2866     80.39561  -7.0543   0.1316  5.80   1583.8712   1420.1810     1.441     1.046  13.26
       461   1     129.0303     39.17997  -5.2767   0.3298  7.06   1663.5299   1420.4727     0.503     0.495  45.52
       462   1     2293.529     71.06036  -8.4013   0.0336  4.11   1907.6724   1398.0371     1.609     1.466  73.65
       463   1     296.2847     59.96079  -6.1793   0.2198  6.65    617.6486   1416.8782     0.940     0.683 -20.28
       464   1     9690.608     68.74883  -9.9659   0.0077  3.50   1562.0264    893.7146     1.781     1.686  35.38
       465   1     1286.299     80.14398  -7.7734   0.0677  3.96    607.6281   1400.4038     2.146     1.494  51.51
       466   1     547.5066      55.7683  -6.8460   0.1106  5.09   1914.5999   1403.7468     1.585     1.031  39.74
       467   1     187.8193     47.56269  -5.6844   0.2750  8.61    961.5162   1479.5135     0.507     0.493 -45.17
       468   1     187.7816     48.40457  -5.6841   0.2799  6.97   1324.9774   1408.4677     0.797     0.499  -0.97
       469   1     439.1929     49.64063  -6.6066   0.1227  3.50    602.9650   1354.2034     1.513     1.058  10.50
       470   1     847.1422     77.58281  -7.3199   0.0995  5.21   1169.8247   1451.6433     1.368     1.267 -87.34
       471   1     39782.97      50.4566 -11.4992   0.0014  3.50   1752.0096   1379.7213     1.577     1.507 -78.45
       472   1     653.3204     80.64646  -7.0378   0.1341  5.73    643.8647   1386.9547     1.490     1.077 -34.46
       473   1     1690.175     72.18837  -8.0698   0.0464  4.25    691.8322    896.2793     1.588     1.432  15.39
       474   1     1523.642      99.4845  -7.9572   0.0709  5.38   1274.3254   1367.0814     1.779     1.514 -67.34
       475   1     213.0519      53.1767  -5.8212   0.2711  6.57   1349.3051   1385.1825     0.854     0.599 -60.22
       476   1     81.65479     15.56854  -4.7800   0.2071  3.50    246.6582   1360.2783     0.556     0.342  41.39
       477   1     194.4587     42.15982  -5.7221   0.2355  8.50   1174.6490    898.7057     0.567     0.338 -42.22
       478   1     388.4128     56.13318  -6.4732   0.1569  5.14   1641.3525    901.4642     0.963     0.961  22.54
       479   1     1168.515     90.33334  -7.6691   0.0840  5.12   1382.2374   1354.6967     1.639     1.498 -50.06
       480   1      4917.21     65.74523  -9.2293   0.0145  3.50    344.6836   1376.0779     1.673     1.630  27.89
       481   1     259.1219     59.62298  -6.0338   0.2499  6.98   1873.8602   1354.8716     0.817     0.686 -51.32
       482   1     1273.729     106.9216  -7.7627   0.0912  6.41   1397.0254   1384.8064     1.565     1.411   3.03
       483   1     123101.9     82.38099 -12.7257   0.0007  3.50    757.7563   1359.9601     2.095     2.069  -6.89
       484   1     1194.954     99.07761  -7.6934   0.0900  5.37   1266.9336   1341.6012     1.816     1.467 -20.31
       485   1      306.067     55.77219  -6.2145   0.1979  7.48   1049.8522   1385.8243     0.776     0.574  43.21
       486   1     316.0459     66.66052  -6.2494   0.2291  7.23   1383.3383   1386.5081     1.052     0.634  83.23
       487   1     3566.895     76.26997  -8.8807   0.0232  4.19   1269.9532   1357.2312     1.640     1.612 -25.51
       488   1     351.8137     65.43729  -6.3658   0.2020  6.79    983.2332   1377.2507     1.069     0.678  72.02
       489   1     863.4553     62.59768  -7.3406   0.0787  3.85    872.2680   1358.8125     1.625     1.269 -56.55
       490   1      552.822     77.06036  -6.8565   0.1514  5.46   1611.9878   1331.3475     1.615     0.965 -62.84
       491   1     601.6184     54.30424  -6.9483   0.0980  3.50    955.2523   1357.3623     1.464     1.302   9.76
       492   1     755.4475     88.98164  -7.1955   0.1279  6.99   1862.8265   1376.6257     1.221     1.053 -46.45
       493   1     511.4061     83.11328  -6.7719   0.1765  7.17     95.3692   1367.4327     1.121     0.960 -42.70
       494   1     300.5463     58.59787  -6.1948   0.2117  7.46    299.5299   1360.2369     1.000     0.479  80.71
       495   1     1300.585     68.74883  -7.7853   0.0574  4.22   1073.6189   1292.3422     1.513     1.384  57.34
       496   1     13622.29     75.47131 -10.3356   0.0060  3.50    202.4297   1353.2950     1.983     1.825   6.59
       497   1     2377.977     66.05173  -8.4405   0.0302  3.91   1234.0133   1353.1534     1.523     1.512  18.21
       498   1      2020.62     151.4769  -8.2637   0.0814  6.29   1492.6841   1388.7181     2.824     1.628  -8.75
       499   1     934.9786     67.65414  -7.4270   0.0786  6.83    209.3074   1358.9855     1.736     1.409 -31.39
       500   1     763.2968     59.28325  -7.2067   0.0843  4.40     66.5475   1345.7582     1.313     1.105 -43.73
       501   1     905.2528     102.0898  -7.3919   0.1225  6.84    210.1767    913.3713     1.487     1.188  85.81
       502   1     1046.765     104.6302  -7.5496   0.1086  5.75   1143.2583   1321.2252     2.111     1.247  70.97
       503   1     20120.87     72.18837 -10.7591   0.0039  3.50   1846.5787   1329.3871     1.880     1.805 -87.16
       504   1     21227.85      77.8217 -10.8173   0.0040  3.50    375.3857   1339.5701     1.874     1.848 -51.65
       505   1     203.8018     45.83255  -5.7730   0.2442  7.78    822.5112    903.5224     0.500     0.499 -26.58
       506   1     323.2472     59.28325  -6.2738   0.1992  6.96   1007.8411   1339.1055     0.842     0.661  47.48
       507   1     822.6295     88.52649  -7.2880   0.1169  6.04   1211.0005   1312.1631     1.439     1.180  -0.99
       508   1      258.281     56.84828  -6.0302   0.2390  7.11   1147.8298   1345.3212     0.764     0.659  59.52
       509   1     794.2643     50.49133  -7.2499   0.0690  4.93    662.1459    897.9649     1.337     1.225 -32.11
       510   1      14740.4     74.81422 -10.4213   0.0055  3.50    371.5293   1330.1943     1.869     1.792 -40.45
       511   1     383.1417     65.12789  -6.4584   0.1846  7.28    614.7409   1347.6033     0.965     0.638  17.80
       512   1     991.2792     73.84808  -7.4905   0.0809  3.50   1679.3004    901.4861     2.308     1.548 -59.36
       513   1     1666.242     53.93102  -8.0543   0.0352  3.50    558.5528   1336.3710     1.456     1.294  15.26
       514   1      1122.61     99.88973  -7.6256   0.0966  6.80   1258.2844   1325.0912     1.391     1.216 -21.08
       515   1     255.1475     54.67493  -6.0170   0.2327  6.42    603.9891   1317.4845     0.822     0.692  85.50
       516   1     3465.218     62.27417  -8.8493   0.0195  3.50    439.2111    902.5829     1.687     1.523  19.76
       517   1     2366.333     72.18837  -8.4352   0.0331  4.06    173.8790   1331.5588     1.659     1.487  11.36
       518   1     2733.589     98.46411  -8.5918   0.0391  4.51   1016.8682   1294.0847     1.976     1.896 -67.34
       519   1     176.7451     42.15982  -5.6184   0.2590  5.78    474.8304   1313.1722     0.754     0.565 -49.62
       520   1     7884.303     80.89652  -9.7419   0.0111  3.67   1260.8158   1305.2367     2.224     1.729  27.75
       521   1     332.3507     39.69215  -6.3040   0.1297  3.63    353.4323   1299.5156     1.087     0.854  51.15
       522   1     872.6033     97.64013  -7.3520   0.1215  6.53    216.0461   1307.1785     1.722     1.034  22.74
       523   1     1384.913     104.0494  -7.8536   0.0816  5.35    191.3241   1303.2061     1.804     1.639  53.21
       524   1     185.8384     34.81232  -5.6728   0.2034  4.38   1764.2991   1298.9481     0.726     0.672 -84.25
       525   1     159.1154     31.77916  -5.5043   0.2169  5.08    587.2006   1275.5917     0.765     0.446 -19.38
       526   1     488.7227     63.87531  -6.7227   0.1419  4.32   1137.2827   1291.4423     1.524     1.121   8.08
       527   1     534.4128     71.62658  -6.8197   0.1456  6.13   1003.5593   1298.2634     1.165     0.922  60.29
       528   1     1328.132     87.14677  -7.8081   0.0713  4.98   1738.5415   1289.4879     1.681     1.428  62.81
       529   1     542.6334     84.55884  -6.8363   0.1692  5.94    130.2354   1269.1410     1.475     1.081  81.95
       530   1     5134.949     128.3815  -9.2763   0.0272  4.71   1175.4047   1250.4540     2.529     2.313  57.81
       531   1     192.5977     44.49082  -5.7116   0.2509  6.85     44.4092   1286.7800     0.761     0.447 -70.56
       532   1     1175.658      111.906  -7.6757   0.1034  6.00   1303.3766    905.1699     1.831     1.495 -86.60
       533   1     1865.157     60.63077  -8.1768   0.0353  3.50    655.8610    902.3811     1.669     1.395  -4.34
       534   1     342.2103     64.81702  -6.3357   0.2057  6.83    269.0384   1283.4608     1.048     0.654 -63.94
       535   1     2232.792      121.428  -8.3721   0.0591  5.04   2014.2698   1268.2979     2.400     1.888  18.27
       536   1      183.407     39.17997  -5.6585   0.2320  5.98   1353.4056   1268.7736     0.714     0.461 -72.07
       537   1     821.1726      57.5545  -7.2861   0.0761  4.09   1593.3981   1281.5425     1.281     1.228 -51.23
       538   1     503.4733     74.66411  -6.7549   0.1611  7.07    263.0814   1278.2078     1.259     0.705 -87.39
       539   1       274779     85.98009 -13.5975   0.0003  3.50   1072.6366   1267.4355     2.223     2.149 -47.89
       540   1     458.0737     70.77554  -6.6523   0.1678  6.97   1209.1998   1275.3558     1.199     0.663 -51.29
       541   1     7912.013      68.1587  -9.7457   0.0094  3.57   1206.2732   1266.2997     1.735     1.647 -89.30
       542   1      399.248     62.91952  -6.5031   0.1711  6.19    339.2280   1266.0336     1.338     0.615  36.23
       543   1     182.6423     35.95401  -5.6540   0.2138  4.88    667.1704    911.8757     0.766     0.561 -48.72
       544   1      879.788     51.63502  -7.3609   0.0637  3.50   1875.0352   1255.3805     1.369     1.290 -32.30
       545   1     1805.099     127.1166  -8.1413   0.0765  5.76    161.8480   1191.6085     2.501     1.539  36.33
       546   1     452.9818     62.91952  -6.6402   0.1508  5.48    764.0414   1244.5698     1.110     0.913   0.76
       547   1     271.4767     44.49082  -6.0843   0.1780  4.47    884.6017   1246.1351     1.044     0.717 -18.03
       548   1     582.9031      76.7978  -6.9140   0.1431  6.28   1323.6985   1194.9836     1.349     0.876  -1.62
       549   1      1290.65     69.62464  -7.7770   0.0586  4.47     74.5186   1223.3561     1.446     1.378  15.49
       550   1      4503.88     145.4916  -9.1340   0.0351  4.76   1480.6740    910.8281     3.747     1.965 -10.95
       551   1     169.3873     40.19781  -5.5722   0.2577  7.16   1367.5348   1180.4723     0.507     0.491 -45.80
       552   1     2205.305     138.8134  -8.3587   0.0684  6.49   1173.7294   1226.0383     1.990     1.807  -1.40
       553   1     343.5889     46.27115  -6.3401   0.1463  4.50    235.3216   1227.5428     1.025     0.804  30.93
       554   1      212.507     43.10735  -5.8184   0.2203  6.74    612.3796   1195.7991     0.735     0.453 -72.58
       555   1     228.8379     63.23972  -5.8988   0.3001  7.85   1531.3369   1134.9990     0.935     0.546   0.03
       556   1     368.8032     40.19781  -6.4170   0.1184  3.50   1538.0930   1225.2253     1.183     0.865 -15.28
       557   1     792.5753     66.35683  -7.2476   0.0909  3.82   1485.9938   1219.7798     1.928     1.256  78.87
       558   1     576.8596     83.83917  -6.9027   0.1578  5.88   1669.1841   1206.5116     1.397     1.143  14.39
       559   1     222736.9     85.27242 -13.3695   0.0004  3.50    876.9988   1203.7036     2.171     2.139  88.50
       560   1     267.6086     47.56269  -6.0688   0.1930  8.75    576.4979   1213.0074     0.791     0.316 -57.67
       561   1     414.2098     67.86171  -6.5431   0.1779  5.40   1264.9180   1195.9917     1.438     0.872  52.24
       562   1     200.5414     45.83255  -5.7555   0.2482  8.37    116.4810   1203.5000     0.509     0.491 -45.59
       563   1     1192.269     53.93102  -7.6909   0.0491  3.50    735.7869   1200.9309     1.417     1.297  13.11
       564   1     533.8584     54.67493  -6.8186   0.1112  4.45   1245.4883   1190.4442     1.214     0.967 -62.64
       565   1     530.0161     44.94251  -6.8107   0.0921  3.70   1925.3643   1180.0990     1.165     0.983 -58.79
       566   1     496.1198     66.96284  -6.7390   0.1466  5.46    150.1897   1198.5605     1.127     1.069  18.11
       567   1     346.0002     59.28325  -6.3477   0.1861  5.97    183.1359   1191.8938     0.899     0.861  48.04
       568   1     494.3933     58.25216  -6.7352   0.1280  5.10   1991.6755   1186.2393     1.082     0.940  77.26
       569   1     1499.412     69.62464  -7.9398   0.0504  4.10    844.1275   1195.7655     1.571     1.429  10.07
       570   1     3766.289     139.3943  -8.9398   0.0402  3.90   1458.2815   1133.1025     5.503     1.822 -63.77
       571   1     1380.007     57.90438  -7.8497   0.0456  3.50   1025.6517    916.1011     1.584     1.393  15.12
       572   1     490016.1     129.9453 -14.2255   0.0003  3.50    281.5933   1163.3942     3.412     3.195 -21.05
       573   1     615.7996     79.89156  -6.9736   0.1409  6.11   1059.5688   1160.1420     1.323     1.029 -77.75
       574   1     4567.847     64.19075  -9.1493   0.0153  3.50    655.2114   1177.4305     1.653     1.619  43.03
       575   1     291.2435     59.62298  -6.1606   0.2223  7.41   1813.9796   1181.6960     0.743     0.683   0.05
       576   1     206.0234      30.4815  -5.7848   0.1607  3.77     84.8400    934.8977     0.817     0.661 -45.23
       577   1     551.4042     82.38099  -6.8537   0.1623  6.77    741.1536    920.2457     1.165     1.003 -82.13
       578   1     543.7848     73.57407  -6.8386   0.1469  5.96   1570.5093    917.9776     1.293     0.910 -64.67
       579   1     827.2274     62.59768  -7.2941   0.0822  4.52    130.8442   1188.4432     1.267     1.174 -74.75
       580   1     405.7745     66.35683  -6.5207   0.1776  6.30    468.1667   1176.8278     1.131     0.779   0.93
       581   1     313.1576     63.23972  -6.2394   0.2193  6.86   1395.2257   1166.9249     1.027     0.648 -60.21
       582   1     4893.719     62.91952  -9.2241   0.0140  3.50   2010.9181    914.1776     1.613     1.562  20.00
       583   1     39953.02     77.58281 -11.5039   0.0021  3.50   1417.4656    914.0243     1.968     1.934   5.09
       584   1     3882.745     63.87531  -8.9728   0.0179  3.58   1996.4360   1156.8619     1.605     1.555 -81.85
       585   1     225.5027     53.93102  -5.8829   0.2597  7.16    649.3264   1068.6460     0.891     0.515  45.66
       586   1      226.983     47.98547  -5.8900   0.2296  7.24   1044.7699   1153.5875     0.767     0.450  18.71
       587   1     333.8519     65.74523  -6.3089   0.2139  8.49    823.6486   1150.8196     0.736     0.646 -28.04
       588   1     73.56531     27.70443  -4.6667   0.4090  5.51   1747.3303   1161.2957     0.559     0.342 -43.10
       589   1     2510.008      127.434  -8.4992   0.0551  4.88   1183.0449   1144.1339     2.481     2.185  69.35
       590   1     158725.3     84.79736 -13.0016   0.0006  3.50     82.8511   1139.0103     2.159     2.131 -36.83
       591   1     266.3263     45.83255  -6.0635   0.1869  7.84    435.4922   1154.5505     0.507     0.491 -40.55
       592   1     457.0748     64.81702  -6.6500   0.1540  5.27   1654.8938   1072.8558     1.120     1.089  83.48
       593   1     530.2086     78.35995  -6.8111   0.1605  6.40   1276.8402    927.4080     1.255     0.957  17.06
       594   1     723.5801     59.96079  -7.1487   0.0900  4.16   1398.6111   1134.8341     1.313     1.272  -2.33
       595   1     445.0193     64.50464  -6.6209   0.1574  5.81   1058.7538    943.6832     1.102     0.877  27.36
       596   1     196.0303     40.69718  -5.7308   0.2255  8.08   1368.3380    933.6901     0.569     0.338  43.65
       597   1       1911.1     97.01756  -8.2032   0.0551  4.85   1180.9410    942.5285     1.894     1.674 -25.89
       598   1      348.426     66.96284  -6.3553   0.2087  7.24   1394.7316    936.2890     1.042     0.642 -72.50
       599   1     168.8457     44.94251  -5.5687   0.2891  7.24   1525.2820   1087.0135     1.044     0.299  39.56
       600   1     7309.642     66.66052  -9.6597   0.0099  3.50    311.4557    919.8064     1.769     1.628  23.03
       601   1     3000.651     116.8505  -8.6930   0.0423  4.84    282.9086   1114.4874     2.421     1.890  74.18
       602   1     107.2385     28.42414  -5.0759   0.2879  5.72   1676.3018    941.3688     0.578     0.332 -47.83
       603   1     463.9558     70.20245  -6.6662   0.1643  6.18   1734.3920    938.4287     1.174     0.860 -63.05
       604   1       4350.7     138.9589  -9.0964   0.0347  4.52   1773.4095   1180.4296     3.420     2.165 -67.80
       605   1     828.1146     61.94898  -7.2952   0.0812  4.30    270.3840    947.2519     1.331     1.227  10.73
       606   1     727.6321     72.46763  -7.1548   0.1082  4.41   1495.8961   1122.8240     1.852     1.156 -32.79
       607   1     259.9031     35.95401  -6.0370   0.1502  4.28    488.2093   1089.1261     0.803     0.688 -48.56
       608   1     397.3906     66.96284  -6.4980   0.1830  5.23   2039.8280    958.6729     1.284     1.005 -33.51
       609   1     652.0438     82.38099  -7.0357   0.1372  6.49    144.6361    957.9904     1.210     1.067   6.56
       610   1     714.0035     89.66003  -7.1343   0.1364  6.41    105.6477    944.3438     1.401     1.093  40.63
       611   1     390.3723     47.98547  -6.4787   0.1335  4.53    377.7299   1088.4594     0.977     0.944 -66.34
       612   1     285.1971     44.03449  -6.1379   0.1677  4.71    791.8093   1060.8754     0.953     0.725  27.86
       613   1     228.7058     49.64063  -5.8982   0.2357  6.57   1178.8058   1103.2047     0.765     0.562 -45.66
       614   1     947.1062     96.18118  -7.4410   0.1103  5.46   1007.8760   1101.0693     1.984     1.212  37.52
       615   1      10178.1     67.56342 -10.0192   0.0072  3.50    773.7845    974.4030     1.769     1.674  26.80
       616   1     770.7091     55.77219  -7.2172   0.0786  3.85    867.7383    963.1602     1.387     1.199  27.86
       617   1     22397.92     73.57407 -10.8755   0.0036  3.50   1421.3552    957.7594     1.890     1.849 -21.16
       618   1     1462.215     57.90438  -7.9125   0.0430  3.50   1028.4717    974.7702     1.502     1.440  51.03
       619   1     215.9185     45.38971  -5.8357   0.2283  5.33   1319.1968   1090.6049     1.344     0.437 -31.87
       620   1     886.8101     55.40885  -7.3696   0.0679  3.50     86.5718    977.4626     1.509     1.232 -42.70
       621   1      974.114     70.48958  -7.4715   0.0786  4.81    759.8630   1102.3186     1.355     1.247 -17.02
       622   1      434.524     74.93414  -6.5950   0.1873  5.97   1503.7891    969.3508     1.555     0.788   3.28
       623   1     14073.13      74.3931 -10.3710   0.0057  3.50     44.6317    980.9872     1.953     1.795  20.28
       624   1     1828.938     59.28325  -8.1555   0.0352  3.57   1326.1924    967.7394     1.553     1.362   8.40
       625   1     100.7473     26.20576  -5.0081   0.2825  4.60    218.0015   1081.0000     0.836     0.289   0.00
       626   1      180.512     40.19781  -5.6413   0.2418  6.47    217.9897   1077.7407     0.661     0.438  -0.62
       627   1     553.0146     78.10176  -6.8568   0.1534  6.11    431.5353   1080.0884     1.252     1.027  28.14
       628   1     180.8248     42.15982  -5.6431   0.2532  7.40   1955.4817   1080.5039     0.502     0.497 -46.79
       629   1     4126.886     66.96284  -9.0391   0.0176  3.55    211.1532   1050.5067     1.733     1.636  12.11
       630   1     8379.874     153.5956  -9.8081   0.0199  3.56    290.0449   1086.1466     6.666     2.196  14.30
       631   1     14180.11     71.90802 -10.3792   0.0055  3.50    689.0072   1081.4874     1.833     1.810  47.77
       632   1     609.4968      52.7955  -6.9624   0.0941  3.69   1370.5972   1071.8739     1.312     1.201  11.97
       633   1     4617.181     66.05173  -9.1609   0.0155  3.50    282.5546   1071.0991     1.730     1.613  15.90
       634   1     163.4625     39.69215  -5.5335   0.2637  5.89   1403.3541   1083.7874     0.749     0.445 -73.03
       635   1     194.8447     41.67797  -5.7242   0.2323  8.49    984.6811   1073.6718     0.569     0.338 -45.45
       636   1     822.6108     91.00166  -7.2880   0.1201  6.64      2.6385   1056.6938     2.893     0.645  89.27
       637   1     1444.352     55.77219  -7.8992   0.0419  3.50    735.6487   1062.9622     1.484     1.394  31.01
       638   1     956.0505     93.41126  -7.4512   0.1061  5.84   1755.2698   1068.5582     1.950     1.039 -86.78
       639   1     392.9843     48.40457  -6.4859   0.1338  4.14    778.8161   1064.2233     1.245     0.871  21.60
       640   1     6291.219     98.25877  -9.4968   0.0170  3.82   1745.9312   1008.0995     2.432     2.135 -68.10
       641   1     348.9891     43.10735  -6.3570   0.1341  3.83   1644.2957   1058.3246     1.223     0.801  30.09
       642   1     2911.718     63.87531  -8.6604   0.0238  3.50   1978.9686   1037.7349     1.656     1.596  -0.51
       643   1     1874.477     132.1035  -8.1822   0.0765  6.14    208.6624    981.4064     2.290     1.586 -33.02
       644   1     189.4628     56.49186  -5.6938   0.3238  7.99    837.5157   1039.0354     0.786     0.500  88.85
       645   1     1543.138     108.9798  -7.9710   0.0767  4.92    118.0171   1035.7625     2.759     1.408  72.62
       646   1     246.9884     37.06055  -5.9817   0.1630  4.58    176.0357   1040.6974     0.729     0.667  -6.07
       647   1     246.7274     42.15982  -5.9805   0.1856  4.42    490.5346   1048.1991     0.961     0.738  -2.02
       648   1     227.8192     50.04586  -5.8940   0.2386  6.56   1169.2842   1047.5922     1.019     0.465  10.10
       649   1     645.2983     85.27242  -7.0244   0.1435  5.77    232.6830   1042.4253     2.229     0.789  14.42
       650   1     356.0992     71.90802  -6.3789   0.2193  7.81    288.0641   1000.7585     1.020     0.656 -27.04
       651   1      2213.01     59.62298  -8.3625   0.0293  3.50    670.7543   1039.1023     1.576     1.462   6.37
       652   1     610.5675     56.49186  -6.9643   0.1005  4.26    913.4352   1045.6620     1.283     1.086   4.90
       653   1     1017.504     109.3499  -7.5188   0.1167  6.71   1224.2443    995.4745     1.578     1.322  45.56
       654   1     224.5148     46.70563  -5.8781   0.2259  5.78   1084.1516    981.5517     1.236     0.395 -14.94
       655   1     454.8744     50.44785  -6.6447   0.1204  3.93    873.6351    986.7762     1.230     1.085 -75.93
       656   1     227.6722     39.17997  -5.8933   0.1869  3.98   1438.9131   1042.2013     0.986     0.744 -60.59
       657   1     352.6115     66.35683  -6.3682   0.2044  6.71   1662.7583   1038.4590     1.020     0.738  87.56
       658   1     2305.821     55.77219  -8.4071   0.0263  3.50   1904.8623   1037.6975     1.473     1.384  69.07
       659   1     505.5907      76.7978  -6.7595   0.1650  7.05   1434.3270    997.1686     1.199     0.773  28.83
       660   1     4860.187     74.66411  -9.2166   0.0167  3.50   1135.1171   1035.4397     2.105     1.686  70.06
       661   1     7887.495     68.74883  -9.7423   0.0095  3.50    816.7135   1007.7703     1.749     1.724  35.67
       662   1     185.0383     43.57338  -5.6682   0.2557  6.24    966.4775    995.0322     0.782     0.499 -88.68
       663   1     299.5361     52.02472  -6.1911   0.1886  4.95    437.2515   1024.0732     1.118     0.780  60.70
       664   1     627.9369     63.23972  -6.9948   0.1094  4.50   1113.6133   1021.5085     1.467     1.074  69.50
       665   1     862.2231      92.5423  -7.3390   0.1166  5.75   1640.1437   1037.3380     1.775     1.143  33.07
       666   1     7887.616      68.4544  -9.7424   0.0094  3.50    679.7672   1007.6356     1.750     1.698  30.09
       667   1     56737.66     79.12946 -11.8847   0.0015  3.50   1329.2930   1003.5710     2.016     1.955  34.78
       668   1      339.298     63.23972  -6.3265   0.2024  7.06   1162.6676   1021.8212     1.079     0.579 -33.84
       669   1     248682.5     83.59791 -13.4891   0.0004  3.50    932.7040    998.4093     2.145     2.114  65.01
       670   1     15313.88     81.48792 -10.4627   0.0058  3.50    920.1531   1000.9362     2.158     1.949  53.33
       671   1     162.2739     38.13499  -5.5256   0.2552  7.58    731.6910   1010.3445     0.571     0.336  46.65
       672   1     990.6541     70.77554  -7.4898   0.0776  3.75     71.0960   1004.7674     1.721     1.634 -14.47
       673   1     690.1271     85.03522  -7.0973   0.1338  4.57   1501.8159   1002.5247     1.796     1.493   6.74
