#   1 KRON_RADIUS            Kron apertures in units of A or B                         
#   2 MAGERR_APER            RMS error vector for fixed aperture mag.                   [mag]
#   3 Y_IMAGE                Object position along y                                    [pixel]
#   4 X_IMAGE                Object position along x                                    [pixel]
#   5 THETA_IMAGE            Position angle (CCW/x)                                     [deg]
#   6 FLUX_APER              Flux vector within fixed circular aperture(s)              [count]
#   7 A_IMAGE                Profile RMS along major axis                               [pixel]
#   8 THRESHOLD              Detection threshold above background                       [count]
#   9 B_IMAGE                Profile RMS along minor axis                               [pixel]
#  10 FLUX_RADIUS            Fraction-of-light radii                                    [pixel]
#  11 FLUXERR_APER           RMS error vector for aperture flux(es)                     [count]
#  12 MAG_APER               Fixed aperture magnitude vector                            [mag]
#  13 NUMBER                 Running object number                                     
 3.50   0.0001    181.9938   1107.3826 -37.26 1.496253e-06     6.785 3.522043e-11     6.348      4.465 1.041636e-10  14.5625          1
 3.50   0.0008     53.5548     63.6502   4.23 1.418838e-07     6.934 3.522043e-11     6.192      5.193 1.042694e-10  17.1202          2
 3.50   0.0003     59.8014   1078.4595 -83.45 3.881415e-07     2.554 3.522043e-11     2.415      1.938 1.042694e-10  16.0275          3
 3.50   0.0051     16.5034    985.0604 -88.22 2.223507e-08     4.799 3.522043e-11     2.280      4.069 1.034199e-10  19.1324          4
 3.93   0.0158     24.7678    367.1761  -4.71 7.147402e-09     1.722 3.522043e-11     1.632      2.005 1.041636e-10  20.3646          5
 4.12   0.0514     23.8059    383.2164  49.49 2.202634e-09     1.542 3.522043e-11     1.514      2.323 1.041636e-10  21.6426          6
 4.03   0.0338     17.2888    384.4465 -58.33 3.326901e-09     1.676 3.522043e-11     1.488      2.065  1.03633e-10  21.1949          7
 3.50   0.0034     18.0675     91.2831 -28.21 3.329039e-08     1.946 3.522043e-11     1.912      1.913 1.037393e-10  18.6942          8
 3.50   0.0013     14.6264   1445.7336 -66.63 8.945961e-08     2.134 3.522043e-11     2.050      1.871 1.042694e-10  17.6209          9
 5.50   0.0807     14.4023    841.1321 -49.27 1.405411e-09     1.863 3.522043e-11     1.304      3.048 1.043751e-10  22.1305         10
 5.18   0.0931     15.0216   1563.0798  -2.57 1.215054e-09     1.198 3.522043e-11     1.047      1.873 1.041636e-10  22.2885         11
 5.34   0.0595     10.2187   1183.7399  89.81 1.903089e-09     1.305 3.522043e-11     1.143      1.917 1.042694e-10  21.8014         12
 5.60   0.0912      6.6641   1469.4839 -30.37 1.234748e-09     1.508 3.522043e-11     1.238      2.633 1.037393e-10  22.2711         13
 6.27   0.1027      5.6792    185.1633  82.00  1.09949e-09     1.350 3.522043e-11     1.298      2.978 1.039517e-10  22.3970         14
 3.80   0.0444      4.2202    145.2291  57.99 2.545421e-09     1.866 3.522043e-11     1.716      2.559 1.040577e-10  21.4856         15
 7.07   0.1581      3.4378    845.2756  -7.93 7.142736e-10     0.992 3.522043e-11     0.481      1.747 1.039517e-10  22.8653         16
 5.63   0.1029      2.6172    304.3736  -4.53 1.078704e-09     1.406 3.522043e-11     0.991      2.124 1.022404e-10  22.4177         17
 3.50   0.1110     18.0252   1215.2177 -40.21 1.018421e-09     1.156 3.522043e-11     0.819      1.595 1.040577e-10  22.4802         18
 3.88   0.0360     33.7623   1109.9857  66.96 3.142401e-09     2.300 3.522043e-11     1.545      2.721 1.041636e-10  21.2568         19
 5.68   0.1704     16.1449    195.0850 -44.59 6.589625e-10     0.864 3.522043e-11     0.649      1.679 1.034199e-10  22.9528         20
 5.50   0.0912     23.9005    698.8232  33.42 1.238646e-09     1.412 3.522043e-11     0.983      2.366 1.040577e-10  22.2676         21
 7.03   0.1091     24.8596   1453.8063  -4.23 1.038598e-09     1.206 3.522043e-11     1.085      3.180 1.043751e-10  22.4589         22
 4.75   0.0457     33.5553    326.9302  48.92 2.473273e-09     1.628 3.522043e-11     1.579      2.496 1.040577e-10  21.5168         23
 3.50   0.0003     80.1604    537.6137 -54.89 3.740692e-07     2.396 3.522043e-11     2.307      1.936 1.042694e-10  16.0676         24
 3.85   0.0441     38.7636   1170.4729  69.57 2.562758e-09     1.635 3.522043e-11     1.379      2.204 1.041636e-10  21.4782         25
 4.84   0.0470     37.7706   1521.1245  42.28 2.405958e-09     1.403 3.522043e-11     1.328      1.925 1.041636e-10  21.5468         26
 4.10   0.0581     44.1569    440.6383 -58.96 1.946534e-09     1.839 3.522043e-11     1.399      2.468 1.041636e-10  21.7768         27
 4.17   0.0418     42.1267    915.5358 -54.54 2.695276e-09     1.558 3.522043e-11     1.247      1.859 1.037393e-10  21.4235         28
 5.01   0.1231     38.9265   1226.2628 -44.52 9.148845e-10     1.361 3.522043e-11     0.871      1.882 1.037393e-10  22.5966         29
 4.19   0.0664     50.3917    265.3620 -63.74 1.706221e-09     1.601 3.522043e-11     1.513      2.438 1.042694e-10  21.9199         30
 5.70   0.1702     42.0946   1001.1355 -45.06 6.612065e-10     0.843 3.522043e-11     0.655      1.837  1.03633e-10  22.9492         31
 7.88   0.2169     43.8067    228.3916 -70.78 5.211276e-10     0.729 3.522043e-11     0.450      1.946 1.040577e-10  23.2076         32
 4.99   0.0667     50.1514   1435.4104  34.21 1.696625e-09     1.523 3.522043e-11     1.092      1.889 1.042694e-10  21.9260         33
 5.82   0.1365     47.5112   1430.5231  -8.43 8.272735e-10     0.966 3.522043e-11     0.825      1.863 1.039517e-10  22.7059         34
 6.76   0.1320     47.6919    666.0823 -73.49 8.546372e-10     1.005 3.522043e-11     0.745      2.450 1.038455e-10  22.6705         35
 6.39   0.1735     46.6384    474.2519 -18.96 6.533112e-10     0.944 3.522043e-11     0.652      1.756 1.043751e-10  22.9622         36
 3.50   0.0081     75.2120    128.0196  89.61 1.393987e-08     1.885 3.522043e-11     1.775      2.007 1.041636e-10  19.6394         37
 3.50   0.0748     65.6283   1147.9449  40.51  1.51269e-09     1.595 3.522043e-11     1.283      2.434 1.041636e-10  22.0506         38
 3.63   0.1633     58.1725   1241.8258  44.49 6.932709e-10     0.833 3.522043e-11     0.695      1.579 1.042694e-10  22.8977         39
 3.50   0.0002    121.8204    789.1588 -57.59 5.540479e-07     2.433 3.522043e-11     2.343      1.918 1.041636e-10  15.6411         40
 6.38   0.1584     66.2937   1516.4152 -81.30 7.126054e-10     1.024 3.522043e-11     0.473      1.803 1.039517e-10  22.8679         41
 3.66   0.0009    234.8418    403.8159 -42.65 1.244955e-07     9.712 3.522043e-11     8.163      7.620 1.041636e-10  17.2621         42
 5.21   0.1309     67.4789   1415.5292   3.73 8.598657e-10     0.907 3.522043e-11     0.861      1.560  1.03633e-10  22.6639         43
 3.50   0.0348     82.2179    421.6692 -56.27  3.25683e-09     1.795 3.522043e-11     1.666      2.299 1.042694e-10  21.2180         44
 3.50   0.0902     71.8430   1322.0925 -11.44 1.249274e-09     1.152 3.522043e-11     1.119      1.779 1.037393e-10  22.2584         45
 7.66   0.1161     69.4960     19.5179 -56.39 9.712571e-10     1.145 3.522043e-11     0.931      3.336 1.038455e-10  22.5317         46
 3.89   0.0254     90.7399    377.2209   8.60 4.465183e-09     2.479 3.522043e-11     2.300      3.249 1.042694e-10  20.8754         47
 3.77   0.0057     96.5844     56.1358 -25.19 1.994129e-08     2.025 3.522043e-11     1.928      2.060 1.042694e-10  19.2506         48
 3.50   0.0000    193.5544    318.1067 -66.28 2.359641e-06     3.309 3.522043e-11     2.734      1.933 1.037393e-10  14.0679         49
 3.50   0.0908     79.4387   1033.0938  33.39  1.24296e-09     1.274 3.522043e-11     0.985      1.736 1.039517e-10  22.2639         50
 6.42   0.1096     84.4559    932.3944  -8.12 1.033306e-09     1.707 3.522043e-11     1.312      3.819 1.042694e-10  22.4644         51
 6.01   0.0694     88.4099    758.9613  70.01 1.630537e-09     1.553 3.522043e-11     1.174      2.739 1.042694e-10  21.9692         52
 6.20   0.1462     85.2300   1560.0707  49.93 7.747696e-10     1.822 3.522043e-11     0.616      2.534 1.042694e-10  22.7771         53
 3.50   0.0931     87.8669   1359.5742  60.64 1.216045e-09     1.186 3.522043e-11     1.029      1.889 1.042694e-10  22.2876         54
 6.09   0.1009     87.8252    864.1128 -45.46 1.119853e-09     1.313 3.522043e-11     1.048      2.661 1.040577e-10  22.3771         55
 5.55   0.0792     91.7370   1045.4523  58.29 1.428068e-09     1.447 3.522043e-11     0.991      2.158 1.041636e-10  22.1131         56
 4.48   0.0519     91.4395    495.8049 -51.00 2.179773e-09     1.304 3.522043e-11     1.135      1.870 1.042694e-10  21.6540         57
 4.39   0.0620     95.3138   1076.1998  62.92  1.82771e-09     1.621 3.522043e-11     1.220      2.286 1.042694e-10  21.8452         58
 3.69   0.0285     98.0813    453.0175 -16.09 3.972032e-09     2.374 3.522043e-11     1.455      2.528 1.041636e-10  21.0025         59
 7.59   0.1526     89.1223    812.0873 -30.34 7.396192e-10     1.192 3.522043e-11     0.609      2.618 1.039517e-10  22.8275         60
 5.82   0.1225     94.8927    389.4163  18.91 9.215408e-10     1.117 3.522043e-11     0.875      1.876 1.039517e-10  22.5887         61
 6.89   0.1442    102.8238    519.5135  -7.10  7.83452e-10     1.285 3.522043e-11     0.690      2.345 1.040577e-10  22.7650         62
 6.06   0.0878    114.0112    270.5333  65.15 1.288969e-09     1.695 3.522043e-11     1.400      3.169 1.041636e-10  22.2244         63
 3.79   0.0795    115.1614    415.6245  34.91 1.422325e-09     1.493 3.522043e-11     1.285      2.254 1.040577e-10  22.1175         64
 6.23   0.1451    107.4839   1422.2188 -48.16 7.782698e-10     1.071 3.522043e-11     0.714      1.831 1.039517e-10  22.7722         65
 6.64   0.1830    107.7240    181.5535 -80.89 6.164241e-10     1.003 3.522043e-11     0.477      1.888 1.038455e-10  23.0253         66
 6.08   0.1109    108.1668    862.9700  87.32 1.021509e-09     0.879 3.522043e-11     0.749      1.650 1.042694e-10  22.4769         67
 5.87   0.1213    107.0281   1099.8956 -10.21 9.297054e-10     1.143 3.522043e-11     0.733      2.122 1.038455e-10  22.5791         68
 5.06   0.1322    110.7916   1514.8485  -6.11 8.563271e-10     0.899 3.522043e-11     0.847      1.672 1.042694e-10  22.6684         69
 5.14   0.0685    117.4975     66.6616  18.32  1.64022e-09     1.897 3.522043e-11     1.196      2.731 1.034199e-10  21.9627         70
 3.50   0.0004    162.3189   1468.3063 -56.16 3.165065e-07     2.344 3.522043e-11     2.258      1.894 1.039517e-10  16.2490         71
 3.50   0.0753    117.0433    990.8805  31.09 1.499808e-09     1.209 3.522043e-11     1.205      1.820 1.039517e-10  22.0599         72
 5.70   0.0826    117.8415    154.1458  46.22  1.37039e-09     1.180 3.522043e-11     0.993      2.041 1.042694e-10  22.1579         73
 3.83   0.0770    126.3654    493.9889 -10.03 1.470042e-09     1.690 3.522043e-11     1.080      2.291 1.041636e-10  22.0817         74
 3.90   0.0515    131.3991    418.2536 -47.46 2.197376e-09     1.328 3.522043e-11     1.279      1.983 1.042694e-10  21.6452         75
 6.43   0.1072    129.0447    885.6586  63.46 1.056218e-09     1.207 3.522043e-11     0.940      2.607 1.042694e-10  22.4406         76
 6.09   0.1342    127.9856   1478.7462   1.40 8.445888e-10     0.916 3.522043e-11     0.755      1.853 1.043751e-10  22.6834         77
 6.67   0.0855    142.8879    886.5015  65.22 1.314613e-09     1.569 3.522043e-11     1.204      3.587 1.035265e-10  22.2030         78
 3.50   0.0015    170.3011    877.2668  87.07  7.35265e-08     2.141 3.522043e-11     2.123      1.906  1.03633e-10  17.8339         79
 6.51   0.1540    135.8349     99.4756  -4.33 7.336344e-10     1.013 3.522043e-11     0.728      1.976 1.040577e-10  22.8363         80
 4.06   0.0470    146.6661    354.0066 -38.40 2.412091e-09     1.632 3.522043e-11     1.348      2.108 1.043751e-10  21.5440         81
 5.22   0.0581    151.2717   1280.3529  -2.92 1.943506e-09     1.365 3.522043e-11     1.294      2.258 1.039517e-10  21.7785         82
 3.50   0.0786    155.6839     82.5474  82.51 1.430984e-09     1.392 3.522043e-11     1.086      1.821  1.03633e-10  22.1109         83
 4.04   0.0183    165.0188   1445.8256  36.20 6.170044e-09     1.794 3.522043e-11     1.744      2.235 1.041636e-10  20.5243         84
 5.23   0.0973    155.7495   1580.0179  34.23  1.16553e-09     1.263 3.522043e-11     0.996      2.448 1.043751e-10  22.3337         85
 3.50   0.0216    166.8039    104.4989 -39.09 5.227518e-09     1.556 3.522043e-11     1.497      1.916 1.038455e-10  20.7043         86
 6.50   0.1796    155.1303    823.4882   7.42 6.274447e-10     0.912 3.522043e-11     0.585      2.099 1.037393e-10  23.0061         87
 5.10   0.0723    165.9249    576.4904 -76.83 1.562196e-09     1.563 3.522043e-11     1.280      2.324 1.039517e-10  22.0157         88
 7.98   0.0939    166.8519   1055.9596 -52.47 1.206529e-09     1.706 3.522043e-11     1.228      6.298 1.042694e-10  22.2962         89
 7.25   0.1418    160.2816    492.8344  69.03 7.967543e-10     0.917 3.522043e-11     0.674      2.139 1.040577e-10  22.7467         90
 4.34   0.0440    169.4501   1368.8391  61.54 2.574648e-09     1.416 3.522043e-11     1.332      1.919 1.042694e-10  21.4732         91
 4.51   0.1083    165.3952   1198.0385  11.32 1.045197e-09     1.114 3.522043e-11     0.877      1.580 1.042694e-10  22.4520         92
 4.69   0.0674    169.1122    651.3318  24.29 1.672134e-09     1.342 3.522043e-11     1.110      2.056 1.037393e-10  21.9418         93
 3.87   0.0455    180.0683    575.1193  22.70  2.47364e-09     2.058 3.522043e-11     1.637      2.733 1.037393e-10  21.5167         94
 6.69   0.1022    176.2536   1200.9447 -66.09 1.108861e-09     1.473 3.522043e-11     1.195      3.120 1.043751e-10  22.3878         95
 4.80   0.0402    186.7878   1354.9534  11.13 2.815826e-09     1.808 3.522043e-11     1.778      2.829 1.042694e-10  21.3760         96
 7.33   0.1947    173.7570     32.5618  69.50 5.809386e-10     0.772 3.522043e-11     0.444      1.478 1.041636e-10  23.0897         97
 3.50   0.0001    259.7700    997.4595 -45.88 9.503326e-07     2.656 3.522043e-11     2.457      1.913 1.041636e-10  15.0553         98
 3.62   0.0065    210.7415    827.6367  -7.81 1.751169e-08     5.190 3.522043e-11     2.556      4.359 1.042694e-10  19.3917         99
 3.57   0.0145    192.5612   1350.5186  -1.26 7.810376e-09     1.747 3.522043e-11     1.671      1.971 1.039517e-10  20.2683        100
 3.50   0.0000    312.3827    439.4107 -48.97 2.732826e-06     3.021 3.522043e-11     2.785      1.970 1.041636e-10  13.9085        101
 7.28   0.0801    190.1767   1027.8345 -78.64 1.410864e-09     1.337 3.522043e-11     1.169      4.305 1.040577e-10  22.1263        102
 3.73   0.0115    230.0405    562.2480 -14.57 9.853516e-09     4.292 3.522043e-11     3.859      5.346 1.042694e-10  20.0160        103
 5.30   0.0154    208.8254    349.8459  40.51 7.334416e-09     2.687 3.522043e-11     1.947      3.433 1.042694e-10  20.3366        104
 3.50   0.0076    206.7229    549.0727 -73.88 1.479237e-08     1.798 3.522043e-11     1.755      1.948 1.037393e-10  19.5749        105
 7.48   0.1535    186.9650    837.4592  27.83 7.376426e-10     1.042 3.522043e-11     0.654      2.662 1.042694e-10  22.8304        106
 3.50   0.0002    265.9336     67.5535 -47.47 7.095451e-07     2.600 3.522043e-11     2.493      1.941 1.041636e-10  15.3726        107
 6.10   0.0593    195.1941    268.1110   8.93  1.90705e-09     2.239 3.522043e-11     1.231      3.517 1.041636e-10  21.7991        108
 4.83   0.0358    203.5535    250.9252  69.15 3.153267e-09     1.510 3.522043e-11     1.491      2.244 1.039517e-10  21.2531        109
 6.15   0.1020    195.9597    449.3375 -43.33 1.109425e-09     1.147 3.522043e-11     0.960      2.368 1.041636e-10  22.3873        110
 3.50   0.0076    212.1476   1306.1675 -81.36 1.490233e-08     1.838 3.522043e-11     1.801      1.954 1.041636e-10  19.5669        111
 4.27   0.0274    210.9894    684.8183 -76.83 4.125315e-09     1.867 3.522043e-11     1.527      2.328 1.041636e-10  20.9614        112
 5.54   0.0258    222.4612    345.8315 -33.50 4.382305e-09     2.433 3.522043e-11     2.307      4.188 1.042694e-10  20.8957        113
 5.85   0.0995    205.8522    936.8450 -44.06 1.138342e-09     1.364 3.522043e-11     0.921      2.373 1.042694e-10  22.3593        114
 3.50   0.0707    209.2479   1225.6992  52.89 1.592833e-09     1.307 3.522043e-11     1.182      1.898  1.03633e-10  21.9946        115
 5.80   0.1220    206.1581    183.5764  40.48 9.280708e-10     1.065 3.522043e-11     0.725      1.748 1.042694e-10  22.5810        116
 3.50   0.0065    223.8702   1226.1047  27.06  1.73553e-08     1.833 3.522043e-11     1.803      1.942 1.039517e-10  19.4014        117
 5.20   0.0590    217.7645    741.2256 -55.72 1.915244e-09     1.992 3.522043e-11     1.385      3.031 1.040577e-10  21.7944        118
 6.47   0.1387    206.1061    942.2924  -9.74 8.124569e-10     1.064 3.522043e-11     0.682      2.132 1.037393e-10  22.7255        119
 3.50   0.0988    217.7309    882.5818 -44.45 1.145977e-09     2.207 3.522043e-11     0.944      2.357 1.042694e-10  22.3521        120
 3.53   0.0186    222.5676    774.8543 -21.40 6.097139e-09     1.683 3.522043e-11     1.526      1.900 1.042694e-10  20.5372        121
 3.98   0.0142    243.9709    112.8099 -82.37 7.964613e-09     2.781 3.522043e-11     2.126      3.046 1.041636e-10  20.2471        122
 5.21   0.1536    215.3313    793.1174  10.89 7.333021e-10     1.258 3.522043e-11     0.577      1.937 1.037393e-10  22.8368        123
 3.69   0.0056    255.4174    613.0841 -39.56 2.010093e-08     3.203 3.522043e-11     2.735      3.228 1.040577e-10  19.2420        124
 7.11   0.0913    227.2231    324.1738 -50.49 1.240483e-09     1.984 3.522043e-11     1.463      5.361 1.042694e-10  22.2660        125
 6.62   0.1609    218.1372    492.1341 -51.07 7.018236e-10     0.820 3.522043e-11     0.688      1.948 1.039517e-10  22.8844        126
 6.32   0.2175    219.2078   1506.4427  69.16 5.206113e-10     0.732 3.522043e-11     0.453      1.404 1.042694e-10  23.2087        127
 6.17   0.0622    230.0553    548.2059 -63.17 1.821286e-09     1.571 3.522043e-11     1.201      2.969 1.042694e-10  21.8491        128
 3.50   0.0298    239.1828    838.7829 -11.69 3.794386e-09     1.856 3.522043e-11     1.764      2.485 1.042694e-10  21.0521        129
 5.05   0.1360    233.4641   1553.4255  75.11 8.328953e-10     0.927 3.522043e-11     0.913      1.784 1.042694e-10  22.6985        130
 5.26   0.0313    251.5770   1372.8207  55.69 3.608654e-09     2.004 3.522043e-11     1.818      3.165 1.041636e-10  21.1066        131
 6.23   0.1078    239.4029   1478.8386 -30.81 1.050047e-09     1.207 3.522043e-11     1.058      2.539 1.042694e-10  22.4470        132
 3.50   0.0007    287.5186   1486.4594 -75.34 1.666303e-07     2.292 3.522043e-11     2.273      1.930 1.035265e-10  16.9456        133
 5.38   0.0346    250.5008    107.5044  73.06  3.24792e-09     1.552 3.522043e-11     1.452      2.723 1.035265e-10  21.2210        134
 3.50   0.0000    351.4099    890.8208 -42.43 2.488142e-06     2.909 3.522043e-11     2.706      1.915 1.041636e-10  14.0103        135
 6.71   0.1048    250.5798   1550.7551  75.65 1.080984e-09     1.307 3.522043e-11     0.987      2.645 1.042694e-10  22.4155        136
 4.75   0.0929    248.6709   1414.7164  28.65 1.214257e-09     1.445 3.522043e-11     1.202      2.464 1.038455e-10  22.2892        137
 3.50   0.0000    351.4268   1345.8776 -46.86 2.359997e-06     2.857 3.522043e-11     2.668      1.928 1.041636e-10  14.0677        138
 3.50   0.0458    253.4007   1352.7797  45.45 2.471553e-09     1.314 3.522043e-11     1.254      1.705 1.042694e-10  21.5176        139
 6.61   0.1205    249.7396    151.0695  31.90  9.36213e-10     1.147 3.522043e-11     0.871      2.437 1.038455e-10  22.5716        140
 3.50   0.0002    318.7149    905.4394 -54.03 4.902379e-07     2.731 3.522043e-11     2.435      1.924 1.039517e-10  15.7740        141
 3.50   0.0030    281.8956   1522.3597 -51.03 3.755796e-08     1.985 3.522043e-11     1.969      1.902 1.037393e-10  18.5632        142
 7.93   0.1044    269.1119    369.8591 -76.10 1.077239e-09     1.800 3.522043e-11     1.024      6.105 1.035265e-10  22.4192        143
 4.20   0.0771    265.4621    123.9243  81.66 1.461477e-09     1.581 3.522043e-11     1.088      2.297 1.037393e-10  22.0880        144
 5.20   0.0352    270.7000   1273.6537  12.31 3.187455e-09     1.812 3.522043e-11     1.684      2.803 1.033133e-10  21.2414        145
 5.86   0.0920    265.2458    724.4792 -75.42 1.225818e-09     1.586 3.522043e-11     1.387      3.213 1.038455e-10  22.2789        146
 6.90   0.1464    262.4332   1209.3313 -67.55 7.729478e-10     0.948 3.522043e-11     0.850      2.460 1.041636e-10  22.7796        147
 3.50   0.0009    303.1472    201.7347 -68.61  1.26278e-07     2.213 3.522043e-11     2.145      1.941 1.041636e-10  17.2467        148
 3.50   0.0272    297.3012   1413.6044 -41.85 4.145483e-09     3.773 3.522043e-11     1.985      3.925 1.038455e-10  20.9561        149
 3.50   0.0096    289.8135    515.0463  -9.03 1.176783e-08     2.109 3.522043e-11     2.050      2.495 1.042694e-10  19.8233        150
 6.77   0.1537    268.0400   1388.6296  20.32 7.367189e-10     0.949 3.522043e-11     0.687      2.053 1.042694e-10  22.8317        151
 3.50   0.0021    346.3826    867.0511  69.15 5.485503e-08     3.077 3.522043e-11     2.645      2.151 1.043751e-10  18.1520        152
 4.24   0.1013    271.3445   1250.1095  10.89 1.109238e-09     1.176 3.522043e-11     0.887      1.846 1.034199e-10  22.3874        153
 3.50   0.0069    293.8910   1327.5530 -69.88 1.635657e-08     1.866 3.522043e-11     1.751      1.926 1.037393e-10  19.4658        154
 7.46   0.1521    276.3635   1377.6409 -60.06 7.444576e-10     1.136 3.522043e-11     0.737      2.573 1.042694e-10  22.8204        155
 4.20   0.0219    293.3911   1475.7302  27.40 5.163201e-09     1.834 3.522043e-11     1.708      2.209 1.039517e-10  20.7177        156
 7.45   0.1735    275.6907   1370.9330   4.54 6.494442e-10     0.730 3.522043e-11     0.671      3.360 1.037393e-10  22.9686        157
 5.65   0.0808    295.3774    887.3755 -66.52 1.400082e-09     1.730 3.522043e-11     1.084      2.972 1.041636e-10  22.1346        158
 3.50   0.1447    279.2253    557.5473 -10.22 7.823104e-10     1.524 3.522043e-11     0.634      1.971 1.042694e-10  22.7666        159
 4.06   0.0583    292.5336    248.4279 -46.28 1.943334e-09     1.559 3.522043e-11     1.155      2.048 1.042694e-10  21.7786        160
 8.31   0.1103    288.4503    415.1766   0.21 1.026916e-09     1.374 3.522043e-11     0.944      5.624 1.042694e-10  22.4712        161
 3.50   0.0013    322.0815    697.3350 -31.69 8.522283e-08     2.082 3.522043e-11     2.063      1.882 1.037393e-10  17.6736        162
 3.50   0.0177    302.2479    563.7844  23.70  6.40282e-09     1.722 3.522043e-11     1.661      2.057 1.041636e-10  20.4841        163
 5.25   0.1441    287.8588   1350.9969 -32.67   7.8601e-10     1.042 3.522043e-11     0.651      1.637 1.042694e-10  22.7614        164
 5.06   0.0422    308.5578     85.7844  47.44 2.683937e-09     2.445 3.522043e-11     1.773      3.356 1.042694e-10  21.4281        165
 3.50   0.0287    321.6068    641.3895 -71.15 3.944127e-09     2.721 3.522043e-11     2.171      3.313 1.040577e-10  21.0101        166
 3.95   0.0095    327.4536    595.3719 -74.72 1.189924e-08     2.407 3.522043e-11     2.347      2.813 1.041636e-10  19.8112        167
 7.04   0.1012    311.4536    317.8913  58.58 1.109408e-09     1.328 3.522043e-11     1.183      3.094 1.034199e-10  22.3873        168
 3.50   0.0996    309.7623    985.4553 -25.98 1.137099e-09     1.149 3.522043e-11     1.026      1.782 1.042694e-10  22.3605        169
 4.41   0.0715    317.1000    226.7611 -27.42  1.57339e-09     1.503 3.522043e-11     1.124      2.013 1.035265e-10  22.0079        170
 5.98   0.1479    314.6991   1268.0784  67.82 7.616681e-10     0.929 3.522043e-11     0.692      1.903 1.037393e-10  22.7956        171
 7.41   0.2254    314.7945    155.4139 -70.37 5.019078e-10     0.742 3.522043e-11     0.451      1.594 1.041636e-10  23.2484        172
 7.54   0.1594    316.0235   1452.4587   1.51 7.106102e-10     0.846 3.522043e-11     0.694      1.983 1.042694e-10  22.8709        173
 4.02   0.0639    324.6130    955.4922  34.69 1.769515e-09     1.671 3.522043e-11     1.331      2.527 1.040577e-10  21.8804        174
 3.50   0.0334    334.7833   1440.5581 -66.97 3.387385e-09     1.697 3.522043e-11     1.328      1.919 1.040577e-10  21.1753        175
 3.50   0.0298    332.1089     93.4541  49.38 3.773568e-09     1.538 3.522043e-11     1.444      1.884 1.034199e-10  21.0581        176
 4.31   0.0361    329.1945   1546.1460 -36.88 3.135407e-09     1.463 3.522043e-11     1.325      1.887 1.042694e-10  21.2593        177
 4.51   0.1195    325.0898    342.0480  77.96 9.415133e-10     1.109 3.522043e-11     0.726      1.701  1.03633e-10  22.5654        178
 4.35   0.1523    321.1999    576.2994  20.22 7.404303e-10     1.100 3.522043e-11     0.660      1.726 1.038455e-10  22.8263        179
 3.50   0.0028    355.8479    431.8364  73.17 4.019934e-08     2.469 3.522043e-11     2.334      2.372 1.042694e-10  18.4895        180
 3.50   0.0013    368.1527    761.1165 -26.25 8.684592e-08     2.174 3.522043e-11     2.111      1.927 1.037393e-10  17.6531        181
 5.94   0.1386    336.1359    623.5096 -56.61 8.130565e-10     1.309 3.522043e-11     0.677      2.087 1.037393e-10  22.7247        182
 3.69   0.0142    350.0377     54.7818 -51.24 7.942774e-09     1.775 3.522043e-11     1.683      2.028 1.040577e-10  20.2501        183
 4.81   0.1075    337.4325    813.0848   6.70 1.050859e-09     1.164 3.522043e-11     1.049      2.179 1.040577e-10  22.4461        184
 5.73   0.1432    337.3655    610.3945 -19.34 7.905677e-10     1.122 3.522043e-11     0.982      2.157 1.042694e-10  22.7552        185
 3.50   0.0035    367.3476    442.7888  77.59 3.207463e-08     2.123 3.522043e-11     1.983      1.983 1.042694e-10  18.7346        186
 6.16   0.0793    339.4038    805.5746  -6.98 1.427445e-09     1.947 3.522043e-11     0.994      2.986 1.042694e-10  22.1136        187
 3.50   0.0003    395.2449    231.4280 -57.07  4.15878e-07     2.464 3.522043e-11     2.329      1.928 1.042694e-10  15.9526        188
 4.07   0.0828    348.4303     42.7125 -80.28 1.365446e-09     1.292 3.522043e-11     1.077      2.096 1.040577e-10  22.1618        189
 6.36   0.1665    340.6989   1503.8140 -27.07 6.773582e-10     0.849 3.522043e-11     0.616      1.677 1.038455e-10  22.9230        190
 3.50   0.0077    361.1217   1500.2897 -12.04 1.470742e-08     1.953 3.522043e-11     1.750      1.996 1.039517e-10  19.5812        191
 3.63   0.0252    360.5433   1034.0817 -46.26 4.467169e-09     1.613 3.522043e-11     1.452      1.961 1.035265e-10  20.8749        192
 3.65   0.0394    359.8064    533.1505 -22.74 2.874452e-09     1.610 3.522043e-11     1.506      2.154 1.042694e-10  21.3536        193
 4.55   0.0544    363.1283   1415.5043  79.84 2.076944e-09     1.680 3.522043e-11     1.350      2.257 1.039517e-10  21.7064        194
 5.31   0.1275    356.0405   1398.7571  81.91 8.875657e-10     1.026 3.522043e-11     0.661      1.548 1.041636e-10  22.6295        195
 3.53   0.0328    375.3464    754.0449  52.95 3.455602e-09     2.856 3.522043e-11     1.455      3.011 1.042694e-10  21.1537        196
 4.77   0.0383    380.5194      1.9872 -89.41 2.723723e-09     2.902 3.522043e-11     0.927      2.630 9.612591e-11  21.4121        197
 8.56   0.1641    352.7579   1579.9092  29.22 6.863994e-10     1.050 3.522043e-11     0.641      2.835 1.037393e-10  22.9086        198
 4.76   0.1176    361.5654    369.4663 -61.83  9.61783e-10     1.469 3.522043e-11     0.981      2.479 1.041636e-10  22.5423        199
 3.66   0.0363    373.2946   1083.8184 -42.70 3.108879e-09     1.972 3.522043e-11     1.814      2.653 1.039517e-10  21.2685        200
 3.50   0.0221    372.8607    992.5334  47.67 5.116194e-09     1.657 3.522043e-11     1.484      1.916 1.040577e-10  20.7276        201
 7.36   0.1608    359.1738   1048.0958 -42.52 7.014768e-10     0.851 3.522043e-11     0.670      2.274 1.038455e-10  22.8850        202
 4.26   0.0468    370.4871     71.8372 -35.86 2.415855e-09     1.688 3.522043e-11     1.394      2.321 1.040577e-10  21.5423        203
 4.75   0.0743    369.4176    210.2285   4.00 1.522285e-09     1.432 3.522043e-11     1.192      2.314 1.041636e-10  22.0438        204
 4.41   0.1451    365.8375    941.4635  66.65 7.793802e-10     0.879 3.522043e-11     0.744      1.589 1.041636e-10  22.7706        205
 3.50   0.0003    419.6318    433.3287 -48.33 3.788938e-07     2.411 3.522043e-11     2.315      1.931 1.041636e-10  16.0537        206
 3.50   0.0019    397.0928   1461.2046  80.30 6.060255e-08     2.074 3.522043e-11     2.013      1.865 1.039517e-10  18.0438        207
 3.61   0.0333    396.8666    626.9681  88.48 3.394915e-09     3.006 3.522043e-11     2.117      3.689 1.041636e-10  21.1729        208
 3.50   0.0016    398.1840    354.6152 -41.82  6.91856e-08     2.088 3.522043e-11     2.027      1.935 1.041636e-10  17.9000        209
 3.79   0.0615    375.4981     87.1865 -38.13 1.834198e-09     1.254 3.522043e-11     1.114      1.624 1.038455e-10  21.8414        210
 5.30   0.0461    380.2085    125.5652  51.58 2.458834e-09     1.386 3.522043e-11     1.302      2.199 1.042694e-10  21.5232        211
 3.50   0.0006    415.6470    837.4094 -46.73 1.841137e-07     2.247 3.522043e-11     2.196      1.924 1.042694e-10  16.8373        212
 4.91   0.0338    411.8816      2.6799 -87.29 3.299548e-09     4.104 3.522043e-11     1.640      4.283 1.025635e-10  21.2039        213
 3.50   0.0082    393.6861   1088.6912  -9.97 1.379749e-08     1.910 3.522043e-11     1.801      2.009 1.037393e-10  19.6505        214
 5.26   0.0574    382.5512     67.2864 -13.34 1.959292e-09     1.570 3.522043e-11     1.298      2.314  1.03633e-10  21.7698        215
 6.92   0.1049    382.5036     11.1563  56.77  1.07275e-09     1.503 3.522043e-11     1.107      3.333  1.03633e-10  22.4238        216
 3.77   0.1076    379.6682    512.4774  33.52 1.047329e-09     1.234 3.522043e-11     0.936      1.908 1.037393e-10  22.4498        217
 3.50   0.0001    461.0858    807.6306 -45.12 1.139397e-06     2.632 3.522043e-11     2.492      1.938 1.040577e-10  14.8583        218
 3.95   0.0440    396.4665    977.6869  74.92 2.558918e-09     1.546 3.522043e-11     1.378      2.063 1.037393e-10  21.4799        219
 3.50   0.0587    388.9280   1195.4132  22.70 1.928301e-09     1.328 3.522043e-11     1.096      1.686 1.041636e-10  21.7871        220
 6.72   0.1858    382.3671   1484.7922 -18.12 6.089165e-10     0.766 3.522043e-11     0.441      1.639 1.041636e-10  23.0386        221
 4.68   0.0203    420.7707    159.0725  40.25 5.563668e-09     2.192 3.522043e-11     1.972      2.986 1.041636e-10  20.6366        222
 4.08   0.0462    403.6834    526.6033  63.12 2.452306e-09     2.257 3.522043e-11     1.567      2.940 1.042694e-10  21.5261        223
 3.50   0.0971    392.2231     95.5983 -13.84  1.16582e-09     1.376 3.522043e-11     1.125      2.029 1.042694e-10  22.3334        224
 6.10   0.0945    389.5617    260.8218 -20.73 1.195322e-09     1.165 3.522043e-11     0.955      2.209 1.040577e-10  22.3063        225
 5.73   0.1441    394.3020    146.1531  50.62 7.812601e-10     1.258 3.522043e-11     0.839      2.298  1.03633e-10  22.7680        226
 6.48   0.1287    392.7150    683.7128 -42.90 8.754932e-10     0.932 3.522043e-11     0.749      1.860 1.037393e-10  22.6444        227
 3.50   0.0008    437.9529    252.0617  65.44 1.362595e-07     2.248 3.522043e-11     2.187      1.958 1.041636e-10  17.1641        228
 3.50   0.0035    424.1362    926.3788  17.51 3.256486e-08     1.999 3.522043e-11     1.958      1.946 1.043751e-10  18.7181        229
 4.07   0.1095    401.1429    812.4667  66.48 1.031949e-09     1.234 3.522043e-11     0.911      1.750 1.040577e-10  22.4659        230
 6.12   0.0554    421.9239    134.2799 -28.73 2.037531e-09     3.026 3.522043e-11     2.492      5.577 1.039517e-10  21.7272        231
 5.14   0.0631    413.3511   1562.1979 -62.26 1.794747e-09     2.089 3.522043e-11     1.268      2.968 1.042694e-10  21.8650        232
 4.18   0.0507    407.2562    282.3289  86.82 2.226881e-09     1.364 3.522043e-11     1.287      2.004 1.039517e-10  21.6308        233
 4.60   0.0651    415.3582    559.4591  63.13 1.740153e-09     1.774 3.522043e-11     1.581      2.991 1.042694e-10  21.8985        234
 4.78   0.2011    402.3171    986.1725 -12.68 5.618966e-10     1.099 3.522043e-11     0.408      1.601 1.040577e-10  23.1259        235
 4.73   0.0343    426.7766   1179.1703  35.61 3.297167e-09     2.229 3.522043e-11     1.797      2.998 1.042694e-10  21.2046        236
 3.50   0.0106    432.9046   1422.0809  72.63 1.067928e-08     1.841 3.522043e-11     1.772      2.020 1.039517e-10  19.9286        237
 3.50   0.0525    431.0983    719.4976  62.59  2.14036e-09     2.636 3.522043e-11     2.366      4.145 1.035265e-10  21.6738        238
 5.86   0.0644    418.8663   1204.2428 -20.14 1.754661e-09     1.521 3.522043e-11     1.493      2.958 1.040577e-10  21.8895        239
 5.09   0.0580    419.5924   1580.7533 -10.90 1.953841e-09     1.292 3.522043e-11     1.180      2.026 1.042694e-10  21.7728        240
 3.50   0.0591    419.3518    774.6478 -44.54 1.914688e-09     1.464 3.522043e-11     1.353      2.076 1.042694e-10  21.7948        241
 7.60   0.1483    414.3188    180.8751 -21.54 7.611908e-10     1.224 3.522043e-11     0.722      3.138 1.039517e-10  22.7963        242
 3.63   0.0078    467.8368    850.7371  22.81 1.443544e-08     8.957 3.522043e-11     2.738      7.103 1.041636e-10  19.6014        243
 5.15   0.1192    417.5245    940.4044  25.55 9.490265e-10     1.132 3.522043e-11     0.871      2.005 1.041636e-10  22.5568        244
 5.70   0.0665    424.4875   1063.9919  52.22 1.702927e-09     1.289 3.522043e-11     1.160      2.050 1.042694e-10  21.9220        245
 3.50   0.0026    450.2834     21.3217  50.03 4.281695e-08     2.154 3.522043e-11     2.019      1.949 1.040577e-10  18.4210        246
 5.99   0.1641    418.2688   1296.3599 -18.56 6.893716e-10     1.006 3.522043e-11     0.594      1.791 1.041636e-10  22.9039        247
 8.14   0.1510    421.6075    632.8793  73.98 7.492896e-10     1.098 3.522043e-11     0.742      2.998 1.041636e-10  22.8134        248
 3.96   0.0647    426.1651    299.9701 -21.62 1.749013e-09     1.173 3.522043e-11     1.047      1.645 1.042694e-10  21.8930        249
 4.96   0.1451    420.8992   1092.4041  26.38 7.773424e-10     1.048 3.522043e-11     0.647      1.469 1.038455e-10  22.7735        250
 5.09   0.1135    435.6538    120.0087  65.10 9.977343e-10     1.864 3.522043e-11     1.437      3.278 1.042694e-10  22.5025        251
 4.13   0.0260    434.2025    151.1426  -6.07 4.352902e-09     1.570 3.522043e-11     1.422      1.894 1.042694e-10  20.9031        252
 6.89   0.1337    426.8295    242.1108  23.58 8.451637e-10     1.514 3.522043e-11     0.677      3.078 1.040577e-10  22.6826        253
 3.50   0.0024    457.8253     34.5816  65.42 4.808207e-08     2.073 3.522043e-11     2.047      1.950 1.041636e-10  18.2950        254
 3.50   0.0265    447.3785    883.8478   9.83 4.279483e-09     2.915 3.522043e-11     1.958      3.282 1.042694e-10  20.9215        255
 3.50   0.0186    445.0784    122.2448 -53.19 6.082509e-09     1.931 3.522043e-11     1.750      2.337 1.039517e-10  20.5398        256
 3.50   0.0220    439.9558    305.7392 -69.59 5.133926e-09     1.473 3.522043e-11     1.451      1.795 1.041636e-10  20.7239        257
 4.61   0.1233    429.7102   1308.9401  71.35 9.124119e-10     0.994 3.522043e-11     0.737      1.734  1.03633e-10  22.5995        258
 6.64   0.1478    426.6626   1008.4617   6.40 7.653277e-10     1.075 3.522043e-11     0.626      2.132 1.041636e-10  22.7904        259
 3.52   0.0741    433.4146    406.2317  51.79 1.524091e-09     1.143 3.522043e-11     1.056      1.565 1.040577e-10  22.0425        260
 4.31   0.1052    433.7484    353.2811  14.85 1.069578e-09     1.085 3.522043e-11     0.919      1.708  1.03633e-10  22.4270        261
 3.64   0.0120    496.3123     82.8136 -84.63 9.443357e-09     3.461 3.522043e-11     2.845      3.869 1.040577e-10  20.0622        262
 4.96   0.1340    437.5646   1382.6174  61.78 8.433546e-10     1.296 3.522043e-11     0.789      2.010 1.040577e-10  22.6850        263
 4.73   0.0639    443.9568    174.5263 -80.70 1.769046e-09     1.439 3.522043e-11     1.286      2.245 1.040577e-10  21.8807        264
 4.86   0.0569    443.7590    655.1754   9.31 1.991006e-09     1.311 3.522043e-11     1.088      1.779 1.042694e-10  21.7523        265
 4.40   0.1068    442.3632    959.6584 -43.34 1.059938e-09     0.989 3.522043e-11     0.864      1.501 1.042694e-10  22.4368        266
 3.50   0.0076    463.6585    468.6251  73.55 1.483745e-08     1.941 3.522043e-11     1.794      2.056 1.042694e-10  19.5716        267
 4.88   0.0802    445.8062   1505.3101  50.60 1.410036e-09     1.306 3.522043e-11     1.160      2.074 1.041636e-10  22.1269        268
 3.50   0.0014    533.0563    518.8571  27.34 8.020953e-08     6.262 3.522043e-11     5.043      4.779 1.043751e-10  17.7394        269
 4.21   0.0409    452.6859   1533.1967  -7.58 2.771313e-09     1.435 3.522043e-11     1.306      1.920 1.042694e-10  21.3933        270
 3.50   0.0058    472.0500    734.8479  53.18 1.949053e-08     1.933 3.522043e-11     1.835      1.936 1.042694e-10  19.2754        271
 3.80   0.0224    460.9906   1096.1451  38.43 5.056342e-09     1.848 3.522043e-11     1.514      2.153 1.042694e-10  20.7404        272
 5.19   0.0737    454.2430   1224.4900 -65.20 1.527452e-09     1.360 3.522043e-11     1.242      2.239  1.03633e-10  22.0401        273
 3.52   0.0089    471.6829    254.5128  55.80 1.263435e-08     2.311 3.522043e-11     1.781      2.109 1.038455e-10  19.7461        274
 4.63   0.0415    461.8027    724.9962 -12.73  2.71448e-09     2.126 3.522043e-11     1.433      2.746 1.038455e-10  21.4158        275
 4.96   0.1300    451.8782   1131.6384  32.81 8.682088e-10     1.241 3.522043e-11     0.702      1.861 1.039517e-10  22.6534        276
 5.57   0.1437    450.2540   1354.5496   3.16 7.888352e-10     0.942 3.522043e-11     0.718      1.443 1.043751e-10  22.7575        277
 5.11   0.0776    473.3300   1132.6407  79.80 1.458208e-09     2.664 3.522043e-11     1.102      3.412 1.041636e-10  22.0905        278
 3.50   0.0046    477.8849    923.0497 -29.11 2.456875e-08     1.961 3.522043e-11     1.864      1.946  1.03633e-10  19.0240        279
 6.21   0.0711    466.8380   1198.2748  39.52 1.587365e-09     1.599 3.522043e-11     1.432      3.123 1.039517e-10  21.9983        280
 6.26   0.1067    465.3800    128.6256  28.73  1.06023e-09     1.512 3.522043e-11     1.260      3.122 1.041636e-10  22.4365        281
 4.50   0.0133    495.8948   1186.7543 -31.34 8.448919e-09     3.850 3.522043e-11     2.763      4.545 1.037393e-10  20.1830        282
 4.21   0.0894    465.8451    561.8306  73.97 1.267205e-09     1.339 3.522043e-11     1.073      1.881 1.042694e-10  22.2429        283
 3.75   0.0123    478.0163   1277.0157 -81.88 9.165465e-09     1.775 3.522043e-11     1.685      1.998 1.041636e-10  20.0946        284
 3.82   0.0309    489.0193    839.6689  88.83  3.66671e-09     3.039 3.522043e-11     1.598      3.172 1.042694e-10  21.0893        285
 3.50   0.0107    483.9364   1070.6436 -37.22 1.056004e-08     1.871 3.522043e-11     1.780      2.035 1.041636e-10  19.9408        286
 3.50   0.0934    487.0309    426.3051 -46.40 1.204353e-09     3.265 3.522043e-11     1.505      4.053  1.03633e-10  22.2981        287
 4.19   0.0425    479.0482    682.7807 -78.04 2.663262e-09     1.652 3.522043e-11     1.322      2.156 1.042694e-10  21.4365        288
 5.93   0.0786    480.8025   1519.8597 -53.87 1.440072e-09     1.858 3.522043e-11     1.355      3.325 1.042694e-10  22.1040        289
 4.34   0.0797    473.0153    782.2492  35.64 1.419312e-09     1.332 3.522043e-11     0.995      1.820 1.041636e-10  22.1198        290
 6.99   0.1616    469.8561    664.2957  22.05 6.955637e-10     0.944 3.522043e-11     0.672      2.109 1.035265e-10  22.8942        291
 4.68   0.0517    475.9328   1168.2911  13.51 2.177426e-09     1.385 3.522043e-11     1.147      2.088 1.037393e-10  21.6551        292
 3.50   0.0545    481.1260   1310.1555   4.38  2.07145e-09     1.517 3.522043e-11     1.180      1.859 1.039517e-10  21.7093        293
 3.50   0.0011    512.4192   1302.4135  21.67 9.864129e-08     2.168 3.522043e-11     2.144      1.924 1.041636e-10  17.5149        294
 3.50   0.0000    587.7993   1316.0531 -38.48 2.473715e-06     3.340 3.522043e-11     2.719      1.957 1.042694e-10  14.0166        295
 3.50   0.0168    504.1783    762.9756 -15.54 6.729596e-09     2.681 3.522043e-11     2.394      3.179 1.041636e-10  20.4300        296
 3.81   0.0100    515.1735   1460.9117  24.42  1.13077e-08     5.196 3.522043e-11     2.281      4.626 1.040577e-10  19.8666        297
 3.85   0.0838    492.8759    574.4168 -84.28 1.349563e-09     1.413 3.522043e-11     0.975      1.956 1.041636e-10  22.1745        298
 3.94   0.0317    501.6799   1310.3301 -73.98 3.549646e-09     2.684 3.522043e-11     1.754      2.434 1.037393e-10  21.1245        299
 4.75   0.1381    486.4253    829.3246 -67.80 8.191444e-10     0.917 3.522043e-11     0.821      1.623 1.041636e-10  22.7166        300
 3.50   0.0166    501.9280    863.8121   9.26 6.795808e-09     1.694 3.522043e-11     1.528      1.947 1.041636e-10  20.4194        301
 3.50   0.0382    498.0227    366.2501   7.30 2.966758e-09     1.395 3.522043e-11     1.362      1.760 1.042694e-10  21.3193        302
 3.60   0.1024    495.2480   1421.3447 -70.21  1.10537e-09     1.272 3.522043e-11     1.032      1.785 1.042694e-10  22.3912        303
 7.49   0.0954    505.2706    326.5618  74.58 1.185636e-09     1.611 3.522043e-11     1.116      4.242 1.041636e-10  22.3151        304
 3.50   0.1066    502.5653    443.0219  90.00 1.059675e-09     1.238 3.522043e-11     0.744      1.649 1.040577e-10  22.4371        305
 3.63   0.0106    513.2292   1310.3153 -74.88  1.06535e-08     1.718 3.522043e-11     1.562      2.023 1.040577e-10  19.9313        306
 4.27   0.0169    513.7682   1179.2891 -47.08  6.69233e-09     1.767 3.522043e-11     1.699      2.137 1.040577e-10  20.4361        307
 4.43   0.0273    509.9059    164.3945  -2.17 4.136449e-09     2.503 3.522043e-11     1.558      2.962 1.038455e-10  20.9584        308
 3.50   0.0638    509.8487    453.6937  64.82 1.761199e-09     1.384 3.522043e-11     1.263      2.056 1.035265e-10  21.8855        309
 4.98   0.0809    504.7246   1569.2458  66.64 1.393241e-09     1.105 3.522043e-11     0.938      1.478 1.038455e-10  22.1399        310
 3.50   0.0000    631.1628    483.2159 -36.45 2.844838e-06     3.448 3.522043e-11     3.228      2.371 1.041636e-10  13.8649        311
 3.94   0.0260    519.2290    641.9771 -69.57 4.351318e-09     1.895 3.522043e-11     1.600      2.267 1.041636e-10  20.9034        312
 4.24   0.1064    509.2375    308.8585  44.61 1.064477e-09     1.358 3.522043e-11     1.050      2.246 1.042694e-10  22.4322        313
 4.38   0.0491    518.1902   1519.1895  88.24 2.301462e-09     1.436 3.522043e-11     1.219      1.941 1.040577e-10  21.5950        314
 5.46   0.0598    520.8713    853.8303 -76.77 1.893097e-09     1.528 3.522043e-11     1.268      2.502 1.042694e-10  21.8071        315
 7.27   0.1334    517.3798    167.0744  74.70 8.480699e-10     1.040 3.522043e-11     0.751      2.452 1.041636e-10  22.6789        316
 3.50   0.0076    540.2438    999.9548  60.49   1.4924e-08     1.917 3.522043e-11     1.871      1.997 1.041636e-10  19.5653        317
 6.15   0.1291    520.3839    581.6907 -25.46  8.74122e-10     1.225 3.522043e-11     0.881      2.220 1.039517e-10  22.6461        318
 3.50   0.0367    536.1469    404.4056  35.43 3.083908e-09     1.978 3.522043e-11     1.461      2.320 1.042694e-10  21.2772        319
 3.50   0.0571    544.3873    934.1319 -62.23  1.98276e-09     2.612 3.522043e-11     1.243      3.002 1.041636e-10  21.7568        320
 5.82   0.1332    529.7400    165.2253  48.00 8.502828e-10     1.163 3.522043e-11     0.833      2.153 1.042694e-10  22.6761        321
 3.50   0.0019    572.6680   1242.9572 -63.59 6.081476e-08     2.536 3.522043e-11     2.119      1.941 1.040577e-10  18.0400        322
 5.24   0.0978    531.5660   1566.6021 -11.82 1.158091e-09     1.197 3.522043e-11     0.955      1.901 1.042694e-10  22.3406        323
 3.50   0.0057    558.9426   1041.8270 -77.37 1.981428e-08     1.967 3.522043e-11     1.893      2.028 1.042694e-10  19.2576        324
 3.50   0.0014    580.6995    144.9455  80.30 8.308952e-08     2.152 3.522043e-11     2.080      1.896 1.033133e-10  17.7011        325
 3.55   0.0061    596.5736    782.8595 -61.89 1.861225e-08     4.225 3.522043e-11     3.981      4.862 1.042694e-10  19.3255        326
 5.08   0.0946    546.3027    851.6894  21.82 1.190695e-09     1.234 3.522043e-11     1.145      2.244 1.037393e-10  22.3105        327
 3.50   0.0142    571.4536   1448.4108  20.07 7.981723e-09     3.387 3.522043e-11     2.229      3.494 1.042694e-10  20.2448        328
 3.50   0.0109    571.3052     45.8368  42.83 1.034474e-08     2.697 3.522043e-11     1.921      2.755 1.038455e-10  19.9632        329
 3.50   0.0014    582.2010    319.2196  14.01 8.337255e-08     2.118 3.522043e-11     2.073      1.931 1.042694e-10  17.6974        330
 3.50   0.0482    555.8062    778.7780  47.79 2.345532e-09     1.240 3.522043e-11     1.163      1.694 1.041636e-10  21.5744        331
 6.77   0.1175    558.8987   1068.9473 -78.71 9.558401e-10     1.723 3.522043e-11     1.321      3.877 1.034199e-10  22.5490        332
 4.68   0.0315    564.9771    139.5286 -82.19 3.587295e-09     1.536 3.522043e-11     1.457      2.137 1.041636e-10  21.1131        333
 5.35   0.0860    559.4667   1406.4070  14.20 1.315451e-09     2.158 3.522043e-11     1.237      3.250 1.041636e-10  22.2023        334
 6.09   0.1303    554.6552    805.5536 -16.97 8.691293e-10     0.936 3.522043e-11     0.805      1.761 1.042694e-10  22.6523        335
 6.26   0.1187    553.8890    965.7050  13.57 9.489874e-10     0.998 3.522043e-11     0.751      1.994 1.037393e-10  22.5568        336
 4.47   0.0940    564.4595   1170.0269 -64.00 1.204995e-09     1.456 3.522043e-11     1.092      2.296 1.042694e-10  22.2975        337
 4.84   0.0852    562.8135    841.0358 -78.33 1.326395e-09     1.327 3.522043e-11     1.203      2.063 1.040577e-10  22.1933        338
 3.50   0.0013    639.7947    536.8546  78.70 8.890891e-08     2.175 3.522043e-11     2.168      1.923 1.042694e-10  17.6276        339
 4.05   0.0290    575.9617   1002.0351  52.08 3.908345e-09     2.027 3.522043e-11     1.985      2.688 1.042694e-10  21.0200        340
 6.72   0.0961    567.3278   1116.0294 -25.30 1.178475e-09     2.184 3.522043e-11     1.156      4.383 1.042694e-10  22.3217        341
 5.21   0.0716    562.9716    905.3963  -3.87 1.578921e-09     1.357 3.522043e-11     1.164      2.045 1.040577e-10  22.0041        342
 6.81   0.1309    561.1903   1504.4060 -43.89  8.63244e-10     1.051 3.522043e-11     0.927      2.483 1.040577e-10  22.6597        343
 3.50   0.0826    567.1187    632.2460  49.67 1.364961e-09     1.208 3.522043e-11     1.067      1.620 1.038455e-10  22.1622        344
 3.50   0.1065    570.5198    114.2925 -75.82 1.059569e-09     1.206 3.522043e-11     1.071      1.891 1.039517e-10  22.4372        345
 5.58   0.0804    577.9797    739.5333  40.09 1.408167e-09     1.957 3.522043e-11     1.309      2.954 1.042694e-10  22.1284        346
 4.85   0.0813    578.5025    845.0068  19.36 1.386661e-09     2.352 3.522043e-11     1.038      3.056 1.038455e-10  22.1451        347
 3.50   0.0195    584.4976     76.0104 -64.68 5.771216e-09     1.611 3.522043e-11     1.532      1.875 1.038455e-10  20.5968        348
 5.53   0.0957    579.2938    679.5471 -76.68 1.173079e-09     1.537 3.522043e-11     1.158      2.478 1.034199e-10  22.3267        349
 4.77   0.1310    574.7924   1213.0752   0.32 8.644466e-10     1.250 3.522043e-11     0.984      2.086 1.042694e-10  22.6582        350
 4.61   0.1266    574.7418    549.3538 -14.36 8.941125e-10     0.982 3.522043e-11     0.852      1.695 1.042694e-10  22.6215        351
 5.23   0.1037    584.0065   1100.7454  80.43 1.091606e-09     1.491 3.522043e-11     1.160      2.618 1.042694e-10  22.4048        352
 5.45   0.1525    578.6797    696.1802  71.59 7.416193e-10     0.890 3.522043e-11     0.686      1.434 1.041636e-10  22.8245        353
 5.24   0.1252    582.1306   1487.0277  68.59 9.044271e-10     1.137 3.522043e-11     0.721      1.711 1.042694e-10  22.6091        354
 5.57   0.0634    585.4209   1173.0505 -59.97 1.786595e-09     1.460 3.522043e-11     1.221      2.484 1.042694e-10  21.8699        355
 5.85   0.0742    588.2813   1139.2415  51.52 1.522367e-09     1.370 3.522043e-11     1.011      2.121 1.039517e-10  22.0437        356
 3.50   0.1494    583.8737   1185.4667  37.40 7.541633e-10     1.257 3.522043e-11     0.726      1.556 1.037393e-10  22.8063        357
 4.45   0.0909    593.6328    882.3285  81.73 1.244319e-09     1.635 3.522043e-11     1.089      2.303 1.041636e-10  22.2627        358
 3.50   0.0115    605.4645    586.3972 -79.08 9.816362e-09     1.817 3.522043e-11     1.710      1.965 1.043751e-10  20.0201        359
 5.26   0.1491    584.8946    211.3586  21.28 7.562495e-10     0.912 3.522043e-11     0.684      1.652 1.038455e-10  22.8033        360
 3.50   0.0002    648.2943   1464.4005 -58.19 5.422408e-07     2.491 3.522043e-11     2.372      1.921 1.038455e-10  15.6645        361
 4.28   0.0146    986.6833    454.1005  56.21 7.687568e-09     2.522 3.522043e-11     2.189      3.155 1.035265e-10  20.2855        362
 3.57   0.1225   1599.1147    711.1797  -3.66 8.406156e-10     1.388 3.522043e-11     0.703      1.821 9.485571e-11  22.6885        363
 3.93   0.0218   1597.2494    654.7677   3.34 5.190932e-09     2.287 3.522043e-11     1.841      2.764 1.041636e-10  20.7119        364
 4.39   0.0695   1598.8375     18.9202   1.29 1.531453e-09     2.046 3.522043e-11     1.192      2.733 9.805656e-11  22.0372        365
 4.64   0.0247   1594.6670    374.2690  52.82 4.568155e-09     2.014 3.522043e-11     1.694      2.601 1.037393e-10  20.8506        366
 4.65   0.0286   1514.6664    483.6416 -36.61 3.958226e-09     1.559 3.522043e-11     1.496      2.116 1.041636e-10  21.0062        367
 3.50   0.0004   1507.1890    269.3077  18.78 2.648901e-07     2.441 3.522043e-11     2.356      1.937 1.040577e-10  16.4423        368
 7.45   0.1411    919.9105   1344.6909 -43.48 7.982818e-10     1.415 3.522043e-11     0.955      3.701 1.037393e-10  22.7446        369
 3.89   0.0606    916.7714    253.2354  62.89 1.867968e-09     2.395 3.522043e-11     1.256      2.725 1.041636e-10  21.8216        370
 5.27   0.1159    917.0761   1112.7231 -63.19  9.71673e-10     1.242 3.522043e-11     0.857      2.008 1.037393e-10  22.5312        371
 5.92   0.0832    914.0836   1119.4679  88.79 1.354002e-09     1.757 3.522043e-11     1.283      3.004 1.037393e-10  22.1710        372
 3.50   0.0151    912.8290    838.6236  72.10 7.487563e-09     1.783 3.522043e-11     1.613      2.003 1.042694e-10  20.3141        373
 5.09   0.1376    915.8810    125.7056  12.93 8.204009e-10     1.045 3.522043e-11     0.751      1.844 1.039517e-10  22.7149        374
 4.53   0.0253    912.2974   1001.2845  31.32 4.440854e-09     1.630 3.522043e-11     1.542      2.050  1.03633e-10  20.8813        375
 3.50   0.0001    882.0494    183.7862 -39.01 1.954567e-06     4.499 3.522043e-11     4.178      3.243 1.042694e-10  14.2724        376
 4.15   0.0081    879.1312    224.3541  89.29 1.387239e-08     8.386 3.522043e-11     3.510      7.527 1.040577e-10  19.6446        377
 5.40   0.1089    909.9371   1575.8016  13.08 1.039888e-09     1.229 3.522043e-11     1.018      2.330 1.042694e-10  22.4575        378
 4.17   0.0731    908.1808    659.6346  59.46 1.544342e-09     1.380 3.522043e-11     1.282      2.124 1.039517e-10  22.0281        379
 4.91   0.0797    908.7722      5.3424   2.38 1.421264e-09     1.565 3.522043e-11     1.309      2.444 1.042694e-10  22.1183        380
 6.36   0.1137    903.0145      1.9526  88.13 9.191234e-10     1.166 3.522043e-11     0.762      2.488 9.624054e-11  22.5916        381
 6.29   0.1675    909.2427    260.1647   6.91  6.76065e-10     1.027 3.522043e-11     0.636      2.286 1.042694e-10  22.9250        382
 5.18   0.0323    904.1578   1315.2388  68.39 3.506553e-09     2.060 3.522043e-11     1.655      2.874 1.041636e-10  21.1378        383
 3.50   0.0021    900.4849    302.8172 -71.12 5.374451e-08     2.115 3.522043e-11     2.003      1.931 1.040577e-10  18.1742        384
 5.25   0.0987    904.1991    735.0474  57.80 1.147398e-09     1.205 3.522043e-11     1.032      2.166 1.042694e-10  22.3507        385
 3.50   0.1136    904.1085    122.0230 -69.59 9.934918e-10     1.112 3.522043e-11     0.732      1.579 1.039517e-10  22.5071        386
 3.80   0.0133    896.0320    538.6352  17.90 8.488048e-09     2.576 3.522043e-11     2.228      2.960 1.042694e-10  20.1780        387
 5.04   0.1198    899.9943    379.5883 -43.92 9.444098e-10     1.108 3.522043e-11     0.881      1.797 1.041636e-10  22.5621        388
 5.40   0.0532    897.1974    987.4568 -77.60 2.127653e-09     1.621 3.522043e-11     1.279      2.654 1.042694e-10  21.6802        389
 5.51   0.1880    900.1533    451.1003 -42.59 5.981396e-10     0.839 3.522043e-11     0.648      1.546 1.035265e-10  23.0580        390
 6.36   0.1308    898.4731    729.6700  77.51 8.615016e-10     0.944 3.522043e-11     0.817      2.108 1.037393e-10  22.6619        391
 3.50   0.0001    880.2457   1592.5260 -71.28 9.187317e-07     2.585 3.522043e-11     2.352      1.898 1.039517e-10  15.0920        392
 4.62   0.0325    893.8863   1426.1523 -24.81 3.464647e-09     1.635 3.522043e-11     1.460      2.122  1.03633e-10  21.1509        393
 7.80   0.1201    894.7423   1571.7804  23.48 9.438669e-10     1.094 3.522043e-11     0.883      4.291 1.043751e-10  22.5627        394
 7.56   0.1658    892.9960   1274.4559 -63.91  6.82819e-10     1.159 3.522043e-11     0.550      2.308 1.042694e-10  22.9142        395
 4.41   0.0258    888.7795    325.8340  15.35 4.387771e-09     2.438 3.522043e-11     1.916      3.082 1.040577e-10  20.8944        396
 4.67   0.0226    885.4247   1304.8813  87.32 5.007952e-09     2.487 3.522043e-11     1.792      3.026 1.040577e-10  20.7508        397
 5.05   0.0567    888.4849    681.1794 -58.13 1.993107e-09     1.642 3.522043e-11     1.229      2.128 1.040577e-10  21.7512        398
 6.77   0.1475    888.8170    990.9627 -87.17 7.669331e-10     0.932 3.522043e-11     0.740      2.192 1.041636e-10  22.7881        399
 7.65   0.1444    888.3413     14.9565 -48.41 7.839859e-10     1.492 3.522043e-11     0.711      3.138 1.042694e-10  22.7642        400
 3.50   0.0153    885.6982   1500.2817 -31.48 7.359796e-09     1.722 3.522043e-11     1.560      1.904 1.037393e-10  20.3328        401
 4.59   0.0334    885.0474    339.1318   3.59 3.388847e-09     2.274 3.522043e-11     1.675      2.888 1.041636e-10  21.1749        402
 3.50   0.0000    859.0767   1224.6641 -43.47  2.28122e-06     3.969 3.522043e-11     2.920      1.969 1.037393e-10  14.1046        403
 4.74   0.0219    877.7042    961.0640  45.73 5.139293e-09     1.676 3.522043e-11     1.588      2.175  1.03633e-10  20.7227        404
 6.94   0.1149    883.4825    445.6187  19.54 9.841247e-10     1.256 3.522043e-11     0.960      2.777 1.041636e-10  22.5174        405
 5.94   0.0482    876.3974    541.6988  78.68 2.341098e-09     1.477 3.522043e-11     1.215      2.543 1.038455e-10  21.5765        406
 3.85   0.0062    869.4688   1103.5245 -45.05 1.819737e-08     2.722 3.522043e-11     2.424      2.801 1.037393e-10  19.3500        407
 4.44   0.0179    867.6155    939.5165  44.78 6.334267e-09     2.916 3.522043e-11     1.913      3.204 1.041636e-10  20.4958        408
 4.65   0.0440    869.4323    643.8986  68.31 2.560179e-09     1.448 3.522043e-11     1.253      1.934 1.037393e-10  21.4793        409
 6.58   0.1691    869.5376   1436.1724 -56.25 6.697374e-10     0.865 3.522043e-11     0.663      1.735 1.042694e-10  22.9352        410
 5.02   0.0804    866.9420    454.7746 -15.42 1.406807e-09     1.391 3.522043e-11     1.222      2.366 1.041636e-10  22.1294        411
 7.39   0.0917    866.1638   1177.1212 -51.50 1.230742e-09     1.512 3.522043e-11     1.206      3.878 1.039517e-10  22.2746        412
 7.60   0.1828    866.6635    816.9901 -89.67 6.200217e-10     0.945 3.522043e-11     0.554      2.848 1.043751e-10  23.0190        413
 4.46   0.0824    865.0201   1479.6973  45.42  1.36946e-09     1.293 3.522043e-11     1.010      1.737 1.039517e-10  22.1586        414
 5.49   0.0905    864.5194    355.3504 -83.77 1.245163e-09     1.352 3.522043e-11     1.049      2.465 1.037393e-10  22.2619        415
 6.78   0.1133    863.8396    773.4332   8.03 9.996399e-10     1.685 3.522043e-11     0.965      3.680 1.042694e-10  22.5004        416
 3.70   0.0737    862.2543    268.4098  20.12 1.536969e-09     1.630 3.522043e-11     1.143      2.112 1.042694e-10  22.0333        417
 3.69   0.0159    859.5770   1157.3811  59.97 7.102099e-09     1.703 3.522043e-11     1.657      1.966 1.040577e-10  20.3715        418
 5.78   0.0589    860.7061   1554.4631  21.65 1.910161e-09     1.378 3.522043e-11     1.141      2.199  1.03633e-10  21.7973        419
 5.05   0.0207    858.4609   1339.5894 -51.82 5.485808e-09     2.112 3.522043e-11     1.787      2.693 1.043751e-10  20.6519        420
 6.65   0.1019    855.6404   1347.4017  10.27 1.111049e-09     1.552 3.522043e-11     1.110      3.475 1.042694e-10  22.3857        421
 5.30   0.1528    862.0999    636.9185  43.53 7.372535e-10     0.863 3.522043e-11     0.655      1.837 1.037393e-10  22.8310        422
 6.23   0.1041    858.4628    574.4050 -24.41 1.088495e-09     1.644 3.522043e-11     1.045      3.126 1.043751e-10  22.4079        423
 5.06   0.0519    855.6882    545.2714 -71.60  2.17249e-09     1.996 3.522043e-11     1.423      2.875 1.037393e-10  21.6576        424
 7.52   0.1742    856.7186    686.3169  63.18 6.479919e-10     1.090 3.522043e-11     0.555      2.234 1.039517e-10  22.9711        425
 7.50   0.1431    854.7642   1430.5533 -49.94 7.910719e-10     1.452 3.522043e-11     0.777      2.964 1.042694e-10  22.7545        426
 6.41   0.1425    851.0184   1303.6976 -17.22  7.92192e-10     1.054 3.522043e-11     0.734      2.104 1.039517e-10  22.7529        427
 6.46   0.1742    848.3573   1460.1359 -70.84 6.487425e-10     0.949 3.522043e-11     0.675      2.102 1.040577e-10  22.9698        428
 3.62   0.0843    846.3435    361.2909 -10.34 1.331801e-09     2.552 3.522043e-11     1.888      3.697 1.034199e-10  22.1889        429
 4.04   0.0135    843.3392   1106.2122  36.96 8.374855e-09     2.324 3.522043e-11     1.926      2.612 1.043751e-10  20.1926        430
 7.53   0.1476    846.9288   1564.5090  -1.48 7.647503e-10     1.379 3.522043e-11     0.779      2.913 1.039517e-10  22.7912        431
 4.49   0.0220    844.7885   1064.0032  -4.42 5.148533e-09     1.711 3.522043e-11     1.654      2.169 1.041636e-10  20.7208        432
 7.96   0.1172    839.8523    898.6982 -77.39 9.580376e-10     1.638 3.522043e-11     1.095      4.720 1.034199e-10  22.5465        433
 6.18   0.1546    840.7091    547.3588   8.76 7.287958e-10     1.374 3.522043e-11     0.664      2.115 1.037393e-10  22.8435        434
 3.50   0.0094    836.6599    298.7372  13.60 1.204071e-08     1.826 3.522043e-11     1.779      1.968 1.041636e-10  19.7984        435
 4.52   0.0586    837.9388    992.3425  81.74 1.930753e-09     1.612 3.522043e-11     1.466      2.443 1.041636e-10  21.7857        436
 4.45   0.0489    836.7543   1520.5193   3.88 2.306609e-09     1.321 3.522043e-11     1.050      1.683 1.038455e-10  21.5926        437
 4.43   0.0323    835.7689    819.1193 -68.40   3.5013e-09     1.580 3.522043e-11     1.413      2.119 1.040577e-10  21.1394        438
 7.02   0.1113    832.0647    404.7849 -68.95 1.017527e-09     1.255 3.522043e-11     0.954      3.247 1.042694e-10  22.4811        439
 4.64   0.0168    878.0565   1176.9858 -39.97   6.7613e-09     2.446 3.522043e-11     2.312      3.270 1.043751e-10  20.4249        440
 3.50   0.0020    822.9471    654.4194 -58.97  5.53208e-08     2.114 3.522043e-11     2.076      1.953 1.043751e-10  18.1428        441
 5.56   0.0728    879.6826    671.6104  86.06 1.553449e-09     1.685 3.522043e-11     1.517      3.048 1.041636e-10  22.0218        442
 3.50   0.0887    822.1125    330.6006 -78.88 1.275988e-09     1.467 3.522043e-11     1.047      1.880 1.042694e-10  22.2354        443
 3.63   0.0582    819.5433   1398.4010  -3.20 1.944422e-09     1.300 3.522043e-11     1.143      1.685 1.042694e-10  21.7780        444
 6.01   0.1049    819.5618    778.9200 -78.87 1.076341e-09     1.275 3.522043e-11     1.045      2.667 1.039517e-10  22.4201        445
 4.99   0.0543    818.7535    702.7455  16.44 2.084507e-09     1.367 3.522043e-11     1.226      1.979 1.042694e-10  21.7025        446
 5.33   0.0521    815.7414    878.5753  72.18 2.173249e-09     1.963 3.522043e-11     1.728      3.342 1.041636e-10  21.6572        447
 5.58   0.2011    817.9903    599.5134 -89.29 5.625713e-10     0.791 3.522043e-11     0.500      1.280 1.041636e-10  23.1246        448
 3.50   0.0740    817.3984    433.7181  12.23 1.530407e-09     1.249 3.522043e-11     1.159      1.918 1.042694e-10  22.0380        449
 8.35   0.1580    815.3430   1581.1814  71.71 7.175435e-10     1.154 3.522043e-11     0.684      3.691 1.043751e-10  22.8604        450
 7.10   0.1613    826.8774    598.5020 -37.95 6.992667e-10     0.901 3.522043e-11     0.664      2.400 1.038455e-10  22.8884        451
 4.54   0.0960    809.6964    844.0490 -51.10 1.169493e-09     1.230 3.522043e-11     1.027      1.955 1.034199e-10  22.3300        452
 3.50   0.0022    803.0306   1378.7437 -76.13 5.147716e-08     2.093 3.522043e-11     2.005      1.917 1.042694e-10  18.2210        453
 3.50   0.0009    798.4828    695.7235 -87.94 1.208381e-07     2.831 3.522043e-11     2.193      2.408 1.040577e-10  17.2945        454
 3.50   0.0049    800.7272     41.0408 -33.45 2.295833e-08     2.286 3.522043e-11     1.876      2.059 1.041636e-10  19.0976        455
 6.70   0.1101    801.8473   1596.7140 -63.35 1.022411e-09     1.188 3.522043e-11     1.032      2.800  1.03633e-10  22.4759        456
 6.87   0.1475    798.8311    179.1500  44.69 7.667857e-10     0.816 3.522043e-11     0.672      1.682 1.041636e-10  22.7883        457
 5.17   0.0658    794.4036    295.5703 -67.73 1.717457e-09     1.503 3.522043e-11     1.261      2.455 1.040577e-10  21.9128        458
 4.08   0.1143    789.5189    408.5214  45.09 9.883862e-10     1.143 3.522043e-11     0.847      1.782 1.040577e-10  22.5127        459
 3.50   0.0990    786.2908   1348.9741  18.29 1.138622e-09     1.200 3.522043e-11     0.870      1.585 1.038455e-10  22.3591        460
 3.50   0.0104    774.1000   1427.4069 -87.46 1.081681e-08     4.022 3.522043e-11     2.571      3.930 1.038455e-10  19.9148        461
 7.56   0.1786    780.8370   1266.8087  47.59 6.339423e-10     0.747 3.522043e-11     0.571      2.384 1.042694e-10  22.9949        462
 7.12   0.2255    779.2060    913.6076 -71.43 5.012392e-10     0.751 3.522043e-11     0.449      1.975 1.040577e-10  23.2499        463
 7.47   0.2000    777.6116    477.2260 -18.49 5.651418e-10     0.754 3.522043e-11     0.448      1.911 1.040577e-10  23.1196        464
 3.84   0.0430    768.1029    140.0869 -28.03 2.617759e-09     1.742 3.522043e-11     1.516      2.346 1.037393e-10  21.4552        465
 3.62   0.0100    766.6276    391.9401  57.95 1.131985e-08     1.786 3.522043e-11     1.713      1.975 1.042694e-10  19.8654        466
 5.70   0.0813    767.4367    930.4315  46.12 1.392727e-09     1.459 3.522043e-11     1.160      2.514 1.042694e-10  22.1403        467
 3.81   0.0775    764.3589    567.5709 -56.13 1.459069e-09     1.131 3.522043e-11     1.052      1.727 1.041636e-10  22.0898        468
 7.98   0.1735    763.9883    369.8161 -52.71 6.521347e-10     0.941 3.522043e-11     0.465      2.832 1.041636e-10  22.9642        469
 6.03   0.1808    763.3468   1571.5231  -0.54 6.238683e-10     0.909 3.522043e-11     0.476      1.655 1.038455e-10  23.0123        470
 3.70   0.0779    757.5961   1341.5953 -42.28  1.44852e-09     2.409 3.522043e-11     1.160      2.832 1.038455e-10  22.0977        471
 4.41   0.0568    754.8138    195.9934  74.62 1.990923e-09     2.355 3.522043e-11     1.957      3.554 1.041636e-10  21.7524        472
 4.59   0.1269    758.3463    105.9512 -28.69 8.925053e-10     1.029 3.522043e-11     0.894      2.015 1.042694e-10  22.6235        473
 5.12   0.1032    753.0362    433.3681 -76.03 1.097453e-09     1.213 3.522043e-11     1.037      1.980 1.042694e-10  22.3990        474
 7.43   0.1882    753.4066   1261.2096  18.92 6.004868e-10     0.763 3.522043e-11     0.449      1.852 1.040577e-10  23.0537        475
 6.10   0.0821    752.4905   1080.4636  24.61 1.371663e-09     1.365 3.522043e-11     0.961      2.463  1.03633e-10  22.1569        476
 8.69   0.1957    753.3936    351.1920  18.29 5.775741e-10     0.749 3.522043e-11     0.451      2.451 1.040577e-10  23.0960        477
 6.67   0.1088    748.2778    445.7747  65.92 1.039695e-09     1.511 3.522043e-11     1.009      3.311 1.041636e-10  22.4577        478
 3.50   0.0000    724.1689    404.8547 -43.84 2.858766e-06     3.157 3.522043e-11     2.853      2.019 1.042694e-10  13.8596        479
 7.08   0.1804    747.0146    366.2934  86.20  6.25751e-10     0.729 3.522043e-11     0.674      1.841 1.039517e-10  23.0090        480
 7.82   0.2068    746.3832   1013.1876  18.40 5.469724e-10     0.759 3.522043e-11     0.446      2.583 1.041636e-10  23.1551        481
 3.50   0.0090    742.7979    556.3513 -29.94 1.260301e-08     1.864 3.522043e-11     1.727      1.984 1.042694e-10  19.7488        482
 6.27   0.1808    747.4990   1110.0240  -0.49 6.244619e-10     0.798 3.522043e-11     0.500      1.504 1.039517e-10  23.0112        483
 3.50   0.0207    738.0967   1158.1385  74.03 5.419002e-09     1.620 3.522043e-11     1.522      1.935 1.034199e-10  20.6652        484
 7.34   0.1853    741.3848    919.8155  65.16 6.106022e-10     0.731 3.522043e-11     0.654      1.818 1.041636e-10  23.0356        485
 3.50   0.1167    739.3906   1272.4288  30.58 9.693017e-10     1.013 3.522043e-11     0.886      1.673 1.041636e-10  22.5339        486
 4.17   0.0213    736.1681    649.8256   8.65 5.313538e-09     1.708 3.522043e-11     1.676      2.100 1.042694e-10  20.6865        487
 6.80   0.1267    729.8664    753.5717 -74.24 8.930366e-10     1.499 3.522043e-11     0.921      3.272 1.041636e-10  22.6228        488
 5.33   0.1152    728.8597   1543.6969 -71.16 9.748711e-10     1.177 3.522043e-11     0.970      2.075 1.034199e-10  22.5276        489
 3.50   0.0118    727.3896   1178.2432 -24.69 9.568269e-09     1.744 3.522043e-11     1.634      1.975 1.042694e-10  20.0479        490
 3.50   0.0319    721.4096   1395.1033  -2.23   3.5394e-09     1.655 3.522043e-11     1.385      2.035 1.038455e-10  21.1277        491
 6.55   0.1883    722.3173    262.4509 -80.90 5.975356e-10     1.006 3.522043e-11     0.477      1.614  1.03633e-10  23.0591        492
 3.50   0.0002    726.7004    848.4055 -59.16 5.523977e-07     2.907 3.522043e-11     2.485      1.963 1.038455e-10  15.6444        493
 3.50   0.0097    715.7994    808.3709  40.09 1.164426e-08     1.787 3.522043e-11     1.719      1.949 1.040577e-10  19.8347        494
 3.50   0.0097    708.8406   1163.8546  23.13 1.162063e-08     1.859 3.522043e-11     1.733      1.988 1.042694e-10  19.8369        495
 3.51   0.0108    704.0642   1339.0793  88.62 1.043718e-08     2.485 3.522043e-11     2.275      2.808  1.03633e-10  19.9535        496
 5.91   0.0970    709.8951    194.5598 -19.95 1.161771e-09     1.340 3.522043e-11     1.126      2.315 1.037393e-10  22.3372        497
 4.43   0.0732    707.9190    538.7215  52.01  1.54421e-09     1.219 3.522043e-11     1.052      1.851 1.040577e-10  22.0282        498
 3.50   0.0056    702.7952    952.5156 -17.51 2.019118e-08     1.935 3.522043e-11     1.894      1.997 1.042694e-10  19.2371        499
 5.37   0.1366    701.4642    651.4896  84.81 8.249051e-10     0.940 3.522043e-11     0.909      1.857 1.037393e-10  22.7090        500
 3.50   0.0317    699.0352    582.5801   8.20   3.5678e-09     2.629 3.522043e-11     1.471      2.862 1.040577e-10  21.1190        501
 5.24   0.1040    696.5292    277.4420 -44.75 1.087302e-09     1.111 3.522043e-11     0.857      1.868 1.041636e-10  22.4091        502
 4.02   0.0230    691.6581   1213.9086   9.65  4.88494e-09     2.088 3.522043e-11     1.615      2.565 1.035265e-10  20.7779        503
 3.63   0.0250    686.6818   1213.8470 -15.38     4.51e-09     1.628 3.522043e-11     1.494      2.058 1.037393e-10  20.8646        504
 3.50   0.0440    692.0601    316.1536 -68.92 2.571825e-09     1.747 3.522043e-11     1.396      2.143 1.041636e-10  21.4744        505
 4.64   0.0203    683.0586    472.7379  20.97 5.564247e-09     4.326 3.522043e-11     4.032      6.070 1.041636e-10  20.6365        506
 3.54   0.0068    685.4963    644.2975 -82.77 1.657727e-08     2.032 3.522043e-11     1.896      2.086 1.037393e-10  19.4512        507
 7.24   0.1615    688.2874   1045.8760  89.05 6.989647e-10     1.387 3.522043e-11     0.590      2.219 1.039517e-10  22.8889        508
 3.50   0.0346    687.5594    131.0531  51.73 3.275123e-09     1.330 3.522043e-11     1.281      1.694 1.042694e-10  21.2119        509
 3.87   0.0110    681.0902    543.6190 -70.02 1.027408e-08     3.054 3.522043e-11     2.328      3.290 1.040577e-10  19.9706        510
 6.30   0.0831    685.2405    401.3055 -57.36 1.357238e-09     1.418 3.522043e-11     1.328      3.433 1.038455e-10  22.1684        511
 6.61   0.1798    686.0288   1583.6707  22.37 6.296453e-10     1.159 3.522043e-11     0.567      2.050 1.042694e-10  23.0023        512
 5.76   0.1191    683.9623   1565.4167 -61.53 9.500264e-10     1.206 3.522043e-11     0.962      2.308 1.041636e-10  22.5557        513
 7.53   0.1672    683.6931    389.4164  81.17 6.757995e-10     0.995 3.522043e-11     0.474      2.548 1.040577e-10  22.9255        514
 7.29   0.1381    677.9843    202.0353  89.59 8.184534e-10     1.055 3.522043e-11     0.724      2.482 1.040577e-10  22.7175        515
 5.93   0.1099    675.9029   1164.3569  35.70 1.025315e-09     1.034 3.522043e-11     0.814      2.148 1.037393e-10  22.4729        516
 5.60   0.1760    673.8216    425.8071  40.39 6.427301e-10     0.761 3.522043e-11     0.564      1.694 1.041636e-10  22.9799        517
 4.52   0.0616    673.0728    231.5196   2.72 1.828826e-09     1.410 3.522043e-11     1.253      2.067 1.037393e-10  21.8446        518
 4.63   0.0427    668.6752   1221.4384  56.62 2.646573e-09     2.043 3.522043e-11     1.618      2.853 1.039517e-10  21.4433        519
 5.83   0.1143    670.0204    528.4467  40.14 9.903923e-10     1.217 3.522043e-11     1.023      2.223 1.042694e-10  22.5105        520
 4.39   0.0672    666.8871   1180.2678  22.92 1.676668e-09     1.243 3.522043e-11     1.061      1.668 1.037393e-10  21.9389        521
 3.50   0.1043    666.5630   1069.7030 -30.38 1.078792e-09     1.157 3.522043e-11     0.958      1.748  1.03633e-10  22.4177        522
 5.74   0.0545   1593.4792   1384.6749 -23.11 2.065772e-09     1.953 3.522043e-11     1.275      2.936 1.037393e-10  21.7123        523
 3.83   0.0210    654.6423    870.9810 -81.70 5.392992e-09     1.594 3.522043e-11     1.469      1.908 1.041636e-10  20.6704        524
 5.86   0.1253   1496.3798    930.4449 -47.34 9.034407e-10     1.080 3.522043e-11     0.947      2.192 1.042694e-10  22.6103        525
 6.65   0.1202    646.3003   1154.0640  44.23 9.334115e-10     1.524 3.522043e-11     0.880      3.029 1.033133e-10  22.5748        526
 3.92   0.0369    645.8075    653.0952 -66.29 3.054346e-09     1.530 3.522043e-11     1.501      2.138 1.038455e-10  21.2877        527
 3.89   0.0124   1561.2202    861.4478  38.21   9.1374e-09     1.716 3.522043e-11     1.669      1.983 1.042694e-10  20.0979        528
 3.50   0.0192    630.7194    806.1602 -12.76 5.880308e-09     1.569 3.522043e-11     1.490      1.835 1.039517e-10  20.5765        529
 4.32   0.1137    631.1985    855.6700 -23.02 9.961307e-10     1.353 3.522043e-11     0.864      2.083 1.042694e-10  22.5042        530
 4.43   0.1327    629.1251    942.0102 -13.99 8.527225e-10     1.051 3.522043e-11     0.737      1.628 1.041636e-10  22.6730        531
 6.97   0.1506    626.9370   1287.1411 -47.49 7.509162e-10     1.473 3.522043e-11     0.567      3.508 1.041636e-10  22.8110        532
 3.54   0.0122    623.2819   1581.5272 -88.35 9.216054e-09     1.683 3.522043e-11     1.657      1.953 1.038455e-10  20.0886        533
 3.50   0.0514    641.3907    276.8894  69.83 2.199809e-09     1.618 3.522043e-11     1.347      2.085 1.041636e-10  21.6440        534
 6.77   0.1291    624.6535    343.6232  19.06 8.773349e-10     1.198 3.522043e-11     0.971      2.665 1.042694e-10  22.6421        535
 4.80   0.0358    618.1126   1151.6818  -9.93  3.14606e-09     2.421 3.522043e-11     1.766      3.273 1.038455e-10  21.2556        536
 4.39   0.0999    619.3147     95.0748 -34.39 1.129619e-09     1.295 3.522043e-11     1.000      2.152 1.039517e-10  22.3677        537
 5.51   0.1023    616.0543   1235.1935  75.94  1.10739e-09     1.092 3.522043e-11     0.983      1.821 1.042694e-10  22.3892        538
 3.50   0.1272    616.9630    119.9236  16.39 8.878053e-10     1.273 3.522043e-11     0.705      1.794 1.039517e-10  22.6292        539
 5.93   0.0835    613.5647   1368.3667  59.00 1.356098e-09     1.453 3.522043e-11     1.258      2.677 1.042694e-10  22.1693        540
 4.95   0.1452    639.5766    392.8054 -87.01 7.795994e-10     1.014 3.522043e-11     0.718      1.881 1.042694e-10  22.7703        541
 7.61   0.2025    615.4172    290.1791  20.50  5.58742e-10     0.756 3.522043e-11     0.444      1.619 1.041636e-10  23.1320        542
 3.96   0.0883    611.3828    995.4976  40.30 1.278254e-09     1.398 3.522043e-11     1.171      2.146 1.039517e-10  22.2335        543
 5.32   0.0355   1482.4081    575.3647 -44.16 3.188137e-09     2.601 3.522043e-11     1.738      3.596 1.042694e-10  21.2412        544
 7.96   0.1116    608.3036   1336.1678 -77.94 1.009249e-09     1.787 3.522043e-11     1.063      6.284 1.037393e-10  22.4900        545
 3.58   0.0628   1591.5974    566.9786 -64.43 1.802201e-09     1.230 3.522043e-11     1.067      1.577 1.042694e-10  21.8605        546
 4.88   0.1240    607.3792   1011.0632  70.88 9.140061e-10     1.038 3.522043e-11     0.737      1.789 1.043751e-10  22.5976        547
 3.76   0.0055   1542.6626    654.7033  78.73 2.051666e-08     2.027 3.522043e-11     1.933      2.035 1.035265e-10  19.2197        548
 7.13   0.1076    650.6180   1160.3180   5.08 1.050886e-09     1.495 3.522043e-11     1.143      3.985 1.041636e-10  22.4461        549
 6.67   0.1063    602.2536    764.3480  57.12   1.0665e-09     1.201 3.522043e-11     0.845      2.508 1.043751e-10  22.4301        550
 5.90   0.1132    601.0497   1426.6421   5.83 1.000093e-09     1.136 3.522043e-11     0.859      2.124 1.042694e-10  22.4999        551
 4.28   0.1315    599.8290    668.2959 -28.00  8.57899e-10     1.177 3.522043e-11     0.755      1.768 1.038455e-10  22.6664        552
 6.65   0.1425    596.9557   1125.2163 -61.27 7.940067e-10     1.014 3.522043e-11     0.652      2.053 1.041636e-10  22.7504        553
 4.37   0.0504   1585.9879   1069.6113 -37.13 2.242543e-09     1.331 3.522043e-11     1.250      1.930 1.040577e-10  21.6231        554
 7.94   0.1539   1588.4956   1336.2053 -62.21 7.326022e-10     1.336 3.522043e-11     0.533      3.563 1.038455e-10  22.8378        555
 6.97   0.0977   1539.2666    505.6967  50.52 1.152576e-09     1.550 3.522043e-11     1.174      3.707 1.037393e-10  22.3458        556
 4.19   0.0290   1550.7797   1221.9542  41.60 3.901777e-09     1.510 3.522043e-11     1.435      1.918 1.042694e-10  21.0218        557
 7.42   0.1995   1586.5994   1082.8079  18.64 5.665726e-10     0.725 3.522043e-11     0.456      2.032 1.040577e-10  23.1169        558
 3.70   0.0079   1570.5411     92.7232  66.61 1.432775e-08     1.954 3.522043e-11     1.851      2.012  1.03633e-10  19.6096        559
 6.92   0.1891   1582.2804   1472.5699 -70.36 5.976635e-10     0.748 3.522043e-11     0.453      1.662 1.040577e-10  23.0589        560
 5.54   0.1204   1587.0414    641.6214  60.40 9.399024e-10     1.273 3.522043e-11     0.774      1.955 1.041636e-10  22.5673        561
 3.51   0.0103   1584.9700   1108.8655 -19.70 1.103177e-08     1.792 3.522043e-11     1.726      1.978 1.041636e-10  19.8934        562
 3.50   0.0017   1514.8766    392.6819 -10.88 6.803316e-08     2.129 3.522043e-11     2.079      1.909 1.040577e-10  17.9182        563
 7.10   0.1760   1536.6116   1061.7925 -84.58 6.427709e-10     1.007 3.522043e-11     0.396      1.861 1.041636e-10  22.9799        564
 3.50   0.0002   1558.0295    487.6793 -49.13 4.886379e-07     2.415 3.522043e-11     2.356      1.909 1.040577e-10  15.7775        565
 3.69   0.0690   1575.1355   1491.1395  72.02 1.638374e-09     1.279 3.522043e-11     1.165      1.785 1.040577e-10  21.9640        566
 3.50   0.0002   1563.7141    304.2234 -49.07 4.919931e-07     2.476 3.522043e-11     2.349      1.893 1.040577e-10  15.7701        567
 4.95   0.0515    609.5737    945.6198   8.75 2.198133e-09     1.344 3.522043e-11     1.194      1.788 1.041636e-10  21.6449        568
 6.37   0.0708   1562.5715    386.2957 -83.05  1.59299e-09     2.271 3.522043e-11     1.321      3.654 1.038455e-10  21.9945        569
 5.68   0.0525   1581.0642   1414.3477  24.34 2.156296e-09     1.716 3.522043e-11     1.408      2.759 1.041636e-10  21.6657        570
 7.37   0.1613   1553.8699   1371.1624  48.05  7.01161e-10     0.825 3.522043e-11     0.663      2.277 1.041636e-10  22.8855        571
 5.84   0.1226   1553.9377   1233.3749 -16.57 9.249014e-10     1.038 3.522043e-11     0.750      1.935 1.043751e-10  22.5848        572
 4.68   0.0847   1526.8138    879.2421  63.60 1.337316e-09     1.289 3.522043e-11     1.074      1.751 1.042694e-10  22.1844        573
 6.32   0.0678   1523.8644    378.8672 -84.56 1.661426e-09     1.882 3.522043e-11     1.538      3.829 1.037393e-10  21.9488        574
 3.71   0.0792   1562.3812   1566.2458  28.57   1.4305e-09     1.368 3.522043e-11     1.172      1.946 1.042694e-10  22.1113        575
 6.92   0.1236   1571.5068   1338.4541   3.15 9.088669e-10     0.903 3.522043e-11     0.894      2.571 1.034199e-10  22.6038        576
 3.73   0.0118   1565.6569    784.7159 -84.60 9.519842e-09     2.376 3.522043e-11     1.859      2.558 1.035265e-10  20.0534        577
 3.95   0.0165   1546.0975    863.5544  54.04 6.839377e-09     2.062 3.522043e-11     1.854      2.477  1.03633e-10  20.4125        578
 3.50   0.0064   1566.6432     22.0539  87.32  1.76983e-08     2.097 3.522043e-11     1.828      2.012 1.042694e-10  19.3802        579
 5.57   0.1562   1541.3519    330.1735 -68.86 7.250902e-10     0.907 3.522043e-11     0.676      1.437 1.042694e-10  22.8490        580
 4.28   0.0350   1532.6196    415.8663  51.97 3.234368e-09     2.087 3.522043e-11     1.993      3.127 1.042694e-10  21.2255        581
 6.44   0.0860   1534.0948    975.4637  81.99 1.309122e-09     1.635 3.522043e-11     1.164      3.226  1.03633e-10  22.2076        582
 3.50   0.0014   1552.5767    682.2188 -23.91 8.115039e-08     5.257 3.522043e-11     4.472      4.979 1.040577e-10  17.7268        583
 6.35   0.1287   1551.7084   1513.6234  16.89 8.771277e-10     0.969 3.522043e-11     0.863      2.146 1.039517e-10  22.6423        584
 6.21   0.1832   1556.8723    738.1301 -43.37 6.148961e-10     0.757 3.522043e-11     0.565      1.612 1.037393e-10  23.0280        585
 3.50   0.0039   1542.1058    135.0929 -76.48 2.877898e-08     2.511 3.522043e-11     1.962      2.043 1.037393e-10  18.8523        586
 7.43   0.2165   1552.2059    948.5914 -70.37  5.21985e-10     0.748 3.522043e-11     0.449      1.692 1.040577e-10  23.2059        587
 6.21   0.1330   1551.3142    352.7411 -24.64 8.464075e-10     1.139 3.522043e-11     0.867      2.450  1.03633e-10  22.6811        588
 3.50   0.0001   1434.3470   1090.5133 -47.65 1.167314e-06     2.627 3.522043e-11     2.471      1.903 1.035265e-10  14.8320        589
 5.07   0.0439   1535.5842   1429.0886 -44.99 2.575411e-09     2.378 3.522043e-11     1.378      2.988 1.040577e-10  21.4729        590
 4.35   0.0644   1522.9541     14.3438  15.79 1.758728e-09     1.333 3.522043e-11     1.154      1.942 1.042694e-10  21.8870        591
 6.35   0.0766   1538.7528    263.6774 -69.38 1.471933e-09     1.367 3.522043e-11     1.038      2.518 1.038455e-10  22.0803        592
 5.80   0.0852   1535.5232    919.7870 -34.82  1.32796e-09     1.293 3.522043e-11     1.071      2.255 1.041636e-10  22.1920        593
 7.32   0.1412   1528.8744    550.3959 -16.83  8.00174e-10     1.045 3.522043e-11     0.739      2.562 1.040577e-10  22.7420        594
 3.50   0.0311   1515.2548   1547.3496  77.46 3.636015e-09     1.915 3.522043e-11     1.606      2.437 1.042694e-10  21.0984        595
 8.12   0.1718   1497.5936    673.7587  -6.83  6.58988e-10     1.000 3.522043e-11     0.480      2.824 1.042694e-10  22.9528        596
 3.50   0.0009    929.6677   1178.4656 -72.21 1.255308e-07     2.303 3.522043e-11     2.201      1.938 1.037393e-10  17.2531        597
 3.64   0.0562   1519.1858     85.1037 -82.09 2.007356e-09     1.749 3.522043e-11     1.441      2.406 1.039517e-10  21.7434        598
 6.03   0.0701    922.1744   1199.1700 -55.21 1.615699e-09     2.644 3.522043e-11     1.482      4.263 1.042694e-10  21.9791        599
 5.84   0.0743    932.5317   1117.9152  47.22 1.517525e-09     1.514 3.522043e-11     1.167      2.646 1.038455e-10  22.0472        600
 3.78   0.0326    938.0750    516.3901  69.42 3.464767e-09     2.706 3.522043e-11     1.898      3.222 1.041636e-10  21.1508        601
 4.20   0.0403   1498.3770    844.5110  80.63 2.798844e-09     1.445 3.522043e-11     1.329      1.878 1.039517e-10  21.3826        602
 6.24   0.0893   1504.3629   1311.9532  13.09 1.267684e-09     1.174 3.522043e-11     0.955      2.433 1.042694e-10  22.2425        603
 3.50   0.0468   1519.9189   1100.7740  89.10 2.414081e-09     1.726 3.522043e-11     1.389      2.275 1.040577e-10  21.5431        604
 4.21   0.0643   1528.6823    733.4830  77.17 1.755536e-09     1.567 3.522043e-11     1.329      2.425 1.039517e-10  21.8890        605
 3.81   0.0159   1504.1168    723.3705  10.21  7.11195e-09     1.641 3.522043e-11     1.633      1.973 1.040577e-10  20.3700        606
 3.50   0.1323   1498.3595   1232.9314 -71.69 8.552691e-10     0.986 3.522043e-11     0.747      1.495 1.041636e-10  22.6697        607
 7.92   0.1671    925.2711    934.4345 -82.53 6.770923e-10     0.973 3.522043e-11     0.483      2.708 1.041636e-10  22.9234        608
 4.80   0.2023   1483.7649    768.3823 -72.11 5.586745e-10     0.753 3.522043e-11     0.449      1.372 1.040577e-10  23.1321        609
 4.13   0.1225   1502.3020   1413.3844  52.22 9.219265e-10     1.267 3.522043e-11     0.833      2.002 1.039517e-10  22.5883        610
 3.50   0.0871   1503.9706   1096.5374 -33.70 1.300288e-09     1.349 3.522043e-11     1.260      2.034 1.042694e-10  22.2149        611
 6.00   0.0892    926.0289    666.2874  58.14 1.266453e-09     1.403 3.522043e-11     0.996      2.308 1.040577e-10  22.2435        612
 4.18   0.0311   1438.7748   1271.3232  11.08 3.641318e-09     1.512 3.522043e-11     1.450      2.028 1.041636e-10  21.0969        613
 7.04   0.1609   1501.1913    680.4344  65.99 7.030898e-10     1.103 3.522043e-11     0.576      2.611 1.041636e-10  22.8825        614
 6.10   0.1367   1495.0502    872.5000  49.95 8.208841e-10     1.524 3.522043e-11     0.914      2.606 1.033133e-10  22.7143        615
 4.08   0.0700    926.0438     46.8746 -54.69 1.613631e-09     1.218 3.522043e-11     1.102      1.711 1.039517e-10  21.9805        616
 4.76   0.1905   1469.8245    806.1884 -45.84 5.931527e-10     0.758 3.522043e-11     0.565      1.315 1.040577e-10  23.0671        617
 4.76   0.0456   1488.4822     78.2231  88.06 2.479013e-09     1.551 3.522043e-11     1.398      2.224 1.040577e-10  21.5143        618
 5.54   0.1695   1471.2726    430.4141 -82.23 6.674353e-10     0.963 3.522043e-11     0.479      1.461 1.041636e-10  22.9390        619
 5.17   0.1262    947.8265     44.8606  57.73 8.970107e-10     1.142 3.522043e-11     1.036      2.357 1.042694e-10  22.6180        620
 4.16   0.0123    928.3557   1322.5769 -64.60 9.187444e-09     1.853 3.522043e-11     1.686      2.058 1.042694e-10  20.0920        621
 6.89   0.1174   1475.1619   1570.1783 -12.31 9.626147e-10     1.329 3.522043e-11     1.151      3.247 1.040577e-10  22.5414        622
 4.61   0.0416   1474.6980    998.2349 -15.33 2.702579e-09     3.184 3.522043e-11     1.574      3.530  1.03633e-10  21.4206        623
 4.79   0.0883   1467.8850   1128.5991  74.43 1.282444e-09     1.300 3.522043e-11     0.980      1.995 1.042694e-10  22.2299        624
 6.88   0.1677   1462.3754   1382.3281 -44.33 6.743671e-10     0.898 3.522043e-11     0.528      2.165 1.041636e-10  22.9278        625
 3.80   0.0070    938.9581   1067.0753  62.10 1.611708e-08     2.266 3.522043e-11     1.898      2.142 1.039517e-10  19.4818        626
 3.50   0.0547    949.6799    267.7746 -51.50 2.068467e-09     1.348 3.522043e-11     1.217      1.770 1.041636e-10  21.7109        627
 5.79   0.0617   1020.8668   1268.6838  57.02 1.826856e-09     2.638 3.522043e-11     1.402      3.808 1.037393e-10  21.8457        628
 7.80   0.2214   1459.1958   1114.4174  70.11 5.110192e-10     0.755 3.522043e-11     0.448      1.624 1.041636e-10  23.2289        629
 3.63   0.0562   1453.5760    391.6558 -82.31 2.013157e-09     1.338 3.522043e-11     1.271      1.827 1.041636e-10  21.7403        630
 5.17   0.1355   1477.6409   1023.8800  50.30 8.328784e-10     1.527 3.522043e-11     0.688      1.933 1.039517e-10  22.6985        631
 5.40   0.0863   1388.3656   1585.3025 -69.78 1.305711e-09     1.182 3.522043e-11     1.054      2.084 1.037393e-10  22.2104        632
 5.28   0.0847    953.2736   1504.6213  22.24 1.334854e-09     1.261 3.522043e-11     0.981      1.640 1.041636e-10  22.1864        633
 4.07   0.0812    941.6474    726.1296  68.90 1.392068e-09     1.485 3.522043e-11     1.205      2.323 1.040577e-10  22.1408        634
 5.94   0.0641   1476.9513    198.8090 -40.49 1.765633e-09     1.426 3.522043e-11     1.320      2.664 1.042694e-10  21.8827        635
 6.69   0.1648   1465.2322    118.3890  72.15 6.855616e-10     0.772 3.522043e-11     0.448      1.715 1.040577e-10  22.9099        636
 4.64   0.0542    947.4860    133.4789 -13.42 2.083024e-09     1.317 3.522043e-11     1.216      1.750 1.039517e-10  21.7033        637
 5.08   0.1291   1438.1362    387.5094  -2.17 8.720543e-10     0.928 3.522043e-11     0.746      1.473  1.03633e-10  22.6486        638
 6.51   0.0818   1457.9771    611.7683  55.73 1.382975e-09     1.336 3.522043e-11     1.035      2.845 1.041636e-10  22.1480        639
 6.04   0.1877    951.2794   1303.4272 -82.17 6.019675e-10     1.009 3.522043e-11     0.480      1.902 1.040577e-10  23.0511        640
 7.65   0.1599   1454.8397    166.6385 -20.30 7.076357e-10     0.905 3.522043e-11     0.685      3.042 1.041636e-10  22.8755        641
 6.87   0.1901    964.5914   1214.1810 -18.20 5.951015e-10     0.757 3.522043e-11     0.454      1.668 1.041636e-10  23.0635        642
 7.57   0.1383   1024.7762    128.9352 -86.09 8.187672e-10     0.933 3.522043e-11     0.746      2.794 1.042694e-10  22.7171        643
 7.02   0.1261   1454.6372    922.4561  23.97 8.980867e-10     1.148 3.522043e-11     0.896      2.730 1.042694e-10  22.6167        644
 4.94   0.1307   1451.8207   1225.0574 -80.62 8.663897e-10     1.515 3.522043e-11     1.102      2.490 1.042694e-10  22.6557        645
 5.55   0.1053    950.6795    826.9824  26.96 1.074732e-09     1.302 3.522043e-11     1.207      2.295 1.041636e-10  22.4217        646
 4.90   0.0354   1432.4097    341.1327  16.44 3.194396e-09     2.183 3.522043e-11     1.591      2.889 1.040577e-10  21.2390        647
 4.18   0.0338    947.7339    445.2093 -87.88 3.347291e-09     1.624 3.522043e-11     1.406      1.959 1.042694e-10  21.1883        648
 7.50   0.1443    963.6119    423.0336  38.36 7.830432e-10     1.264 3.522043e-11     0.672      3.390 1.040577e-10  22.7655        649
 6.05   0.1014    976.6416   1280.6245 -48.18 1.116701e-09     1.058 3.522043e-11     0.943      2.286 1.042694e-10  22.3802        650
 6.95   0.1682   1437.0085   1372.0326 -45.34 6.726464e-10     0.893 3.522043e-11     0.535      1.674 1.041636e-10  22.9305        651
 5.34   0.0635   1403.9780   1363.1808 -15.13 1.782054e-09     1.240 3.522043e-11     1.178      2.100 1.042694e-10  21.8727        652
 7.18   0.1536   1441.9722    818.2657  33.44 7.369799e-10     1.202 3.522043e-11     0.449      2.130 1.042694e-10  22.8314        653
 3.50   0.0051   1439.7792    619.2251   6.79 2.202104e-08     1.925 3.522043e-11     1.917      1.975 1.041636e-10  19.1429        654
 3.50   0.0933   1449.4962     87.9017  66.13 1.205304e-09     1.318 3.522043e-11     1.040      1.892 1.035265e-10  22.2973        655
 7.62   0.1092    959.4353    893.5486  46.98 1.037011e-09     1.061 3.522043e-11     0.952      3.847 1.042694e-10  22.4605        656
 3.59   0.0476   1436.1902   1347.3868 -24.58 2.378871e-09     1.367 3.522043e-11     1.199      1.815 1.041636e-10  21.5591        657
 5.34   0.0496   1412.5712      1.8292  88.94 2.065333e-09     2.175 3.522043e-11     0.860      2.394 9.438959e-11  21.7125        658
 6.01   0.1027   1411.1218    367.9376 -66.57 1.095454e-09     2.283 3.522043e-11     0.994      3.895  1.03633e-10  22.4010        659
 6.82   0.0638   1438.5809    646.7088 -18.90 1.770135e-09     2.338 3.522043e-11     1.364      4.709 1.039517e-10  21.8800        660
 4.86   0.0530    952.1375     61.8456  58.46  2.13267e-09     1.541 3.522043e-11     1.447      2.211 1.041636e-10  21.6777        661
 3.50   0.0038   1435.2916    224.7753  -9.80  2.99683e-08     2.046 3.522043e-11     1.967      1.951 1.039517e-10  18.8083        662
 4.57   0.0222   1411.2062    349.8972  38.79 5.074394e-09     2.174 3.522043e-11     1.769      2.639 1.038455e-10  20.7365        663
 5.69   0.0997    955.2647   1029.5879  44.18 1.135974e-09     1.450 3.522043e-11     0.857      2.326 1.042694e-10  22.3616        664
 5.61   0.0706   1370.9082   1215.7830  47.36 1.598286e-09     1.408 3.522043e-11     1.083      2.239 1.039517e-10  21.9909        665
 6.99   0.1206   1403.0939   1345.0980 -30.62  9.33248e-10     1.243 3.522043e-11     0.997      2.363  1.03633e-10  22.5750        666
 3.50   0.0002   1393.4237    114.4826 -38.01 6.703984e-07     2.523 3.522043e-11     2.414      1.906 1.040577e-10  15.4342        667
 4.63   0.0232    950.5255    654.3359 -82.34 4.846612e-09     2.387 3.522043e-11     1.884      3.045 1.037393e-10  20.7864        668
 3.50   0.0008   1419.2289   1126.3972 -65.54 1.469623e-07     2.424 3.522043e-11     2.253      2.034 1.040577e-10  17.0820        669
 5.02   0.0290    965.1647    416.5477   7.17 3.905364e-09     1.482 3.522043e-11     1.376      1.922 1.041636e-10  21.0208        670
 7.12   0.1289   1423.9457   1597.4103 -17.34 8.787443e-10     1.027 3.522043e-11     0.746      1.987 1.042694e-10  22.6403        671
 3.50   0.0015   1372.5205   1019.0506 -32.54 7.394483e-08     2.194 3.522043e-11     2.119      1.943 1.037393e-10  17.8277        672
 5.73   0.0637   1392.5182   1534.4744  68.07 1.771457e-09     1.696 3.522043e-11     1.311      2.656 1.038455e-10  21.8792        673
 7.14   0.1990   1437.2300    181.4076  71.02 5.684703e-10     0.739 3.522043e-11     0.453      1.711 1.041636e-10  23.1132        674
 6.94   0.1124   1028.5292    181.1621   0.21 1.006477e-09     1.085 3.522043e-11     0.961      3.064 1.041636e-10  22.4930        675
 6.74   0.1168    978.7874   1066.0647 -57.78  9.69315e-10     1.108 3.522043e-11     0.888      2.368 1.042694e-10  22.5338        676
 3.50   0.0081   1415.4070   1386.5459  60.80 1.402078e-08     1.804 3.522043e-11     1.723      1.897 1.042694e-10  19.6331        677
 5.83   0.0837   1043.2517    809.9222  -0.66 1.347738e-09     1.217 3.522043e-11     0.958      2.199 1.038455e-10  22.1760        678
 7.54   0.1012    984.4220    954.3365  17.50 1.120127e-09     1.295 3.522043e-11     1.072      3.802 1.043751e-10  22.3768        679
 5.13   0.0931   1420.8673    429.1703 -12.50 1.215365e-09     1.484 3.522043e-11     1.152      2.514 1.041636e-10  22.2882        680
 4.84   0.0234   1406.3790    330.1200  -3.81 4.834768e-09     1.812 3.522043e-11     1.523      2.195 1.041636e-10  20.7891        681
 3.50   0.0074   1392.2743   1038.8513 -13.98 1.518241e-08     1.841 3.522043e-11     1.798      1.899 1.040577e-10  19.5466        682
 7.71   0.1357   1418.1025    106.5817 -18.56 8.321652e-10     1.055 3.522043e-11     0.734      3.068 1.039517e-10  22.6995        683
 5.35   0.0522    982.0121   1487.0242  14.25 2.163143e-09     1.457 3.522043e-11     1.367      2.364 1.040577e-10  21.6623        684
 5.32   0.1096   1028.0177    352.1209 -18.19 1.032564e-09     1.222 3.522043e-11     0.993      2.374 1.041636e-10  22.4652        685
 6.14   0.1383   1387.3232    677.9352 -73.42 8.147239e-10     1.027 3.522043e-11     0.743      1.918 1.037393e-10  22.7225        686
 3.93   0.0082   1359.5386   1135.3708 -87.93  1.38644e-08     8.309 3.522043e-11     5.572      8.226 1.041636e-10  19.6452        687
 6.31   0.1908   1056.1671    665.1558  41.23 5.939333e-10     0.777 3.522043e-11     0.566      1.864 1.043751e-10  23.0657        688
 7.65   0.1387   1056.0243    765.4580 -28.26 8.155757e-10     1.063 3.522043e-11     0.660      2.271 1.041636e-10  22.7213        689
 3.50   0.0055   1408.2369    308.3594 -13.68 2.048145e-08     1.873 3.522043e-11     1.844      1.961 1.041636e-10  19.2216        690
 3.50   0.0171   1400.6305   1031.5831  36.95  6.59771e-09     1.981 3.522043e-11     1.755      2.290 1.041636e-10  20.4515        691
 5.61   0.0325   1388.9211    806.8259  40.73 3.478121e-09     1.587 3.522043e-11     1.496      2.526 1.041636e-10  21.1466        692
 7.93   0.1894   1381.0144    396.4978 -40.18 5.955426e-10     1.199 3.522043e-11     0.340      2.451 1.038455e-10  23.0627        693
 3.60   0.0053   1390.3142    713.2117  65.87 2.137231e-08     2.071 3.522043e-11     1.952      2.025 1.041636e-10  19.1754        694
 7.07   0.1235   1029.0605    948.5922 -38.65 9.175495e-10     1.711 3.522043e-11     0.782      3.328 1.043751e-10  22.5934        695
 3.50   0.0018   1388.6904   1428.5332  75.08 6.268644e-08     2.069 3.522043e-11     2.013      1.899 1.037393e-10  18.0071        696
 7.10   0.1015   1388.7285   1102.8612  22.08 1.109918e-09     1.346 3.522043e-11     0.842      2.457 1.037393e-10  22.3868        697
 3.50   0.0001   1366.2493   1159.8302 -64.63 2.227044e-06     3.802 3.522043e-11     3.460      2.822 1.042694e-10  14.1307        698
 5.32   0.1036   1360.6215   1243.8667 -14.14 1.093534e-09     1.174 3.522043e-11     0.928      1.852 1.042694e-10  22.4029        699
 5.94   0.2021   1402.2119     61.8632  10.99 5.603144e-10     1.186 3.522043e-11     0.347      1.574 1.042694e-10  23.1289        700
 5.77   0.0531   1378.9540    319.5107 -31.86 2.123365e-09     1.998 3.522043e-11     1.246      3.055 1.037393e-10  21.6824        701
 5.19   0.0754   1368.6361    149.5765  66.63 1.499293e-09     1.567 3.522043e-11     1.122      2.194 1.040577e-10  22.0603        702
 4.96   0.0556   1385.7548   1274.0192  36.67 2.035089e-09     1.917 3.522043e-11     1.687      2.823 1.041636e-10  21.7285        703
 3.50   0.0682   1052.0505    237.6838  30.22 1.649562e-09     1.696 3.522043e-11     1.400      2.410  1.03633e-10  21.9566        704
 3.50   0.0592   1040.9501    467.3349  59.02 1.911976e-09     1.701 3.522043e-11     1.402      2.381 1.041636e-10  21.7963        705
 4.63   0.0382   1094.5248   1136.4152 -33.74 2.964443e-09     1.416 3.522043e-11     1.360      1.942 1.041636e-10  21.3201        706
 5.14   0.0185   1330.4769   1139.7854 -78.07 6.119581e-09     2.674 3.522043e-11     2.020      3.562 1.041636e-10  20.5332        707
 7.49   0.0675   1228.2021    915.1611 -42.58 1.678811e-09     2.246 3.522043e-11     1.677      6.484 1.042694e-10  21.9375        708
 4.82   0.0944   1052.8201    400.5964  79.98 1.199428e-09     1.368 3.522043e-11     0.968      2.232 1.042694e-10  22.3026        709
 7.03   0.1260   1362.1735    527.6406  81.39 8.974523e-10     1.843 3.522043e-11     1.038      4.217 1.041636e-10  22.6175        710
 6.31   0.0872   1147.8628    112.8041  -2.61 1.299901e-09     1.436 3.522043e-11     1.078      2.568 1.043751e-10  22.2152        711
 3.50   0.0049   1234.3942    304.9243 -30.88 2.311953e-08     1.952 3.522043e-11     1.916      1.978 1.041636e-10  19.0901        712
 5.48   0.0813   1362.6494   1111.5621 -19.46 1.392187e-09     1.445 3.522043e-11     0.995      2.169 1.042694e-10  22.1408        713
 6.25   0.1230   1034.1049    102.2175  80.11  9.18004e-10     1.093 3.522043e-11     0.827      2.079 1.039517e-10  22.5929        714
 6.75   0.1648   1306.4844    508.4789  44.40 6.855808e-10     0.988 3.522043e-11     0.592      1.969 1.040577e-10  22.9099        715
 6.37   0.0772   1362.5333    391.0894 -21.43 1.459758e-09     1.729 3.522043e-11     1.270      3.405 1.037393e-10  22.0893        716
 3.75   0.0217   1073.4900      7.0000  48.98 5.215143e-09     1.589 3.522043e-11     1.477      1.914 1.042694e-10  20.7068        717
 3.55   0.0402   1299.1843     54.2265 -54.13 2.816963e-09     1.446 3.522043e-11     1.302      1.862 1.041636e-10  21.3755        718
 6.94   0.1308   1370.4780    706.5513 -44.73 8.622116e-10     1.103 3.522043e-11     0.854      2.755 1.038455e-10  22.6610        719
 6.07   0.1471   1303.0627     42.6161 -37.52 7.699638e-10     1.000 3.522043e-11     0.646      1.907 1.042694e-10  22.7838        720
 7.50   0.1053   1352.7139    475.5082 -74.34 1.069769e-09     1.709 3.522043e-11     0.996      5.022 1.037393e-10  22.4268        721
 7.93   0.1950   1077.8418   1268.8284 -27.86 5.806666e-10     1.148 3.522043e-11     0.423      2.553 1.042694e-10  23.0902        722
 5.07   0.0397   1352.6218    152.0641  67.93 2.857709e-09     2.788 3.522043e-11     2.165      4.107 1.043751e-10  21.3600        723
 5.68   0.1767   1365.4945    362.5205  89.52 6.387626e-10     1.103 3.522043e-11     0.500      1.709 1.039517e-10  22.9867        724
 7.17   0.1361   1101.3068   1352.4705 -46.01 8.297421e-10     1.080 3.522043e-11     0.821      3.113 1.039517e-10  22.7026        725
 3.50   0.0044   1089.3395    642.5004  85.37 2.575668e-08     1.940 3.522043e-11     1.861      1.923 1.033133e-10  18.9728        726
 6.85   0.1432   1339.4465   1480.0493 -38.40 7.908705e-10     1.157 3.522043e-11     0.742      2.321 1.042694e-10  22.7547        727
 4.36   0.0419   1346.0667    605.0256 -65.94 2.702832e-09     1.733 3.522043e-11     1.440      2.294 1.042694e-10  21.4205        728
 5.13   0.0789   1347.1346    194.4909  57.99 1.427699e-09     1.435 3.522043e-11     1.114      2.045 1.037393e-10  22.1134        729
 4.98   0.0251   1330.4084    386.8199  53.51 4.499326e-09     1.583 3.522043e-11     1.391      2.162 1.041636e-10  20.8671        730
 3.50   0.0004   1320.0604    660.0400  35.25 2.542855e-07     2.274 3.522043e-11     2.183      1.927 1.042694e-10  16.4867        731
 3.50   0.0148   1332.7782    107.4950 -70.04 7.629844e-09     1.736 3.522043e-11     1.597      1.937 1.038455e-10  20.2937        732
 5.28   0.0811   1325.4230    633.8721  12.04 1.394337e-09     2.294 3.522043e-11     1.238      2.820 1.041636e-10  22.1391        733
 3.50   0.0040   1329.8676    655.9101  22.09 2.794359e-08     2.217 3.522043e-11     1.972      2.176 1.037393e-10  18.8843        734
 6.00   0.1314   1187.0807   1234.2633 -77.81 8.567221e-10     1.195 3.522043e-11     0.950      2.280  1.03633e-10  22.6679        735
 7.76   0.1629   1326.9070    494.6703 -19.70  6.92326e-10     0.956 3.522043e-11     0.694      2.935 1.038455e-10  22.8992        736
 3.71   0.0166   1304.7114    892.9983 -55.01 6.812006e-09     1.732 3.522043e-11     1.605      1.980 1.042694e-10  20.4168        737
 6.63   0.0914   1306.5029    844.6167 -56.66 1.234685e-09     1.873 3.522043e-11     1.184      3.244 1.039517e-10  22.2711        738
 5.34   0.1507   1125.5101    276.0521  62.80 7.452752e-10     1.021 3.522043e-11     0.657      1.609 1.034199e-10  22.8192        739
 3.50   0.0047   1307.5447    669.7361 -60.61 2.386255e-08     2.415 3.522043e-11     1.959      2.027 1.042694e-10  19.0557        740
 6.18   0.1017   1302.8400    939.2678  73.26 1.112147e-09     1.873 3.522043e-11     0.909      3.326 1.041636e-10  22.3846        741
 3.50   0.0081   1307.5386   1036.1102 -43.49 1.390333e-08     2.997 3.522043e-11     2.322      3.133  1.03633e-10  19.6422        742
 4.81   0.1409   1327.3206    583.7105 -31.35 8.011375e-10     1.118 3.522043e-11     0.727      1.745 1.039517e-10  22.7407        743
 6.52   0.0759   1306.6876    574.3048 -61.27 1.484987e-09     1.327 3.522043e-11     1.227      3.091 1.037393e-10  22.0707        744
 7.20   0.1745   1316.9735   1356.9637  44.53 6.474539e-10     0.891 3.522043e-11     0.531      1.922 1.040577e-10  22.9720        745
 5.38   0.1073   1313.4803    999.3995 -74.24 1.055247e-09     1.663 3.522043e-11     1.066      2.901 1.042694e-10  22.4416        746
 3.50   0.0001   1298.3774    725.0297 -21.73 1.546809e-06     3.075 3.522043e-11     2.555      1.924 1.041636e-10  14.5264        747
 4.36   0.0195   1319.2471    264.2101 -63.14 5.816507e-09     1.611 3.522043e-11     1.563      2.008 1.042694e-10  20.5883        748
 7.37   0.1446   1309.2397    297.5124  50.75 7.798376e-10     1.307 3.522043e-11     0.836      3.312 1.038455e-10  22.7700        749
 3.50   0.0020   1291.3729    762.2149 -28.02 5.572373e-08     2.623 3.522043e-11     2.123      2.124 1.041636e-10  18.1349        750
 7.36   0.1902   1308.7319    794.4075 -72.48 5.947863e-10     0.744 3.522043e-11     0.459      1.697 1.041636e-10  23.0641        751
 3.50   0.0040   1265.4371    807.9481 -68.48 2.820422e-08     2.005 3.522043e-11     1.897      1.943 1.043751e-10  18.8742        752
 3.50   0.0032   1278.0800   1331.3973  78.18 3.580086e-08     2.027 3.522043e-11     1.966      1.921 1.041636e-10  18.6153        753
 5.99   0.1284   1129.5739    504.6903 -69.12 8.785586e-10     0.941 3.522043e-11     0.812      1.824 1.038455e-10  22.6406        754
 5.87   0.0692   1277.8275    343.6550  -6.18 1.635822e-09     1.353 3.522043e-11     1.196      2.334 1.041636e-10  21.9657        755
 5.13   0.0960   1282.8485   1569.2548 -17.91 1.180006e-09     1.142 3.522043e-11     0.901      1.666 1.042694e-10  22.3203        756
 6.00   0.0794   1243.9559    613.8288  42.72 1.426916e-09     1.170 3.522043e-11     1.080      2.233 1.042694e-10  22.1140        757
 3.50   0.0020   1272.7932    609.9716 -57.61 5.601322e-08     4.956 3.522043e-11     2.917      3.899 1.041636e-10  18.1293        758
 3.73   0.0093   1120.3381    329.9067  61.83 1.209639e-08     3.330 3.522043e-11     2.183      3.257  1.03633e-10  19.7934        759
 5.33   0.0496   1291.5503    546.1161  -6.51 2.268025e-09     1.526 3.522043e-11     1.369      2.307  1.03633e-10  21.6109        760
 3.50   0.1115   1293.3617   1091.4222  24.97  1.01384e-09     0.994 3.522043e-11     0.858      1.463 1.040577e-10  22.4851        761
 3.85   0.0137   1292.8937    412.6998 -27.26 8.213508e-09     1.764 3.522043e-11     1.729      2.065 1.035265e-10  20.2137        762
 5.61   0.1747   1146.7150    795.0032   1.07 6.482864e-10     0.729 3.522043e-11     0.669      1.615 1.042694e-10  22.9706        763
 5.51   0.1382   1124.5109    758.6158 -39.09 8.177191e-10     1.080 3.522043e-11     0.820      1.771 1.040577e-10  22.7185        764
 7.55   0.1764   1285.6820    337.5557  40.47 6.399691e-10     1.290 3.522043e-11     0.499      2.647 1.039517e-10  22.9846        765
 3.50   0.0001   1221.4275    995.1282 -37.01 1.634525e-06     7.222 3.522043e-11     6.784      4.720 1.042694e-10  14.4665        766
 6.51   0.1442   1101.4706    113.1608  40.65 7.845096e-10     1.350 3.522043e-11     0.782      2.667 1.041636e-10  22.7635        767
 5.63   0.0342   1182.9824    674.2845  23.55  3.30005e-09     2.066 3.522043e-11     1.547      3.121 1.040577e-10  21.2037        768
 3.80   0.0360   1262.2095    855.3685  73.62 3.138894e-09     1.404 3.522043e-11     1.282      1.754 1.041636e-10  21.2581        769
 3.57   0.0548   1262.1892    216.1784   1.23 2.064761e-09     1.474 3.522043e-11     1.233      1.983 1.041636e-10  21.7128        770
 6.49   0.1280   1126.0328    166.6682  16.10 8.838382e-10     1.011 3.522043e-11     0.756      2.195 1.041636e-10  22.6341        771
 4.62   0.0209   1065.2301   1563.0775 -68.40 5.422091e-09     3.647 3.522043e-11     2.347      4.116 1.041636e-10  20.6646        772
 3.76   0.0222   1130.1110    219.6394 -10.68 5.084183e-09     1.851 3.522043e-11     1.651      2.207 1.038455e-10  20.7344        773
 3.72   0.0083   1237.0076   1553.5127 -81.70 1.367924e-08     1.912 3.522043e-11     1.860      2.050 1.042694e-10  19.6598        774
 6.47   0.1615   1253.6700   1088.5952  71.76 7.002441e-10     0.983 3.522043e-11     0.618      2.080 1.041636e-10  22.8869        775
 3.50   0.0139   1242.4906    672.8364  68.91 8.097564e-09     1.684 3.522043e-11     1.566      1.880 1.038455e-10  20.2291        776
 4.56   0.0555   1204.0167   1217.3824  56.65 2.039427e-09     1.339 3.522043e-11     1.161      2.004 1.042694e-10  21.7262        777
 6.80   0.0931   1122.6359    741.6924  19.95 1.211428e-09     1.605 3.522043e-11     1.021      3.585 1.038455e-10  22.2918        778
 3.50   0.0014   1218.9663   1195.0510  61.25 7.923649e-08     2.469 3.522043e-11     2.276      2.015 1.041636e-10  17.7527        779
 4.47   0.0283   1237.7291     48.4410  33.74 3.994863e-09     1.553 3.522043e-11     1.431      1.963 1.041636e-10  20.9962        780
 6.58   0.1152   1145.5380   1338.3512 -26.03  9.82065e-10     1.387 3.522043e-11     1.086      2.860 1.041636e-10  22.5196        781
 3.50   0.0296   1228.5308   1153.7478  76.83 3.815812e-09     1.482 3.522043e-11     1.347      1.787 1.040577e-10  21.0460        782
 5.06   0.0566   1238.2332    857.2381 -58.58 2.002288e-09     1.936 3.522043e-11     1.394      2.766 1.042694e-10  21.7462        783
 4.57   0.0159   1259.4230    432.6233 -10.50 7.116311e-09     2.638 3.522043e-11     2.518      3.545 1.040577e-10  20.3694        784
 8.38   0.1939   1186.8004    391.6089  71.01 5.826972e-10     0.760 3.522043e-11     0.445      2.471 1.040577e-10  23.0864        785
 6.17   0.1316   1226.7368    168.9904  79.84 8.614091e-10     1.617 3.522043e-11     1.192      3.231 1.043751e-10  22.6620        786
 5.27   0.0223   1229.7633    598.9540  -0.89   5.0855e-09     2.612 3.522043e-11     2.219      3.833 1.042694e-10  20.7342        787
 5.02   0.0873   1017.4996    201.5500  83.56 1.285661e-09     1.288 3.522043e-11     1.229      2.141 1.033133e-10  22.2272        788
 3.50   0.0039   1210.5858   1279.0228  80.10 2.923915e-08     6.382 3.522043e-11     3.944      6.021 1.041636e-10  18.8351        789
 3.50   0.0009   1214.6178    513.0494 -42.71 1.247512e-07     2.202 3.522043e-11     2.166      1.919 1.043751e-10  17.2599        790
 6.23   0.0754   1185.3928    313.7604   7.34 1.502481e-09     1.281 3.522043e-11     1.130      2.429 1.042694e-10  22.0580        791
 5.38   0.0958   1172.2118    232.7648 -54.54   1.1807e-09     1.164 3.522043e-11     1.121      2.497 1.041636e-10  22.3197        792
 4.50   0.0098   1071.9570   1218.8427 -75.87 1.154124e-08     3.393 3.522043e-11     2.619      3.743 1.039517e-10  19.8444        793
 3.96   0.0180   1213.5890   1429.4880  75.61 6.273743e-09     4.082 3.522043e-11     2.421      4.187 1.040577e-10  20.5062        794
 4.27   0.0109   1195.1412    124.1369 -70.45 1.035976e-08     2.779 3.522043e-11     2.388      3.237 1.041636e-10  19.9616        795
 4.12   0.0351   1181.8105    176.3273  82.76 3.221897e-09     1.505 3.522043e-11     1.448      2.013 1.041636e-10  21.2297        796
 7.25   0.1847   1206.8207    722.8207  47.65 6.130687e-10     0.773 3.522043e-11     0.561      1.786 1.042694e-10  23.0312        797
 3.67   0.0056   1172.4487    757.7888 -29.61  2.03133e-08     4.157 3.522043e-11     4.036      5.024 1.042694e-10  19.2305        798
 8.08   0.1788   1208.8328    898.5272  29.73  6.32514e-10     1.064 3.522043e-11     0.463      1.901 1.041636e-10  22.9973        799
 3.53   0.0083   1201.9739    339.0759  64.70 1.362959e-08     1.877 3.522043e-11     1.770      2.032 1.041636e-10  19.6638        800
 3.99   0.0669   1210.2762   1415.8174  24.17 1.690979e-09     1.713 3.522043e-11     1.378      2.540 1.041636e-10  21.9297        801
 6.88   0.0510   1195.5767   1053.1786  57.67 2.213802e-09     1.676 3.522043e-11     1.366      4.072 1.040577e-10  21.6372        802
 8.46   0.2149   1123.1727    918.1907  47.18  5.25781e-10     0.733 3.522043e-11     0.566      3.190 1.040577e-10  23.1980        803
 3.50   0.0435   1273.7866    698.0006 -49.53  2.59892e-09     1.592 3.522043e-11     1.393      2.050 1.041636e-10  21.4630        804
 4.77   0.1211   1196.4856   1333.6747  74.77 9.325266e-10     1.015 3.522043e-11     0.975      1.965 1.039517e-10  22.5758        805
 3.50   0.0001   1151.6029    693.7643 -25.25 2.148453e-06     3.939 3.522043e-11     3.735      2.832 1.042694e-10  14.1697        806
 3.70   0.0231   1181.1371    549.4714 -64.99 4.870022e-09     1.632 3.522043e-11     1.563      2.007 1.037393e-10  20.7812        807
 6.11   0.1091   1179.8921   1404.0377 -78.05 1.033911e-09     1.308 3.522043e-11     1.141      2.761 1.038455e-10  22.4638        808
 3.55   0.0081   1207.6138    838.9217 -32.33 1.388289e-08     1.795 3.522043e-11     1.752      1.935 1.041636e-10  19.6438        809
 4.92   0.0273   1114.0139    674.4802  24.65 4.152606e-09     1.684 3.522043e-11     1.567      2.419 1.042694e-10  20.9542        810
 4.09   0.0107   1203.2811   1075.7378  27.95 1.055152e-08     2.650 3.522043e-11     2.149      2.925  1.03633e-10  19.9417        811
 3.50   0.0003   1165.1503   1299.7833 -56.80 4.087128e-07     2.414 3.522043e-11     2.333      1.929 1.043751e-10  15.9715        812
 6.98   0.2163   1175.2000   1063.6517 -73.58  5.23509e-10     0.742 3.522043e-11     0.446      1.857 1.042694e-10  23.2027        813
 4.82   0.0274   1105.4214    678.6757  43.98 4.132111e-09     2.514 3.522043e-11     2.080      3.401 1.041636e-10  20.9596        814
 3.50   0.0008   1129.9969    183.5702 -29.07  1.37332e-07     2.212 3.522043e-11     2.173      1.940 1.040577e-10  17.1556        815
 5.11   0.0664   1176.9762   1598.3646 -54.90 1.673751e-09     1.392 3.522043e-11     1.003      1.989 1.023482e-10  21.9408        816
 7.44   0.1324   1117.5099    665.4686  69.31 8.507344e-10     0.920 3.522043e-11     0.891      3.066 1.037393e-10  22.6755        817
 5.89   0.0616   1166.9866   1599.1899 -89.83  1.66106e-09     1.742 3.522043e-11     0.758      2.467 9.415566e-11  21.9490        818
 5.91   0.1080   1156.7562    351.6839 -84.19 1.043919e-09     1.177 3.522043e-11     0.925      2.103 1.038455e-10  22.4533        819
 4.24   0.0195   1161.7235    887.8396 -59.51  5.79552e-09     1.714 3.522043e-11     1.605      2.061 1.039517e-10  20.5923        820
 4.78   0.1129   1177.0385     19.7715  27.89 1.003228e-09     1.537 3.522043e-11     0.915      2.438 1.042694e-10  22.4965        821
 5.39   0.1032   1157.5078    970.5814  -9.72 1.094077e-09     1.180 3.522043e-11     1.021      2.137 1.039517e-10  22.4024        822
 6.13   0.1609   1222.8547    830.1529  48.31 7.039789e-10     0.821 3.522043e-11     0.674      1.600 1.042694e-10  22.8811        823
 3.50   0.0023   1157.8768    236.4714  87.53 4.872853e-08     2.094 3.522043e-11     2.057      1.932 1.037393e-10  18.2805        824
 5.42   0.1817   1167.0419    639.9724 -45.76 6.230986e-10     0.913 3.522043e-11     0.527      1.631 1.042694e-10  23.0136        825
 5.59   0.0623   1155.9290    567.5321  76.82 1.809369e-09     1.592 3.522043e-11     1.317      2.426 1.037393e-10  21.8562        826
 3.73   0.0161   1153.4806   1353.1643 -63.83 7.012573e-09     2.167 3.522043e-11     1.968      2.499 1.039517e-10  20.3853        827
 3.64   0.0097   1151.2544     99.4538   3.11 1.169442e-08     1.845 3.522043e-11     1.726      1.995 1.043751e-10  19.8301        828
 5.57   0.0902   1158.2614    186.4301  77.21 1.255265e-09     1.453 3.522043e-11     1.226      2.625 1.042694e-10  22.2532        829
 3.50   0.0535   1145.7174    770.0029 -52.96  2.11663e-09     1.953 3.522043e-11     1.474      2.536 1.042694e-10  21.6859        830
 4.44   0.0444   1131.2858    359.5821  -1.44 2.542428e-09     1.492 3.522043e-11     1.340      2.100 1.040577e-10  21.4869        831
 3.50   0.0359   1133.9792    607.8367   7.44 3.150098e-09     1.690 3.522043e-11     1.639      2.276 1.040577e-10  21.2542        832
 3.50   0.0004   1138.5464    148.0820 -40.19 2.565357e-07     2.395 3.522043e-11     2.291      1.942 1.035265e-10  16.4771        833
 4.02   0.0152   1200.8596   1442.2184  71.30 7.446809e-09     2.151 3.522043e-11     1.980      2.542 1.042694e-10  20.3201        834
 3.82   0.0262   1063.2712      7.3319  48.92  4.29861e-09     1.494 3.522043e-11     1.489      1.910 1.037393e-10  20.9167        835
 8.16   0.1185   1129.6648    873.8660 -89.77 9.510968e-10     1.644 3.522043e-11     0.920      4.607 1.037393e-10  22.5544        836
 4.04   0.0199   1129.3245    547.3883  79.62 5.690671e-09     1.692 3.522043e-11     1.568      2.011 1.041636e-10  20.6121        837
 6.43   0.1543   1129.6580   1144.9489  25.90 7.339124e-10     0.912 3.522043e-11     0.815      2.409 1.042694e-10  22.8359        838
 4.91   0.0896   1173.1989    208.4953  89.80 1.259281e-09     1.229 3.522043e-11     0.971      1.868 1.038455e-10  22.2497        839
 5.00   0.0692   1210.1941    829.6819 -19.71 1.633848e-09     1.519 3.522043e-11     1.372      2.401 1.041636e-10  21.9670        840
 4.09   0.1022   1128.1039    837.8548  -1.32 1.099043e-09     1.337 3.522043e-11     1.132      2.119 1.034199e-10  22.3975        841
 5.31   0.1388   1121.0303    639.5345  -0.42 8.149622e-10     1.034 3.522043e-11     0.790      1.457 1.041636e-10  22.7222        842
 3.95   0.0807   1116.1537   1170.3115 -42.16 1.394453e-09     1.589 3.522043e-11     1.381      2.683  1.03633e-10  22.1390        843
 5.11   0.0188   1111.1403    479.8082  23.03 6.031362e-09     3.663 3.522043e-11     2.704      4.959 1.043751e-10  20.5490        844
 3.50   0.0019   1107.4386    428.0798 -85.49 5.879826e-08     2.121 3.522043e-11     2.070      1.918 1.039517e-10  18.0766        845
 3.50   0.0012   1104.5145    751.8724 -38.17  9.09482e-08     2.193 3.522043e-11     2.117      1.915 1.037393e-10  17.6030        846
 4.35   0.1345   1104.9922    627.1633  -1.94 8.419854e-10     0.934 3.522043e-11     0.751      1.682 1.042694e-10  22.6867        847
 6.71   0.1371   1108.1149    970.9909 -18.64 8.252912e-10     1.304 3.522043e-11     0.647      2.496 1.041636e-10  22.7085        848
 5.46   0.0586   1093.1107    428.9854  50.62 1.928158e-09     2.691 3.522043e-11     1.957      4.465 1.040577e-10  21.7871        849
 5.41   0.0781   1106.6552   1267.0292  -0.05 1.449668e-09     1.217 3.522043e-11     1.078      2.090 1.042694e-10  22.0968        850
 3.50   0.0005   1094.8954    778.1906 -69.21 2.476166e-07     2.366 3.522043e-11     2.319      1.961 1.039517e-10  16.5156        851
 6.75   0.1275   1108.3857   1123.8121  39.97 8.875404e-10     1.145 3.522043e-11     0.994      2.932 1.041636e-10  22.6295        852
 4.84   0.0314   1083.8552     42.8503 -47.41 3.603024e-09     1.699 3.522043e-11     1.604      2.388 1.042694e-10  21.1083        853
 5.50   0.1354   1078.3174    468.8853  30.89 8.326614e-10     1.272 3.522043e-11     0.653      2.012 1.038455e-10  22.6988        854
 5.96   0.1376   1086.7522   1012.4882  58.78 8.172871e-10     1.327 3.522043e-11     0.810      2.258 1.035265e-10  22.7191        855
 3.83   0.0141   1095.3108   1526.6001  40.62 8.034131e-09     1.730 3.522043e-11     1.587      1.933 1.042694e-10  20.2377        856
 4.00   0.0693   1074.4648    352.5270  49.16 1.624603e-09     1.716 3.522043e-11     1.302      2.413 1.037393e-10  21.9731        857
 3.50   0.0004   1079.9795    512.1542 -31.65 2.729985e-07     2.344 3.522043e-11     2.292      1.963 1.042694e-10  16.4096        858
 5.06   0.0441   1086.3501   1452.8035  73.82 2.567321e-09     1.846 3.522043e-11     1.562      2.827 1.042694e-10  21.4763        859
 5.19   0.1443   1030.1797   1252.0253 -87.83 7.840029e-10     0.930 3.522043e-11     0.758      1.522 1.041636e-10  22.7642        860
 5.58   0.0708   1079.7538     53.1901  61.42 1.600358e-09     1.233 3.522043e-11     1.197      2.056 1.042694e-10  21.9895        861
 4.43   0.0525   1088.1580    397.0767  85.84 2.150071e-09     1.575 3.522043e-11     1.249      2.391 1.039517e-10  21.6689        862
 3.50   0.0014   1081.7675   1148.2244 -88.97 8.306726e-08     2.216 3.522043e-11     2.160      1.895 1.041636e-10  17.7014        863
 5.26   0.0290   1090.9797    468.4352 -59.20 3.898529e-09     3.088 3.522043e-11     1.608      3.611 1.040577e-10  21.0227        864
 5.79   0.0762   1079.0687    922.4694   9.80  1.47847e-09     1.276 3.522043e-11     1.217      2.372 1.037393e-10  22.0755        865
 3.50   0.1390   1084.3655    846.4835   9.63 8.127229e-10     0.966 3.522043e-11     0.811      1.537 1.040577e-10  22.7251        866
 4.05   0.0306   1065.9109   1597.2440  74.78 3.678766e-09     1.490 3.522043e-11     1.446      1.885  1.03633e-10  21.0857        867
 4.07   0.0253   1079.3278    330.1993   7.63 4.463179e-09     1.698 3.522043e-11     1.522      1.985 1.040577e-10  20.8759        868
 5.04   0.1184   1060.4546    691.0518  58.11 9.576538e-10     0.961 3.522043e-11     0.866      1.677 1.043751e-10  22.5470        869
 4.67   0.0536   1014.5649    453.2987 -68.20 2.098377e-09     1.392 3.522043e-11     1.342      2.112  1.03633e-10  21.6953        870
 3.50   0.0680   1063.9600    292.0611 -28.12 1.663974e-09     1.635 3.522043e-11     1.302      2.291 1.041636e-10  21.9471        871
 3.97   0.0169   1059.9845    726.9191  23.69 6.698358e-09     2.357 3.522043e-11     2.187      2.935 1.041636e-10  20.4351        872
 3.50   0.0000   1023.6234     50.2655 -45.77  3.04709e-06     3.097 3.522043e-11     2.895      2.106 1.042694e-10  13.7903        873
 3.85   0.1373   1048.0575    208.5612  43.37 8.245248e-10     1.214 3.522043e-11     0.943      1.972 1.042694e-10  22.7095        874
 3.50   0.0015   1038.6854    525.4479 -57.79  7.34239e-08     2.140 3.522043e-11     2.025      1.902  1.03633e-10  17.8354        875
 3.50   0.0054   1011.3051    344.7809 -77.89 2.096892e-08     1.954 3.522043e-11     1.854      1.973 1.038455e-10  19.1961        876
 5.18   0.0757   1042.5592   1096.1044  51.65 1.488617e-09     1.433 3.522043e-11     1.082      2.507 1.037393e-10  22.0680        877
 6.46   0.1375   1053.7539   1385.1237 -47.48  8.20424e-10     0.975 3.522043e-11     0.813      2.114 1.038455e-10  22.7149        878
 6.45   0.0993   1037.1862    242.1431  60.79  1.14112e-09     1.345 3.522043e-11     1.020      2.686 1.043751e-10  22.3567        879
 3.70   0.0134   1030.4153    302.7544  66.92 8.470441e-09     3.180 3.522043e-11     2.247      3.405 1.041636e-10  20.1802        880
 3.50   0.0003   1040.2838    633.1115 -55.93 3.488466e-07     2.388 3.522043e-11     2.280      1.936 1.037393e-10  16.1434        881
 3.50   0.0398   1066.7386    569.0472 -54.14 2.842807e-09     1.541 3.522043e-11     1.318      1.811 1.041636e-10  21.3656        882
 7.34   0.1343   1029.4470   1035.7544 -56.55 8.424768e-10     1.037 3.522043e-11     0.789      2.958 1.041636e-10  22.6861        883
 3.50   0.0007   1025.6733   1380.0110 -73.11 1.619783e-07     2.414 3.522043e-11     2.293      1.955 1.041636e-10  16.9764        884
 3.59   0.0334   1038.0062    122.1622 -37.80 3.386669e-09     2.704 3.522043e-11     1.645      3.032 1.042694e-10  21.1756        885
 4.31   0.0321    978.4366    452.7593  36.53  3.52164e-09     1.797 3.522043e-11     1.607      2.560 1.041636e-10  21.1331        886
 3.97   0.0994   1028.0936    464.2653 -12.56  1.13306e-09     1.064 3.522043e-11     1.013      1.734 1.037393e-10  22.3644        887
 6.22   0.0998   1047.6670   1158.1385   0.26    1.131e-09     1.265 3.522043e-11     1.212      2.801 1.039517e-10  22.3663        888
 7.67   0.1651   1064.0142   1414.0337  44.79 6.843039e-10     0.900 3.522043e-11     0.532      2.519 1.040577e-10  22.9119        889
 5.56   0.0749   1067.9268   1474.2115  31.81 1.509574e-09     3.398 3.522043e-11     1.921      5.028 1.041636e-10  22.0529        890
 5.10   0.0501   1011.0033    267.8295 -13.80 2.254873e-09     1.697 3.522043e-11     1.494      2.555 1.040577e-10  21.6172        891
 7.27   0.1925   1011.0126   1421.8324  53.14 5.869502e-10     0.958 3.522043e-11     0.457      2.512 1.040577e-10  23.0785        892
 7.35   0.1543   1057.7852   1124.9257  83.94 7.331618e-10     1.553 3.522043e-11     0.724      4.279 1.041636e-10  22.8370        893
 6.53   0.1237   1026.4154   1266.8433 -30.14 9.153351e-10     1.207 3.522043e-11     1.001      2.791 1.042694e-10  22.5961        894
 3.50   0.0008   1009.7790    813.7703 -71.54 1.413817e-07     2.278 3.522043e-11     2.223      1.941 1.040577e-10  17.1240        895
 3.50   0.0051   1001.5972    542.7122  80.73 2.241046e-08     2.021 3.522043e-11     1.940      2.018 1.042694e-10  19.1239        896
 6.64   0.1814   1026.8168      6.8427  43.94 6.229414e-10     0.760 3.522043e-11     0.568      1.778 1.040577e-10  23.0139        897
 4.97   0.0898   1004.3105   1237.9181  44.79 1.256194e-09     1.407 3.522043e-11     1.101      2.308 1.038455e-10  22.2524        898
 3.55   0.0114   1001.4066   1555.4497  49.08 9.974767e-09     1.732 3.522043e-11     1.678      1.922 1.042694e-10  20.0027        899
 5.91   0.0658   1019.3622   1154.8523 -70.62 1.723228e-09     1.300 3.522043e-11     1.113      2.235 1.043751e-10  21.9091        900
 4.36   0.0153    999.8921   1273.8192 -42.69 7.382523e-09     1.872 3.522043e-11     1.709      2.196 1.039517e-10  20.3295        901
 7.15   0.1477    999.7446   1441.4474   0.20 7.667679e-10     0.994 3.522043e-11     0.714      2.023 1.042694e-10  22.7883        902
 4.48   0.0168    980.6675    797.9759  89.13 6.724994e-09     2.256 3.522043e-11     2.124      2.935 1.041636e-10  20.4308        903
 4.24   0.0465    998.3423    233.4569  21.43 2.439559e-09     1.338 3.522043e-11     1.213      1.731 1.043751e-10  21.5317        904
 3.50   0.0005    984.8656    558.4668  64.06 2.437464e-07     2.366 3.522043e-11     2.284      1.927 1.037393e-10  16.5327        905
 5.21   0.0799    993.2578    499.5501  86.89 1.416944e-09     1.165 3.522043e-11     0.990      1.805 1.042694e-10  22.1216        906
 5.45   0.1055    992.5884    345.6347 -43.83 1.072601e-09     1.091 3.522043e-11     0.940      1.808 1.041636e-10  22.4239        907
 5.49   0.0691    991.0809      9.0616 -59.40 1.628705e-09     1.965 3.522043e-11     1.448      3.447  1.03633e-10  21.9704        908
