#   1 NUMBER                 Running object number                                     
#   2 EXT_NUMBER             FITS extension number                                     
#   3 FLUX_BEST              Best of FLUX_AUTO and FLUX_ISOCOR                          [count]
#   4 FLUXERR_BEST           RMS error for BEST flux                                    [count]
#   5 MAG_BEST               Best of MAG_AUTO and MAG_ISOCOR                            [mag]
#   6 MAGERR_BEST            RMS error for MAG_BEST                                     [mag]
#   7 KRON_RADIUS            Kron apertures in units of A or B                         
#   8 X_IMAGE                Object position along x                                    [pixel]
#   9 Y_IMAGE                Object position along y                                    [pixel]
#  10 A_IMAGE                Profile RMS along major axis                               [pixel]
#  11 B_IMAGE                Profile RMS along minor axis                               [pixel]
#  12 THETA_IMAGE            Position angle (CCW/x)                                     [deg]
         1   1     43031.22      193.874 -11.5845   0.0049  3.87     63.4906     54.0606     5.079     4.642  10.24
         2   1     5793.242     100.5898  -9.4073   0.0189  3.50    984.8857     17.6089     4.179     1.842 -88.11
         3   1      3889.92     59.13771  -8.9749   0.0165  3.50     91.0583     18.7909     1.665     1.590 -77.68
         4   1     10050.32     62.48773 -10.0055   0.0068  3.50   1445.5699     15.4372     1.765     1.663 -58.56
         5   1     272.1539     51.46277  -6.0870   0.2054  8.71   1469.4524      7.7679     0.745     0.449 -68.75
         6   1     377.4186     54.35074  -6.4421   0.1564  5.20    145.3089      4.5160     1.257     0.896  44.41
         7   1     182.9064     38.65202  -5.6556   0.2295  7.14   1183.4982     10.4944     0.503     0.497  44.88
         8   1     47777.05     73.70651 -11.6980   0.0017  3.50   1078.2454     60.5870     2.101     1.994  78.89
         9   1      121.897     35.92011  -5.2150   0.3200  7.81    839.6812     14.3362     0.572     0.336  45.80
        10   1     815.5618     49.44383  -7.2786   0.0658  3.71    367.0246     25.5086     1.386     1.224 -44.58
        11   1     313.1539     34.96207  -6.2394   0.1212  3.96    384.0876     17.9751     1.065     0.750  -6.21
        12   1     628639.9     196.4835 -14.4960   0.0003  3.50   1107.3342    182.7325     5.842     5.048 -33.02
        13   1     412.5127     69.19193  -6.5386   0.1822  7.95    383.1618     24.5880     1.000     0.715  87.82
        14   1     411.0596     64.88685  -6.5348   0.1714  7.77   1110.5074     35.5278     1.018     0.640  83.69
        15   1     489.6743     67.20037  -6.7248   0.1490  6.92    326.4466     34.3293     1.064     0.824 -55.26
        16   1     329.6283     52.11837  -6.2951   0.1717  5.72   1521.2977     38.8936     1.154     0.680  57.82
        17   1     305.9594     49.78601  -6.2142   0.1767  5.84   1170.4801     39.8461     0.941     0.732  -0.97
        18   1     376.8821     68.45188  -6.4405   0.1972  5.61    440.1219     45.8528     1.403     1.002 -39.18
        19   1     266.6208     31.91586  -6.0647   0.1300  3.50    915.3459     43.2799     1.174     0.700 -44.82
        20   1     45395.29     71.36602 -11.6425   0.0017  3.50    537.4124     80.9598     2.020     1.918 -67.89
        21   1     123.0419     32.96255  -5.2251   0.2909  6.79   1225.9862     40.5038     0.782     0.319 -32.64
        22   1      192.621     45.51041  -5.7118   0.2566  6.55    265.9854     51.1657     0.939     0.465  36.65
        23   1     168.0422     40.37072  -5.5635   0.2609  6.43   1435.2108     51.0299     0.788     0.497 -33.32
        24   1     98.57642     30.27804  -4.9844   0.3336  6.80   1233.6754     49.3377     0.575     0.334  45.58
        25   1     1443.583     46.61609  -7.8986   0.0351  3.50    127.6706     75.9613     1.365     1.260  65.46
        26   1     408.2594     58.84993  -6.5273   0.1565  5.75    421.4473     82.8388     1.212     0.808 -51.35
        27   1     950.8154     90.83411  -7.4452   0.1037  5.12    376.7948     91.5345     1.886     1.573 -74.03
        28   1     67575.17     73.24439 -12.0745   0.0012  3.50    788.9210    122.5929     2.107     1.961 -57.93
        29   1     2300.057     54.35074  -8.4043   0.0257  3.64     55.9943     97.3432     1.501     1.385  -9.78
        30   1     333.5238     60.55608  -6.3078   0.1972  6.18    495.8493     92.9185     1.341     0.684  75.14
        31   1      651.375     81.16087  -7.0346   0.1353  6.08    452.5781     98.7693     1.703     0.981 -24.86
        32   1     154.2637     26.70272  -5.4707   0.1880  4.43   1075.8324     96.5883     0.766     0.435  21.36
        33   1     149.1322     37.31108  -5.4339   0.2717  8.01    270.3333    114.3489     0.584     0.329 -45.61
        34   1     162.4226     47.33886  -5.5266   0.3165  7.06     66.8318    117.8673     0.748     0.562  46.85
        35   1     103.2026      27.3311  -5.0342   0.2876  6.06    990.6282    118.7044     0.576     0.332 -41.71
        36   1     141.1593     42.01918  -5.3743   0.3233  8.28    154.4909    118.5058     0.502     0.498  45.33
        37   1     49095.18     255.5262 -11.7276   0.0057  4.24    403.1562    235.9001     6.429     5.300 -56.45
        38   1     292492.9       81.786 -13.6653   0.0003  3.50    317.8754    194.4204     2.391     2.159 -62.51
        39   1     38067.35      70.1665 -11.4514   0.0020  3.50   1468.1359    163.1395     1.999     1.918 -60.49
        40   1     187.1254     32.96255  -5.6803   0.1913  5.04    418.0420    132.4922     0.804     0.500   0.54
        41   1     8498.897     62.48773  -9.8234   0.0080  3.50    877.1224    171.1363     1.766     1.710 -68.32
        42   1     196.1323     40.37072  -5.7314   0.2235  5.36    353.1507    147.2958     0.879     0.605 -30.05
        43   1     162.4594     43.60536  -5.5269   0.2915  6.86   1279.9960    152.5081     0.803     0.500  -1.46
        44   1     1258.237      70.1665  -7.7494   0.0606  4.82    325.0115    172.3745     1.467     1.346 -64.12
        45   1     693.4874     45.51041  -7.1026   0.0713  3.59   1445.5350    165.8674     1.320     1.134  -0.27
        46   1     527.6473     45.88193  -6.8059   0.0944  4.17    104.3067    167.5935     1.173     1.010 -28.86
        47   1     222.1099     46.25047  -5.8664   0.2261  5.09   1368.2188    170.4302     1.080     0.717 -47.27
        48   1     110.8446     29.71204  -5.1118   0.2911  5.71    651.5150    169.4399     0.503     0.493 -35.83
        49   1     295.2533     45.88193  -6.1755   0.1688  4.46    574.8821    181.2359     1.275     0.773  23.27
        50   1     910.8036     55.58614  -7.3986   0.0663  4.36   1350.3933    193.3881     1.357     1.132 -35.33
        51   1     414.7947     68.69945  -6.5446   0.1799  8.45   1354.0366    186.9876     0.796     0.783 -74.11
        52   1     4322.574     105.6924  -9.0894   0.0266  3.72    827.4822    211.5532     3.936     1.949  -7.29
        53   1     1755.155     51.46277  -8.1108   0.0318  3.50    548.9205    207.5034     1.549     1.369 -81.30
        54   1     211.6431     40.37072  -5.8140   0.2072  7.58    267.5382    196.0324     0.765     0.324  56.83
        55   1     2049.233     58.04004  -8.2790   0.0308  4.87    414.8996    229.8139     1.967     1.652 -19.48
        56   1     499.4551     49.09927  -6.7462   0.1068  3.50    684.4574    211.4506     1.680     1.042 -82.33
        57   1     944.3723     59.99275  -7.4379   0.0690  4.07    349.7025    209.4233     1.598     1.217  43.13
        58   1     267.6458     33.47363  -6.0689   0.1358  3.50    250.6058    204.3587     0.981     0.848 -42.34
        59   1       1643.4     48.40279  -8.0394   0.0320  3.50   1305.9009    212.9739     1.403     1.346  53.84
        60   1     4246.785     144.3876  -9.0702   0.0369  4.51    562.2184    231.0750     3.381     2.852  -9.41
        61   1     99.23352     20.18536  -4.9916   0.2209  3.50   1498.4841    204.4280     0.505     0.489 -36.27
        62   1     173.2189     39.52071  -5.5965   0.2478  7.06    937.2287    205.7527     0.855     0.346 -19.28
        63   1     2112.648     54.66221  -8.3121   0.0281  3.57   1225.8657    224.5217     1.548     1.416 -53.97
        64   1     102743.3      75.5267 -12.5294   0.0008  3.50    997.2145    260.5782     2.174     2.033 -60.88
        65   1     86609.15     73.70651 -12.3439   0.0009  3.50     67.3777    266.7132     2.116     1.998 -78.85
        66   1     800.7629     80.95142  -7.2588   0.1098  5.20    345.6050    223.1785     1.579     1.463 -22.38
        67   1     537.4136     41.20319  -6.8258   0.0833  3.50    774.7524    223.2261     1.202     1.068 -19.32
        68   1     199.5187     40.78908  -5.7500   0.2220  7.24    740.7268    219.2476     0.845     0.353 -18.84
        69   1     1409.202     80.31981  -7.8724   0.0619  4.32    112.8208    244.2684     2.123     1.544  77.16
        70   1     3733.852     98.71583  -8.9304   0.0287  4.49    612.7909    256.2215     2.503     1.802 -37.89
        71   1     521.6777     74.16574  -6.7935   0.1544  6.09    838.4949    239.9036     1.369     1.007 -37.93
        72   1     148.7583     33.97702  -5.4312   0.2480  5.00   1478.8186    240.0472     0.940     0.464 -53.93
        73   1     358609.2     83.22636 -13.8866   0.0003  3.50    439.2092    313.2080     2.401     2.209 -58.52
        74   1     535.1672     71.60352  -6.8212   0.1453  6.70   1372.6152    252.6677     1.226     0.877 -44.30
        75   1      520.522     68.45188  -6.7911   0.1428  6.94    107.4959    251.4614     1.084     0.836 -45.23
        76   1     175.6583     36.85326  -5.6117   0.2278  5.43   1352.5072    254.3471     0.868     0.476   0.00
        77   1     20123.32     66.18213 -10.7592   0.0036  3.50   1486.2755    288.3375     1.869     1.782 -55.67
        78   1     4219.441     55.58614  -9.0631   0.0143  3.50   1522.1934    282.7324     1.561     1.489 -43.42
        79   1     511.7219     74.62215  -6.7726   0.1584  6.94   1273.5472    271.2609     1.161     0.926 -11.08
        80   1     1663.002     63.02876  -8.0522   0.0412  3.57    514.7311    290.6129     1.859     1.552 -61.03
        81   1     59340.31     72.31131 -11.9334   0.0013  3.50    905.2509    319.4862     2.069     1.942 -61.70
        82   1     14794.44     64.62468 -10.4252   0.0047  3.50    201.5941    303.9936     1.829     1.708 -73.78
        83   1     1054.587     97.15569  -7.5577   0.1000  5.16   1413.5083    297.8686     2.150     1.549 -39.26
        84   1     1787.919      50.4634  -8.1309   0.0307  3.56   1327.3584    294.7549     1.400     1.322 -23.02
        85   1     304744.2     80.31981 -13.7098   0.0003  3.50   1345.7200    352.2489     2.313     2.158 -52.96
        86   1       316302       81.786 -13.7503   0.0003  3.50    890.5778    352.2323     2.350     2.174 -52.57
        87   1     617.0115     67.95404  -6.9757   0.1196  6.19   1475.4912    294.2966     1.171     0.977 -66.12
        88   1     705.2452     45.51041  -7.1209   0.0701  3.50    563.5292    302.8696     1.321     1.261  64.37
        89   1     9588.647     60.27507  -9.9544   0.0068  3.50    697.1324    322.8518     1.711     1.657 -67.39
        90   1     594.9465     88.17868  -6.9362   0.1610  6.40     85.4069    309.7060     1.983     0.885 -81.45
        91   1     742.0648     85.83723  -7.1761   0.1256  5.00    641.0074    322.1810     2.195     1.269 -76.22
        92   1      1724.36     74.84931  -8.0916   0.0471  4.49    595.2689    328.1170     1.627     1.559 -50.18
        93   1     137.3737     31.37942  -5.3448   0.2481  5.36    226.3809    317.8036     0.752     0.447 -71.76
        94   1     6542.492     66.43815  -9.5394   0.0110  3.66    866.9109    347.0935     1.821     1.669 -38.15
        95   1     430.6477      53.0866  -6.5853   0.1339  5.35     93.4377    332.8581     1.068     0.836  -7.83
        96   1     216.0994     34.47306  -5.8366   0.1732  4.20   1545.6162    330.3324     0.994     0.631  -6.15
        97   1     346.4821     42.42128  -6.3492   0.1330  4.50   1440.3218    335.7877     0.986     0.855 -48.97
        98   1     5431.816     71.84022  -9.3374   0.0144  3.79    431.6613    356.5633     1.957     1.739 -76.63
        99   1     845.7324     44.75812  -7.3181   0.0575  3.50     54.4747    350.8575     1.290     1.224 -39.25
       100   1     175.9059     39.52071  -5.6132   0.2440  5.14     42.2829    348.6108     0.983     0.545 -59.05
       101   1      9911.62     59.99275  -9.9904   0.0066  3.50    760.8817    368.9762     1.739     1.636 -55.02
       102   1     296.0448     57.97803  -6.1784   0.2127  7.08    920.2661    351.1112     0.939     0.676 -17.72
       103   1     1681.042      50.4634  -8.0639   0.0326  3.50   1500.1698    362.0320     1.428     1.398  10.15
       104   1     3736.442     57.09282  -8.9311   0.0166  3.61    442.6443    368.2886     1.606     1.455 -44.79
       105   1     122.0979     28.54641  -5.2168   0.2539  6.16    350.3493    353.6877     0.575     0.334  43.36
       106   1     49872.85      70.1665 -11.7447   0.0015  3.50    231.2756    396.0084     2.003     1.932 -59.51
       107   1     382.9711     63.29754  -6.4579   0.1795  6.26    533.2850    360.5867     1.031     0.915  21.62
       108   1     360.6892     35.44432  -6.3928   0.1067  3.53   1033.7421    361.4968     1.094     0.910 -34.22
       109   1     185.4641     40.37072  -5.6706   0.2364  5.96   1415.6968    363.8832     1.038     0.416 -78.20
       110   1     537.8372     39.08878  -6.8266   0.0789  3.50    992.1270    373.7502     1.191     1.021 -58.62
       111   1     437.0312     61.11421  -6.6013   0.1519  4.95   1083.8434    373.9765     1.443     1.000 -45.30
       112   1     180.8215     39.52071  -5.6431   0.2374  6.12    210.5096    369.9420     0.786     0.499  87.58
       113   1     382.2458     63.56519  -6.4559   0.1806  6.59     71.4292    371.1455     1.204     0.716 -16.36
       114   1     586.8914     83.43011  -6.9214   0.1544  6.58    753.9877    376.9810     1.723     0.867  38.43
       115   1     6674.975     58.84993  -9.5611   0.0096  3.50   1461.0035    397.8752     1.678     1.607 -57.54
       116   1     252.0526     42.01918  -6.0037   0.1810  5.17     86.3840    376.6144     1.364     0.457  23.01
       117   1     8002.958     61.94198  -9.7581   0.0084  3.50    354.4046    398.9585     1.759     1.641 -56.82
       118   1     223.1406     48.75227  -5.8714   0.2373  5.97    125.6369    380.9103     0.902     0.682 -22.70
       119   1     1709.316     54.66221  -8.0821   0.0347  3.64   1088.6681    394.5150     1.553     1.372 -16.65
       120   1     45832.43     69.92413 -11.6529   0.0017  3.50    433.1460    420.3994     1.997     1.878 -57.35
       121   1     21834.44     66.94727 -10.8479   0.0033  3.50    837.1794    416.4439     1.895     1.794 -67.30
       122   1     180.0017     38.21027  -5.6382   0.2305  5.36   1195.2917    390.0044     0.739     0.674  85.80
       123   1     162.1672     39.08878  -5.5249   0.2618  6.62    260.4030    390.2305     0.744     0.452  71.18
       124   1     259.3776     46.25047  -6.0348   0.1936  4.81    977.5050    397.2771     1.103     0.780 -21.24
       125   1      461.718     69.19193  -6.6609   0.1627  5.97    626.5070    397.9344     1.528     0.795  15.77
       126   1     528.4319     41.20319  -6.8075   0.0847  3.50    305.5588    440.8153     1.189     1.082 -50.74
       127   1     195.2987     43.60536  -5.7267   0.2425  6.01    281.6329    407.6977     1.007     0.467 -82.40
       128   1     348.2639     56.79468  -6.3548   0.1771  7.28      2.5615    415.6719     1.141     0.754  28.95
       129   1     327.1414      50.4634  -6.2868   0.1675  7.80    526.8889    404.5128     0.784     0.499  -1.99
       130   1     3869.398     57.09282  -8.9691   0.0160  3.50    926.1458    425.0124     1.635     1.521 -46.76
       131   1     142617.7     75.75114 -12.8854   0.0006  3.50    807.3679    461.8470     2.148     2.048 -54.81
       132   1     233.6384     54.03748  -5.9214   0.2512  7.26   1562.2982    413.7131     1.155     0.451 -60.78
       133   1     16073.22     64.09712 -10.5153   0.0043  3.50    251.9271    438.7642     1.813     1.728 -54.88
       134   1     877.7545     78.39442  -7.3584   0.0970  4.91    158.7295    421.8596     1.660     1.444  50.88
       135   1     84.70972     25.39935  -4.8198   0.3256  5.46    199.3263    412.6987     0.560     0.342  43.64
       136   1     187.2247     40.37072  -5.6809   0.2342  9.12    558.6304    415.3152     0.584     0.328  42.89
       137   1     272.7778     54.97191  -6.0895   0.2189  6.12   1203.5216    419.5396     1.222     0.608  13.28
       138   1     1226.428     50.12585  -7.7216   0.0444  3.50   1421.9036    433.6358     1.428     1.337 -17.73
       139   1     525.3582     70.64876  -6.8011   0.1460  6.05   1179.3110    427.7109     1.296     0.986  20.69
       140   1     136.8037     33.97702  -5.3402   0.2697  5.64   1579.7715    420.6244     0.757     0.446  17.88
       141   1     288.1119     54.97191  -6.1489   0.2072  7.11   1063.8502    424.8950     0.815     0.670 -46.61
       142   1     421.1068     65.14796  -6.5610   0.1680  6.86    717.7710    431.8513     0.930     0.895 -64.55
       143   1     523.5742     54.35074  -6.7974   0.1127  5.00    151.0015    434.9498     1.154     0.980  25.47
       144   1     7422.975     173.4454  -9.6764   0.0254  4.46    850.1890    468.5386     7.442     1.903  22.22
       145   1     5115.388     59.42409  -9.2722   0.0126  3.51     21.1382    451.1122     1.703     1.572 -39.37
       146   1     885.1393     78.82635  -7.3675   0.0967  5.35    122.1262    446.1109     1.653     1.204 -32.70
       147   1     136.2568     31.37942  -5.3359   0.2501  7.20    353.3013    434.6680     0.562     0.341  46.61
       148   1     829.6637     65.92511  -7.2973   0.0863  3.57    884.3464    448.0235     2.252     1.419  -1.26
       149   1     5648.761     58.27011  -9.3799   0.0112  3.50     34.3958    458.6750     1.679     1.537 -60.50
       150   1     120.1196     32.44342  -5.1990   0.2933  5.33    654.5854    444.1706     0.757     0.448 -70.39
       151   1     1798.967     54.97191  -8.1376   0.0332  3.53    468.4730    464.5988     1.596     1.441 -73.92
       152   1     188.5828     32.96255  -5.6888   0.1898  4.28   1533.1399    453.8176     0.790     0.678  37.42
       153   1     503.6198     58.56074  -6.7553   0.1263  5.10   1096.1396    461.9113     1.156     1.063  54.35
       154   1     1461.691     51.13182  -7.9121   0.0380  3.50    254.1115    472.0582     1.524     1.321 -72.83
       155   1     300.4543     47.69614  -6.1944   0.1724  5.22    724.6503    462.3787     1.116     0.728 -28.34
       156   1     145.0743     31.91586  -5.4040   0.2389  7.22   1223.6603    457.7005     0.565     0.339 -42.96
       157   1     2149.442     51.13182  -8.3308   0.0258  3.50    734.7728    472.9619     1.496     1.347 -38.58
       158   1      2825.51     54.03748  -8.6277   0.0208  3.50    922.8173    478.7596     1.544     1.447 -35.41
       159   1     948.7179      53.0866  -7.4428   0.0608  3.92   1276.8331    478.7934     1.380     1.256 -53.38
       160   1     170.7378     33.97702  -5.5808   0.2161  4.44   1168.0371    476.5136     0.813     0.676 -89.76
       161   1     20739.54     168.3795 -10.7920   0.0088  4.27    518.6295    533.7934     4.107     3.566  28.40
       162   1     1215.531     46.61609  -7.7119   0.0416  3.50   1070.4277    484.9557     1.365     1.226 -66.11
       163   1     184.5258     42.01918  -5.6651   0.2473  7.96    781.5225    473.4778     0.505     0.494  45.02
       164   1     2397.827     112.3873  -8.4495   0.0509  4.94     82.5904    496.9649     2.338     2.068  56.28
       165   1     635.8462     73.24439  -7.0084   0.1251  5.19    839.5610    489.7222     1.974     0.945  85.43
       166   1     2190.413     98.71583  -8.3513   0.0489  4.09   1186.6776    496.5237     2.961     1.842 -15.91
       167   1     232.8306     38.21027  -5.9176   0.1782  4.58   1309.1306    481.6935     0.894     0.694  71.28
       168   1     218.3352     31.91586  -5.8478   0.1587  3.62    682.6145    479.8593     1.030     0.720  17.68
       169   1     158.8745     40.37072  -5.5026   0.2760  5.99   1520.4889    481.6788     0.921     0.467  -0.10
       170   1     12009.21     68.47414 -10.1988   0.0062  3.50   1302.2382    513.2880     1.839     1.727 -66.23
       171   1     1098.585     65.40804  -7.6021   0.0647  3.73    763.0609    505.2572     1.787     1.614  35.25
       172   1     3043.683     96.27802  -8.7085   0.0344  3.50   1460.9927    516.2645     4.349     1.624  24.44
       173   1     673.4613     43.21427  -7.0708   0.0697  3.50    863.5478    502.7133     1.248     1.114  86.67
       174   1     320.7377     35.44432  -6.2654   0.1200  3.50    366.2104    498.6334     1.014     0.951 -49.91
       175   1     365.9149     41.20319  -6.4085   0.1223  3.93   1310.0952    502.3745     1.173     0.897 -19.71
       176   1     1341.003     50.49008  -7.8186   0.0409  4.28   1310.0308    514.1793     1.494     1.427  82.91
       177   1      670.176     42.01918  -7.0655   0.0681  3.50   1179.1089    514.5804     1.341     1.068 -56.89
       178   1     807.8052     85.44076  -7.2683   0.1149  5.57    164.3583    510.5956     2.204     1.004  -2.33
       179   1     463.8123     45.51041  -6.6659   0.1066  4.19    641.4071    520.3478     1.226     0.908 -66.00
       180   1     212.2947     42.01918  -5.8173   0.2150  8.37    453.4842    511.4778     0.503     0.496  44.04
       181   1     198.8195     26.70272  -5.7461   0.1459  3.50   1518.8837    519.1760     0.828     0.669  43.20
       182   1     327859.7     81.57816 -13.7892   0.0003  3.50   1315.8531    588.6913     2.329     2.162 -46.59
       183   1     183.8009     42.01918  -5.6609   0.2483  8.13    854.4668    521.5092     0.500     0.498 -59.60
       184   1     1840.414     66.69319  -8.1623   0.0394  4.34    999.7307    541.0020     1.569     1.410 -58.21
       185   1     305.8877     44.75812  -6.2139   0.1589  4.50    404.4706    536.8311     1.380     0.681  47.38
       186   1     385.3915     65.40804  -6.4648   0.1843  6.50    933.8276    545.6520     1.235     0.753  70.97
       187   1     414053.9     99.74236 -14.0426   0.0003  3.50    483.1478    631.9619     2.858     2.668 -47.23
       188   1     2356.087     59.13771  -8.4305   0.0273  3.70   1041.5421    559.8239     1.577     1.488 -18.76
       189   1     7149.935     61.66729  -9.6358   0.0094  3.50   1242.7255    573.4060     1.761     1.644 -48.70
       190   1     6790.355     159.7919  -9.5797   0.0256  4.47    782.7070    597.4254     3.545     3.355 -83.48
       191   1     1570.653     73.24439  -7.9902   0.0506  4.22     45.6350    571.6400     1.992     1.404  59.09
       192   1     169.1877     31.91586  -5.5709   0.2049  4.18    778.7782    556.2180     0.804     0.683  45.57
       193   1     9450.511     61.11421  -9.9386   0.0070  3.50    144.8262    581.4234     1.779     1.649 -85.18
       194   1     1585.029      77.9601  -8.0001   0.0534  3.50   1448.0365    572.2832     2.736     1.688  21.10
       195   1     411.5709     43.21427  -6.5361   0.1140  3.95    139.6900    565.5809     1.148     1.009 -53.99
       196   1     9507.704     60.83578  -9.9452   0.0069  3.50    318.9863    582.9928     1.741     1.667 -39.14
       197   1     294.6449     53.40544  -6.1732   0.1968  6.38    905.5596    563.6564     1.049     0.627   5.49
       198   1     1390.805     78.39442  -7.8582   0.0612  5.58   1336.6144    575.7251     1.448     1.293 -63.76
       199   1     866.7444     88.75439  -7.3447   0.1112  6.82   1001.5249    576.9731     1.399     1.121 -66.98
       200   1     711.9292     44.37719  -7.1311   0.0677  3.50     75.9934    585.4980     1.282     1.160  34.12
       201   1     112.1741     31.37942  -5.1247   0.3038  5.61    549.0676    576.2507     0.664     0.432  -3.84
       202   1     129.6456     33.97702  -5.2819   0.2846  7.52    740.6813    579.6700     0.569     0.338 -45.54
       203   1     1319.339     57.97803  -7.8009   0.0477  4.02   1555.2887   1002.4446     1.475     1.318 -75.10
       204   1     814.4829     62.21545  -7.2772   0.0830  4.61    655.1014   1597.9525     1.793     1.294 -32.85
       205   1     716.1764     68.69945  -7.1375   0.1042  5.62    374.0342   1595.9124     1.272     1.258  41.13
       206   1      401.502     61.66729  -6.5092   0.1668  6.88   1384.9441   1594.0922     1.473     0.518 -19.49
       207   1     262.0231     54.35074  -6.0458   0.2253  6.99    567.1038   1592.8507     0.836     0.671  41.77
       208   1     1664.983     51.13182  -8.0535   0.0334  3.51     92.7359   1571.3456     1.463     1.342 -46.28
       209   1     97.58826     20.18536  -4.9735   0.2246  3.50     14.4994   1523.4841     0.509     0.490  44.62
       210   1      8048.07     61.66729  -9.7642   0.0083  3.50    392.7216   1515.7332     1.718     1.630 -44.48
       211   1     475.2513     68.20341  -6.6923   0.1559  5.42   1547.0354   1516.1362     1.454     1.004  59.82
       212   1     99.54089     29.13506  -4.9950   0.3179  6.41    886.7118    952.6561     0.561     0.340 -47.95
       213   1     200.1577     32.96255  -5.7534   0.1788  3.50    267.9047    950.6980     0.947     0.863  28.11
       214   1     319.3738     34.96207  -6.2607   0.1189  3.53    445.2767    948.7698     1.064     0.910  -8.36
       215   1     151.7059     25.39935  -5.4525   0.1818  3.50    133.2829    947.9496     0.730     0.666  89.95
       216   1     1869.599     54.97191  -8.1794   0.0319  3.72   1067.0671    939.9116     1.543     1.337 -40.96
       217   1     169.5962     33.97702  -5.5735   0.2176  7.61    725.6536    942.2944     0.565     0.339  42.39
       218   1     714.5457     82.81739  -7.1351   0.1259  7.42    515.9601    939.1722     1.278     0.921  26.90
       219   1     14949.43     64.09712 -10.4366   0.0047  3.50   1178.4397    930.5093     1.809     1.764 -63.94
       220   1     251.4135     42.81961  -6.0010   0.1850  5.70   1118.5709    933.8318     0.875     0.614  12.09
       221   1     103.7645     34.96207  -5.0401   0.3659  7.04   1027.5371    933.5328     0.516     0.481  45.25
       222   1     1170.666     65.66708  -7.6711   0.0609  4.76   1322.4060    929.1013     1.407     1.267 -85.48
       223   1     192.8075     43.21427  -5.7128   0.2434  6.25    665.7037    926.4553     0.928     0.456 -88.92
       224   1     152.7113     39.08878  -5.4597   0.2780  8.62    934.3347    926.6777     0.573     0.336  44.43
       225   1     90.55615     21.80268  -4.8923   0.2615  5.11     46.6976    926.6449     0.572     0.335 -47.40
       226   1     131.1097     32.96255  -5.2941   0.2730  6.33   1027.5399    919.9985     0.762     0.323  56.68
       227   1     211.2029     42.01918  -5.8117   0.2161  8.42    252.9750    918.4757     0.796     0.313  32.09
       228   1     1017.271     61.11421  -7.5186   0.0652  4.47    838.4932    913.5744     1.372     1.256 -17.32
       229   1     462.8733     50.79871  -6.6637   0.1192  4.51   1000.9104    913.3035     1.225     0.979 -11.44
       230   1     329.5084      50.4634  -6.2947   0.1663  8.56    658.8084    908.4130     0.749     0.447 -20.19
       231   1     469.7433     63.83171  -6.6797   0.1476  5.80   1315.1288    905.2918     1.390     0.833  40.86
       232   1     6382.438     58.84993  -9.5125   0.0100  3.50    302.8273    901.2191     1.691     1.589 -74.09
       233   1     348624.4     141.5376 -13.8559   0.0004  3.50    183.6337    882.8359     4.129     3.698 -36.29
       234   1      7348.54     164.6066  -9.6655   0.0243  4.11    224.3853    879.3942     7.579     1.983 -89.82
       235   1     928.6182     82.61214  -7.4196   0.0966  5.48   1304.8312    886.6755     1.659     1.272  69.25
       236   1     222.4961     42.01918  -5.8683   0.2051  8.04    680.4579    889.4891     0.503     0.495  50.42
       237   1     1433.155     83.43011  -7.8907   0.0632  4.55    538.7819    896.9634     2.098     1.525  -3.00
       238   1     957.5479     58.84993  -7.4529   0.0667  4.20   1500.5457    886.5468     1.461     1.296   3.01
       239   1     360.6166     49.09927  -6.3926   0.1479  4.40    339.2329    885.8094     1.330     0.893 -50.57
       240   1     1480.995     109.9438  -7.9264   0.0806  5.88   1177.1078    879.0529     1.941     1.680  78.38
       241   1     663.9479     57.68447  -7.0553   0.0944  4.58    960.6887    878.3823     1.256     1.192  83.41
       242   1     215.8893     44.37719  -5.8356   0.2232  7.22    673.3711    879.8236     0.996     0.374   4.42
       243   1     250.8707     39.52071  -5.9986   0.1711  4.95    541.8445    877.6362     0.889     0.666 -68.79
       244   1     3004.308     87.98594  -8.6944   0.0318  4.43   1103.6156    870.1768     2.074     1.779 -61.56
       245   1     295091.4      80.5309 -13.6749   0.0003  3.50   1224.4911    860.0833     2.319     2.159 -47.68
       246   1      1206.46     91.94868  -7.7038   0.0828  5.29    939.5432    868.6845     1.995     1.411  25.12
       247   1      310.661     48.75227  -6.2307   0.1704  5.10    643.5370    870.6064     1.037     0.813 -54.39
       248   1     648.6589     58.27011  -7.0300   0.0976  3.90    325.6322    889.3626     1.630     1.281  17.18
       249   1       122.83     33.97702  -5.2233   0.3004  7.64    454.3147    867.6809     0.563     0.341  45.23
       250   1     86.22729     20.18536  -4.8391   0.2542  4.34   1453.3175    892.3138     0.562     0.341 -44.80
       251   1     202.1416     42.01918  -5.7641   0.2257  8.00    987.5135    898.5093     0.505     0.495  45.27
       252   1     114530.7     74.84931 -12.6473   0.0007  3.50   1592.5045    881.0706     2.127     1.980 -66.40
       253   1     88.30493     28.54641  -4.8650   0.3511  5.35    379.4817    900.5183     0.511     0.488 -45.00
       254   1     958.7104     60.83578  -7.4542   0.0689  4.33   1157.4747    860.3961     1.415     1.294  -1.20
       255   1     167.6548     45.51041  -5.5610   0.2948  6.61   1554.1703    861.1950     0.759     0.567  42.07
       256   1      809.032     67.70375  -7.2699   0.0909  4.62   1339.8370    859.2386     1.590     1.265 -46.16
       257   1     455.5347     49.44383  -6.6463   0.1179  4.33   1425.8367    894.8569     1.211     1.023 -39.54
       258   1     226.1333     32.96255  -5.8859   0.1583  3.94    545.3185    856.4521     1.014     0.653  83.02
       259   1     1325.035     105.6924  -7.8056   0.0866  6.69   1206.5642    845.8800     1.807     1.294  85.17
       260   1       635.01     54.66221  -7.0070   0.0935  4.64   1063.6742    845.9662     1.197     1.105  89.16
       261   1     200.7412     37.76335  -5.7566   0.2043  8.32    358.7094    847.6516     0.564     0.339 -47.94
       262   1     1280.225     62.75883  -7.7682   0.0532  4.01   1106.0085    844.1765     1.649     1.396  18.02
       263   1     2206.113     101.0949  -8.3591   0.0498  5.35   1247.0768    838.6929     2.123     1.570 -32.77
       264   1     1192.682     47.33886  -7.6913   0.0431  3.50    298.6949    837.3973     1.378     1.249 -26.40
       265   1     219.9159     40.37072  -5.8556   0.1994  5.57   1520.2875    837.5710     0.957     0.484   7.21
       266   1     375.0565     45.13583  -6.4352   0.1307  4.33    819.0198    836.5140     1.082     0.929  -0.57
       267   1     6522.816     59.99275  -9.5361   0.0100  3.50    654.3710    823.7377     1.702     1.624 -54.11
       268   1     301.8156     51.46277  -6.1994   0.1852  5.65   1398.2626    820.7242     1.033     0.755 -45.46
       269   1     300.8069     56.19366  -6.1957   0.2029  6.21    702.4227    819.5537     0.930     0.814  75.71
       270   1       6124.2     61.66729  -9.4676   0.0109  3.50   1378.6096    803.8622     1.740     1.702 -21.73
       271   1     17694.21     78.82635 -10.6196   0.0048  3.50    695.5490    799.2562     2.594     1.857 -86.67
       272   1     2684.385      53.0866  -8.5721   0.0215  3.50     41.1097    801.5494     1.556     1.367 -47.21
       273   1     130.0215     21.00959  -5.2850   0.1755  3.50   1348.2412    786.3645     0.742     0.450  16.84
       274   1      3097.44     124.7035  -8.7275   0.0437  4.73   1427.4871    774.9242     2.969     2.204 -80.02
       275   1     1296.223     48.75227  -7.7817   0.0408  3.50    391.7379    767.5738     1.399     1.279 -67.87
       276   1     393.0259     62.48773  -6.4861   0.1727  6.61    140.3967    768.5201     1.096     0.753 -55.99
       277   1     199.4095     42.01918  -5.7494   0.2288  8.06   1020.4913    759.9716     0.794     0.314  57.79
       278   1     412.6298     63.83171  -6.5389   0.1680  8.05   1341.6193    758.7314     0.999     0.595 -19.11
       279   1     380.9918     64.62468  -6.4523   0.1842  7.71    195.3306    755.4391     1.281     0.507  50.93
       280   1     132.9686     30.27804  -5.3094   0.2473  6.87    433.6602    754.6496     0.587     0.327 -45.40
       281   1     227.4082     46.97887  -5.8920   0.2244  8.17   1080.7517    753.2500     0.867     0.354 -18.40
       282   1     1400.082     54.35074  -7.8654   0.0422  3.94    556.2998    743.5427     1.383     1.282 -21.20
       283   1     402587.1     83.22636 -14.0121   0.0002  3.50    404.7045    724.9424     2.406     2.206 -46.93
       284   1     627.7943      59.7091  -6.9945   0.1033  4.90   1157.9508    738.9064     1.220     1.143   1.73
       285   1     872.9103     73.70651  -7.3524   0.0917  5.69    649.5158    736.8120     1.284     1.211 -57.46
       286   1     68578.81     74.16574 -12.0905   0.0012  3.50    848.3037    727.4276     2.120     2.006 -42.83
       287   1     1202.534     61.94198  -7.7002   0.0559  4.33   1178.2656    728.2363     1.497     1.275 -71.71
       288   1     153.8414     30.27804  -5.4677   0.2137  6.81   1272.3551    740.3104     0.576     0.333 -43.06
       289   1     604.7556     74.62215  -6.9539   0.1340  6.41   1394.6674    722.1498     1.174     1.065  67.01
       290   1     1341.879     56.79468  -7.8193   0.0460  4.03    808.2800    716.7179     1.484     1.251 -58.15
       291   1     1712.129     76.19806  -8.0838   0.0483  5.19   1163.7408    709.5805     1.443     1.381  10.74
       292   1     1735.623     79.46984  -8.0986   0.0497  4.50   1339.0225    704.9365     1.746     1.681 -35.32
       293   1     157.0273     24.02538  -5.4899   0.1662  3.50    794.6355    707.9461     0.715     0.646  86.27
       294   1      2639.49     64.36144  -8.5538   0.0265  3.92    952.2862    703.4935     1.625     1.545 -18.86
       295   1     548.3467     62.21545  -6.8476   0.1232  4.48    582.8018    699.7203     1.869     0.964   2.02
       296   1     734.9973     57.38646  -7.1657   0.0848  5.28   1213.5952    692.6083     1.506     1.276  57.54
       297   1     452.3135     42.75916  -6.6386   0.1027  5.60   1213.6564    687.6442     1.307     0.976 -40.15
       298   1      99.6261     20.18536  -4.9959   0.2200  4.40   1316.2979    693.6906     0.551     0.345  45.71
       299   1     241.1119     45.51041  -5.9555   0.2050  5.78    316.1330    692.8769     0.828     0.663  48.88
       300   1     2766.432     136.1577  -8.6048   0.0535  4.67    472.4936    684.0256     2.910     2.718  52.83
       301   1     1959.474     54.66221  -8.2303   0.0303  3.57    644.0512    686.2902     1.531     1.435  42.53
       302   1     171.5887     25.39935  -5.5862   0.1608  3.50    130.8793    688.1401     0.805     0.656  46.46
       303   1     1919.238     85.04243  -8.2078   0.0481  4.57    543.4663    682.3370     2.121     1.519 -63.27
       304   1     159.3713     38.65202  -5.5060   0.2634  5.25    231.1585    673.8572     1.162     0.421  61.85
       305   1     410.7274     64.09712  -6.5339   0.1695  6.74   1221.3247    669.7614     0.974     0.859 -22.02
       306   1     220.6848     47.69614  -5.8594   0.2347  6.71   1180.0011    667.3170     0.731     0.668   2.17
       307   1     66880.68     72.77935 -12.0633   0.0012  3.50   1464.2974    649.1271     2.075     1.942 -58.66
       308   1      577.167     57.68447  -6.9033   0.1085  4.97    870.9727    655.4444     1.205     1.054   6.69
       309   1     365.5726     35.92011  -6.4074   0.1067  3.50   1221.6729   1551.7955     1.026     0.978 -32.21
       310   1     313.3796     38.21027  -6.2402   0.1324  4.14    652.7488    646.8544     0.962     0.824  27.70
       311   1      10215.6     62.75883 -10.0232   0.0067  3.50    536.7190    640.5812     1.775     1.691 -68.30
       312   1     188.4766     45.13583  -5.6881   0.2601  7.03    276.5096    642.0137     0.787     0.499 -87.93
       313   1     768.9274     62.48773  -7.2147   0.0883  5.15    805.9449    631.7795     1.254     1.124 -67.46
       314   1     123.4049     27.94536  -5.2283   0.2459  4.72    941.6058    629.6339     1.042     0.326 -21.03
       315   1     1436.236     76.42053  -7.8931   0.0578  5.45   1581.3296    624.2540     1.442     1.261 -24.63
       316   1     542.3247     73.70651  -6.8356   0.1476  6.97   1151.0912    619.1545     1.117     0.934  43.65
       317   1     150.0359     38.65202  -5.4405   0.2798  7.27   1234.5254    616.4916     0.500     0.499 -74.41
       318   1     301.4103     57.09282  -6.1979   0.2057  7.54    944.9097    610.1631     0.839     0.661  41.60
       319   1     136.0062     23.30804  -5.3339   0.1861  3.50   1011.9153    608.4720     0.785     0.497   4.20
       320   1     1076.822     48.40279  -7.5804   0.0488  3.50    586.0947    606.2894     1.357     1.343 -31.41
       321   1       981.53     42.81961  -7.4798   0.0474  3.50    861.4935   1562.1376     1.262     1.158   5.33
       322   1     239.8666     52.11837  -5.9499   0.2360  5.98    733.3308   1529.5508     1.023     0.681  32.68
       323   1     139.1869     29.71204  -5.3590   0.2318  5.15   1139.4061    589.1851     0.742     0.454  71.47
       324   1     1587.659     81.57816  -8.0019   0.0558  4.94    784.6982   1566.7651     1.821     1.377 -84.12
       325   1     239.3092     45.51041  -5.9474   0.2065  5.83   1414.7047   1581.9138     1.253     0.472  68.45
       326   1     24830.35     154.8275 -10.9875   0.0068  3.51    682.1384   1553.5024     4.698     3.910 -29.96
       327   1     1239.426     46.97887  -7.7331   0.0412  3.50   1108.8071   1585.7356     1.410     1.206 -45.53
       328   1     59672.43     69.19193 -11.9394   0.0013  3.50    304.2780   1564.5630     1.966     1.875 -45.84
       329   1     3547.772     56.49497  -8.8749   0.0173  3.53    135.1462   1542.6790     1.585     1.524 -57.03
       330   1     152.0295     38.65202  -5.4548   0.2761  7.41   1491.4977   1576.4824     0.516     0.483  44.73
       331   1     200.0463     30.83364  -5.7528   0.1674  3.50   1069.2076   1586.8705     0.977     0.733 -26.32
       332   1     59164.02     68.69945 -11.9301   0.0013  3.50    487.7123   1558.8706     1.943     1.876 -43.24
       333   1     182.1584     28.54641  -5.6511   0.1702  3.59   1566.5850   1562.9105     1.434     0.440 -28.67
       334   1     269.5809     50.79871  -6.0767   0.2046  8.06    386.6744   1565.3141     0.775     0.483  64.22
       335   1     2040.485     52.11837  -8.2743   0.0277  3.50     22.0536   1567.4845     1.501     1.336 -35.09
       336   1     792.8906     49.09927  -7.2480   0.0672  3.50    863.4279   1546.9426     1.442     1.277  79.12
       337   1     424.8749     53.40544  -6.5707   0.1365  4.21   1429.4083   1536.6472     1.567     0.952 -57.98
       338   1     2423.062     57.68447  -8.4609   0.0259  3.80    654.6492   1543.5000     1.543     1.391 -44.43
       339   1     177.6746     35.92011  -5.6241   0.2196  7.78    198.6753   1477.6925     0.562     0.341 -44.09
       340   1     579.2338     64.88685  -6.9071   0.1217  4.68    415.7943   1533.0137     1.657     1.117 -28.03
       341   1     476.9335     57.09282  -6.6961   0.1300  4.87     84.3914   1519.6189     1.501     0.882  80.11
       342   1     140.5284     33.97702  -5.3694   0.2626  7.56   1412.6653   1502.3057     0.566     0.339  43.54
       343   1     315.9498      59.7091  -6.2490   0.2052  5.85    378.9753   1525.2084     1.380     0.702  80.66
       344   1     129.1177     30.27804  -5.2775   0.2547  6.91    263.3266   1539.6632     0.576     0.334  45.45
       345   1     116.6252     35.44432  -5.1670   0.3301  7.05    878.5313   1527.5273     0.500     0.498  49.71
       346   1     1108.832     100.0822  -7.6122   0.0980  5.74    654.1403    951.5252     2.123     1.347  78.51
       347   1      185.688     46.25047  -5.6720   0.2705  6.67   1312.1968   1504.6394     1.233     0.361 -60.46
       348   1      32121.6     65.92511 -11.2670   0.0022  3.50    269.3830   1508.0370     1.875     1.773 -51.48
       349   1     222.8401     47.69614  -5.8700   0.2324  6.75   1100.5942   1521.7552     0.997     0.482 -83.82
       350   1     471.2256     45.51041  -6.6831   0.1049  4.14    483.6699   1515.3909     1.145     1.021 -45.90
       351   1     321.8131     56.49497  -6.2690   0.1906  5.57    844.5074   1499.2957     1.147     0.828  14.72
       352   1     181.3448     34.96207  -5.6463   0.2094  7.80    930.6786   1497.3391     0.575     0.335  45.79
       353   1     971.0081     63.29754  -7.4681   0.0708  5.15    723.3754   1504.9111     1.267     1.119 -14.58
       354   1      665.934     71.84022  -7.0586   0.1172  5.01    575.1030   1483.2747     1.906     1.010 -33.51
       355   1     135.9866     28.54641  -5.3337   0.2280  5.75   1280.5354    977.4967     0.500     0.499  84.64
       356   1     174.9884     34.96207  -5.6075   0.2170  4.78     61.2813    953.0150     1.174     0.434 -34.44
       357   1     464.3571     57.09282  -6.6671   0.1335  5.50    452.6703    979.2097     1.079     0.952  73.39
       358   1     167.6138     38.65202  -5.5608   0.2504  5.78   1487.1891    982.8316     0.766     0.557 -47.73
       359   1     142.4395     41.61318  -5.3841   0.3173  7.72   1499.4553    972.4925     0.502     0.495 -53.16
       360   1     255.3835     55.89073  -6.0180   0.2377  6.56     77.8819   1489.0807     0.962     0.688 -75.41
       361   1     473.4916     69.19193  -6.6883   0.1587  5.46    998.5892   1476.3274     1.603     0.944  -9.60
       362   1     1352.684     77.08411  -7.8280   0.0619  4.69    453.9747    987.5121     1.715     1.484  88.37
       363   1     383.5015     39.08878  -6.4594   0.1107  3.50    416.2971    965.8497     1.233     0.947 -35.18
       364   1     58.40283     20.18536  -4.4161   0.3753  4.19    638.4839   1479.4890     0.501     0.499  46.79
       365   1     342.7936     55.89073  -6.3376   0.1771  5.38   1271.1970   1439.3828     1.095     0.914  84.54
       366   1     29242.71     65.14796 -11.1650   0.0024  3.50    558.4474    985.6581     1.860     1.774 -60.54
       367   1     225.3518     31.37942  -5.8822   0.1512  3.50    233.2787    998.9910     1.047     0.720 -18.29
       368   1      1154.55     87.59919  -7.6560   0.0824  5.84    797.9857    981.6761     1.536     1.395 -22.91
       369   1     573.9178      59.7091  -6.8971   0.1130  4.79    329.8878   1407.2278     1.283     1.109  77.17
       370   1      346.999     58.56074  -6.3508   0.1833  5.76    391.7621   1453.8417     1.190     0.813  21.98
       371   1     879.7427     65.14796  -7.3609   0.0804  4.31    726.9678   1060.6309     1.586     1.368  18.85
       372   1     135.7898     27.94536  -5.3322   0.2235  5.67    500.0000    993.0269     0.838     0.289  90.00
       373   1     189.1443     36.38968  -5.6920   0.2089  5.19    292.5060   1065.3551     0.931     0.478  -0.67
       374   1     156.4608     38.21027  -5.4860   0.2652  6.48      9.8381    992.5980     0.779     0.432  20.92
       375   1     410.3052     41.20319  -6.5328   0.1091  3.50      7.4519   1063.8134     1.309     0.988 -49.92
       376   1     293.1266      53.0866  -6.1676   0.1967  5.81    646.8270   1439.4318     1.087     0.718  47.40
       377   1     3534.412     55.89073  -8.8708   0.0172  3.50    224.7948   1436.1301     1.604     1.459 -34.44
       378   1     2432.179     50.79871  -8.4650   0.0227  3.50    619.1653   1440.6519     1.445     1.337   9.05
       379   1     337.7131     38.65202  -6.3214   0.1243  3.50     43.0163   1084.5770     1.129     1.014  33.22
       380   1     263.5171     49.78601  -6.0520   0.2052  8.23     88.3631   1450.7783     0.748     0.452 -73.90
       381   1     249.4447     32.96255  -5.9924   0.1435  3.50   1274.1162   1386.5995     1.184     0.678 -79.55
       382   1     517.4141     41.20319  -6.7846   0.0865  3.50      6.6659   1073.9574     1.253     1.042 -10.48
       383   1     144673.2     73.93649 -12.9010   0.0006  3.50   1090.4421   1435.2332     2.094     1.972 -47.26
       384   1     709.5211     93.95773  -7.1274   0.1438  7.30    341.5507   1432.6862     1.510     1.030  -7.52
       385   1     88.02637     30.27804  -4.8615   0.3735  6.66   1182.6630   1069.3281     0.577     0.334  44.61
       386   1     1642.569     55.58614  -8.0388   0.0368  3.89   1386.6493   1416.2998     1.425     1.377  19.76
       387   1     7238.156     58.27011  -9.6491   0.0087  3.50   1428.5128   1389.6022     1.644     1.588 -35.92
       388   1     225.8843     37.31108  -5.8847   0.1794  4.22   1347.0366   1437.3093     1.028     0.724  73.00
       389   1     252.0151     32.44342  -6.0036   0.1398  3.50    568.8696   1067.5095     1.051     0.731 -74.17
       390   1     463.8635     48.05077  -6.6660   0.1125  4.53    330.0615   1079.9409     1.125     0.943 -62.65
       391   1     1620.243     49.44383  -8.0240   0.0331  3.52   1038.7660   1393.0532     1.381     1.366  36.71
       392   1     412.1527     44.37719  -6.5376   0.1169  4.20   1597.1162   1066.6592     1.159     0.981  36.70
       393   1     2151.404     100.9268  -8.3318   0.0509  5.29   1219.1344   1072.8472     2.172     1.586 -71.81
       394   1      199.762     37.31108  -5.7513   0.2028  6.74      1.3369   1414.8446     1.069     0.416  76.87
       395   1     18254.69     66.69319 -10.6534   0.0040  3.50   1126.3615   1420.1652     1.926     1.752 -58.87
       396   1     14890.07     195.1847 -10.4322   0.0142  4.51   1135.0798   1360.4252     6.676     5.131  85.51
       397   1     164.4297     32.96255  -5.5400   0.2177  7.40    921.6893   1079.6525     0.573     0.335 -46.67
       398   1     686.1909     72.77935  -7.0911   0.1152  5.62    350.1120   1412.1393     1.424     1.101  23.37
       399   1      2542.01     54.03748  -8.5129   0.0231  3.50    308.4276   1409.1057     1.523     1.467  -7.76
       400   1     356584.6      115.516 -13.8804   0.0004  3.50   1159.7756   1367.0492     3.323     3.056 -48.42
       401   1     524.2604     44.75812  -6.7989   0.0927  3.50    887.7574   1162.6458     1.404     1.128 -42.33
       402   1      1032.52     64.62468  -7.5347   0.0680  4.68   1526.4138   1096.1305     1.384     1.254 -79.64
       403   1     975.7899     77.30404  -7.4734   0.0860  5.79   1031.5901   1401.4601     1.406     1.196  46.87
       404   1      80908.3     72.07615 -12.2700   0.0010  3.50    114.4738   1394.2668     2.040     1.936 -48.42
       405   1     451.5172     63.02876  -6.6367   0.1516  6.46    806.6446   1389.5433     0.949     0.941   0.13
       406   1     2595.778     63.29754  -8.5357   0.0265  4.13    713.2373   1391.2551     1.497     1.456  26.66
       407   1     141.1017     34.47306  -5.3738   0.2653  6.13   1384.9540   1388.2180     0.696     0.413   1.83
       408   1     113.8368     30.27804  -5.1407   0.2889  5.41   1584.7758   1388.9937     0.686     0.417 -89.72
       409   1     255.2057     46.61609  -6.0172   0.1984  5.53    318.5949   1380.3506     1.034     0.628  -4.36
       410   1     327.5732     54.66221  -6.2883   0.1812  8.31    429.0226   1094.4969     0.796     0.500  -2.01
       411   1     169.6725     42.81961  -5.5740   0.2741  5.88    705.8511   1371.3206     1.214     0.408 -32.13
       412   1     139.7474     22.56792  -5.3634   0.1754  3.74   1215.7539   1371.5497     0.718     0.456  21.02
       413   1     813.0535     91.20715  -7.2753   0.1218  7.57    152.0077   1353.2751     1.231     1.094  17.83
       414   1      145.442     41.61318  -5.4067   0.3107  9.28    568.3308   1157.6599     0.579     0.332  45.39
       415   1     10515.13     61.66729 -10.0545   0.0064  3.50    751.8358   1105.3257     1.770     1.620 -44.66
       416   1     8911.743     64.09712  -9.8749   0.0078  3.50   1018.9562   1373.4700     1.815     1.707 -23.41
       417   1     689.7111     68.62856  -7.0967   0.1081  7.83   1015.6125   1260.4321     1.971     1.064  58.28
       418   1     1570.286     79.04143  -7.9899   0.0547  5.52    742.2533   1294.2798     1.481     1.308  72.75
       419   1     7247.267      70.1665  -9.6504   0.0105  3.50    762.1052   1292.2153     2.162     1.723 -25.95
       420   1     202.7543     39.52071  -5.7674   0.2117  7.56    149.4737   1369.4689     0.499     0.499  17.40
       421   1     546.6675     78.39442  -6.8443   0.1557  6.99    359.0297   1131.8344     1.138     1.043  34.13
       422   1     16269.34     63.29754 -10.5284   0.0042  3.50    183.5802   1130.7366     1.787     1.711 -57.92
       423   1      638.843     62.21545  -7.0135   0.1058  5.31    386.9082   1331.2352     1.306     0.996   1.03
       424   1     31117.38     67.20037 -11.2325   0.0023  3.50    148.0981   1139.3163     1.899     1.811 -46.09
       425   1     305.0575     49.78601  -6.2110   0.1772  4.94    605.5798   1346.4969     1.185     0.774 -50.92
       426   1      2909.88     64.09712  -8.6597   0.0239  4.18    669.6346   1308.3901     1.506     1.500 -12.17
       427   1     1034.809     65.66708  -7.5372   0.0689  5.12    107.4225   1333.5925     1.327     1.156 -28.91
       428   1     3004.966     54.66221  -8.6946   0.0198  3.50    642.4633   1090.0750     1.578     1.413 -46.35
       429   1     30171.84     68.45188 -11.1990   0.0025  3.50    659.9951   1320.9133     1.941     1.824 -43.03
       430   1     1182.315     84.03835  -7.6818   0.0772  5.13   1139.4135   1331.2213     1.767     1.445 -89.82
       431   1     772.3508     65.40804  -7.2195   0.0920  5.43    264.0417   1320.0242     1.309     1.038 -45.50
       432   1      3730.81     57.46028  -8.9295   0.0167  3.93    655.8417   1330.7634     1.684     1.650   4.85
       433   1     4277.483     61.94198  -9.0780   0.0157  3.78   1331.4630   1278.8961     1.622     1.533 -56.91
       434   1     745.5989     47.33886  -7.1813   0.0690  3.83    892.8640   1305.5667     1.231     1.139  77.78
       435   1     236.6691     51.79161  -5.9354   0.2377  5.45    614.2117   1245.3409     1.066     0.800  55.72
       436   1       191102     77.30404 -13.2032   0.0004  3.50    724.8672   1299.2703     2.192     2.053 -47.60
       437   1     2994.649     101.2627  -8.6909   0.0367  4.36   1036.2755   1308.5709     2.662     1.897 -36.97
       438   1     154.0298     37.76335  -5.4690   0.2663  8.09    574.6574   1307.6787     0.576     0.334 -44.07
       439   1     13861.03     129.6428 -10.3545   0.0102  3.90    610.0049   1273.5858     4.226     2.471 -58.39
       440   1     295.5752     43.60536  -6.1767   0.1602  4.25     54.0051   1300.2339     1.122     0.858 -29.97
       441   1     133.6543     26.05919  -5.3150   0.2117  3.85    215.8559   1263.1622     0.728     0.565 -41.55
       442   1     204.1891     36.38968  -5.7751   0.1935  5.39    545.9752   1292.0193     0.899     0.525 -45.38
       443   1     818.5677     42.81961  -7.2826   0.0568  3.50    412.7370   1293.9078     1.287     1.129  23.44
       444   1      1447.01     83.22636  -7.9012   0.0625  4.35    432.4522   1260.2809     1.924     1.810 -61.87
       445   1        232.7     48.05077  -5.9170   0.2243  6.02    343.4074   1278.3990     0.918     0.658  -1.19
       446   1     396.1248     57.09282  -6.4946   0.1565  5.31    698.3151   1274.1146     1.243     0.866 -74.17
       447   1     163.9514     38.21027  -5.5368   0.2531  8.40    186.2973   1158.6622     0.563     0.340  47.11
       448   1     3220.438     54.35074  -8.7698   0.0183  3.50    807.8691   1266.2653     1.553     1.437 -34.50
       449   1     2207.446     138.7514  -8.3597   0.0683  5.63   1429.3060   1213.6493     2.725     2.083  77.16
       450   1     232.0188     48.40279  -5.9138   0.2266  5.86    857.0435   1238.9690     0.811     0.782 -50.04
       451   1     747.1375     69.19193  -7.1835   0.1006  5.05    219.3827   1131.0317     1.568     1.132 -20.53
       452   1     2861.275     59.42409  -8.6414   0.0226  3.76    304.8844   1235.1206     1.601     1.472 -70.00
       453   1     1207.828     103.2549  -7.7050   0.0928  6.60    599.0931   1230.6104     1.561     1.462  13.10
       454   1      1961.54     94.67773  -8.2315   0.0524  5.15   1075.5712   1203.8763     2.022     1.572  37.43
       455   1      1588.45     51.13182  -8.0024   0.0350  3.50   1553.5206   1238.0283     1.431     1.370 -12.61
       456   1     915.9375     48.40279  -7.4047   0.0574  3.66    672.6531   1243.3585     1.362     1.197 -75.48
       457   1       766037      209.124 -14.7106   0.0003  3.50    995.1972   1222.2170     6.401     5.215 -29.50
       458   1     116.1475     27.94536  -5.1625   0.2613  5.50    829.0000   1211.9683     0.845     0.289  90.00
       459   1      14651.2     61.39137 -10.4147   0.0046  3.50    513.0118   1215.4215     1.744     1.692 -59.01
       460   1     1106.218     72.07615  -7.6096   0.0708  4.69   1353.0853   1154.6307     1.612     1.412 -56.52
       461   1     9719.482     69.19193  -9.9691   0.0077  3.50   1195.0623   1219.7524     1.918     1.903  47.81
       462   1     497.3478      57.3894  -6.7417   0.1253  5.03   1153.9326   1229.3567     1.229     0.989 -13.34
       463   1     1461.108     48.05077  -7.9117   0.0357  3.50    838.8270   1208.4735     1.394     1.273 -35.35
       464   1     1978.894     96.80558  -8.2411   0.0531  5.23    124.2719   1195.7808     1.875     1.703  85.27
       465   1     191.9362     35.92011  -5.7079   0.2032  4.55   1217.1880   1205.1183     0.858     0.657 -44.51
       466   1      279.756     44.37719  -6.1169   0.1723  4.93    855.3846   1262.9902     1.019     0.768   0.11
       467   1     1696.303     66.18213  -8.0738   0.0424  4.38    339.0765   1202.6338     1.516     1.396 -83.95
       468   1     419.3529     43.60536  -6.5564   0.1129  4.00     48.1247   1238.4276     1.158     0.950 -11.79
       469   1     99.33374     25.39935  -4.9927   0.2777  5.56    463.6869   1028.6923     0.557     0.343 -44.70
       470   1      14729.8     160.5339 -10.4205   0.0118  3.50   1279.0439   1211.5623     5.652     3.475  81.01
       471   1     567.8021     68.20341  -6.8855   0.1304  5.62    176.5511   1182.5493     1.425     0.969   8.16
       472   1     86.70044     25.39935  -4.8451   0.3181  5.57    970.3315   1159.2971     0.560     0.341 -43.15
       473   1     399.6479     48.75227  -6.5042   0.1325  4.80    673.2097   1183.5492     1.027     0.930 -21.31
       474   1     570.8169     47.69614  -6.8912   0.0907  4.30    547.4385   1130.0508     1.184     1.024 -65.12
       475   1     1209.444     45.88193  -7.7065   0.0412  3.52     99.4363   1152.1665     1.309     1.208  -5.07
       476   1      271.354     41.20319  -6.0838   0.1649  7.58   1599.3630   1167.6770     0.885     0.518  46.34
       477   1     50515.64     69.43685 -11.7586   0.0015  3.50   1299.8141   1165.9740     1.994     1.896 -73.19
       478   1     287.4189     41.61318  -6.1463   0.1572  4.29    607.3837   1134.6660     0.986     0.862 -45.52
       479   1      7418.74     131.9789  -9.6758   0.0193  3.70    757.8781   1173.1541     3.576     3.345 -78.56
       480   1     310029.8     121.2523 -13.7285   0.0004  3.50    693.8153   1152.4623     3.504     3.217 -37.57
       481   1     90.40845     30.27804  -4.8905   0.3637  6.77    385.3456   1169.6912     0.572     0.336  43.30
       482   1     440.3228     37.31108  -6.6094   0.0920  3.50    549.2858   1181.6404     1.166     0.942 -17.70
       483   1     5893.559     62.48773  -9.4259   0.0115  3.62    236.4378   1158.6710     1.660     1.640 -45.47
       484   1      270.499     56.19366  -6.0804   0.2256  6.85   1053.6813   1197.1642     0.936     0.685  19.67
       485   1     1204.768     79.46984  -7.7023   0.0716  4.87   1442.1520   1201.8149     1.659     1.491 -87.53
       486   1     157.3928     36.38968  -5.4925   0.2511  6.43   1597.7561   1178.4944     1.154     0.262  72.38
       487   1     385.4846     60.83578  -6.4650   0.1714  7.15    661.8563   1142.0636     0.961     0.718 -73.51
       488   1     33181.72     65.66708 -11.3022   0.0021  3.50    512.1377   1080.7614     1.874     1.779 -66.90
       489   1     2855.512     117.2663  -8.6392   0.0446  5.41    329.8812   1121.0293     2.566     1.726  58.47
       490   1     6874.171     59.42409  -9.5931   0.0094  3.50    427.9433   1108.1862     1.692     1.627 -54.08
       491   1     1558.128     101.0949  -7.9815   0.0705  5.36    479.1404   1111.4923     2.159     1.548  -7.99
       492   1     667.9977     65.66708  -7.0619   0.1068  5.31    674.4976   1115.1155     1.343     1.079 -60.84
       493   1     30224.85     68.69945 -11.2009   0.0025  3.50    778.1761   1095.7281     1.938     1.855 -41.61
       494   1     676.1375     73.01224  -7.0751   0.1173  5.17    468.4292   1091.6051     1.906     0.987 -68.10
       495   1     572.6566     58.56074  -6.8947   0.1111  4.46    679.0923   1105.9491     1.516     1.082  38.97
       496   1     419.0315     56.49497  -6.5556   0.1464  5.41   1136.4398   1095.1104     1.091     0.933 -85.66
       497   1     9633.553     62.48773  -9.9595   0.0070  3.50   1148.1749   1082.6000     1.756     1.711 -75.07
       498   1     225.8958     45.51041  -5.8848   0.2188  5.58    467.1765   1040.7959     1.002     0.638  60.45
       499   1     270.3235     50.79871  -6.0797   0.2041  6.46   1452.5986   1085.8284     0.929     0.621  76.35
       500   1     1589.133     119.2759  -8.0029   0.0815  6.13   1562.7290   1066.0032     2.578     1.374 -64.61
       501   1     331.1693     55.58614  -6.3001   0.1823  7.78   1267.6206   1020.1995     0.733     0.656  25.73
       502   1     126.9036     35.92011  -5.2587   0.3074  5.27   1237.8386   1004.8460     0.764     0.567  49.76
       503   1     296.8406     66.18213  -6.1813   0.2421  7.53    238.0324   1052.5183     1.259     0.570  26.05
       504   1     1605.987     75.07579  -8.0144   0.0508  3.50    302.5808   1030.9935     2.461     1.757  71.36
       505   1     84.95215     26.05919  -4.8229   0.3331  5.74   1025.6887   1001.6425     0.578     0.332 -46.97
       506   1     196.0085     42.01918  -5.7307   0.2328  7.86    809.4821   1044.5297     0.509     0.490 -44.15
       507   1     8255.343     60.55608  -9.7918   0.0080  3.50    525.3945   1039.5049     1.681     1.610 -59.24
       508   1      173.681     40.37072  -5.5994   0.2524  8.77   1095.3132   1042.6610     0.571     0.337  46.21
       509   1     476920.1     81.16087 -14.1961   0.0002  3.50     50.1910   1024.3846     2.321     2.148 -43.62
       510   1     42414.79     67.70375 -11.5688   0.0017  3.50    633.0386   1041.0366     1.900     1.824 -49.21
       511   1     19428.49     67.70375 -10.7211   0.0038  3.50   1379.9857   1026.5739     1.930     1.815 -68.53
       512   1     589.1499     73.01224  -6.9256   0.1346  5.52    121.9955   1038.8489     2.009     0.803 -35.31
       513   1     16830.87     64.62468 -10.5653   0.0042  3.50    813.6567   1010.6155     1.843     1.780 -57.65
       514   1     81.68262     26.70272  -4.7803   0.3550  5.79   1028.6674   1026.6541     0.582     0.330 -45.54
       515   1     112.6018     31.91586  -5.1289   0.3078  7.37    242.3527   1038.3229     0.581     0.331 -43.78
       516   1     167.9061     42.81961  -5.5627   0.2770  5.53    453.2856   1014.3884     0.977     0.589 -71.18
       517   1     2322.164     53.40544  -8.4147   0.0250  3.50    344.6626   1012.0173     1.552     1.358 -58.15
       518   1     925.3354     57.97803  -7.4157   0.0680  4.00   1273.9332   1000.6549     1.549     1.290 -43.42
       519   1     2684.356     55.89073  -8.5721   0.0226  3.68    542.4350   1002.4809     1.531     1.462  72.62
       520   1     145.3892     37.31108  -5.4063   0.2787  5.95   1154.6001   1020.8218     0.761     0.450  71.58
       521   1     248.6025     38.65202  -5.9888   0.1688  4.18    268.0587   1011.5944     1.170     0.663 -42.84
