#   1 NUMBER                 Running object number                                     
#   2 EXT_NUMBER             FITS extension number                                     
#   3 FLUX_BEST              Best of FLUX_AUTO and FLUX_ISOCOR                          [count]
#   4 FLUXERR_BEST           RMS error for BEST flux                                    [count]
#   5 MAG_BEST               Best of MAG_AUTO and MAG_ISOCOR                            [mag]
#   6 MAGERR_BEST            RMS error for MAG_BEST                                     [mag]
#   7 KRON_RADIUS            Kron apertures in units of A or B                         
#   8 X_IMAGE                Object position along x                                    [pixel]
#   9 Y_IMAGE                Object position along y                                    [pixel]
#  10 A_IMAGE                Profile RMS along major axis                               [pixel]
#  11 B_IMAGE                Profile RMS along minor axis                               [pixel]
#  12 THETA_IMAGE            Position angle (CCW/x)                                     [deg]
         1   1     582126.2     173.9228  13.6422   0.0003  3.50   1107.5574    183.5872     5.235     4.880 -24.92
         2   1      42557.3     205.0076  16.4823   0.0052  4.07     63.6141     54.7853     5.365     4.865  10.86
         3   1     6156.764     118.5781  18.5814   0.0209  4.05    984.9714     18.2255     4.233     2.082 -89.63
         4   1      3611.55     72.40131  19.1605   0.0218  4.10     91.2174     19.4714     1.811     1.786 -50.22
         5   1     10358.06     69.35603  18.0166   0.0073  3.50   1445.6405     16.2575     2.069     1.951  10.92
         6   1     448.6918     52.09107  21.4249   0.1261  5.88    145.2244      5.8206     1.171     0.700  -0.38
         7   1     48285.14     81.42189  16.3452   0.0018  3.50   1078.3888     61.4053     2.432     2.332  59.86
         8   1     183.8491     40.04273  22.3936   0.2365  7.12   1183.2153     11.4046     0.760     0.448  19.10
         9   1     515.8887     55.52927  21.2734   0.1169  5.38    384.3959     19.2027     1.234     0.891  18.99
        10   1     1027.855     84.21431  20.5250   0.0890  6.15    366.8643     26.2155     1.520     1.276  22.58
        11   1      457.124     75.32357  21.4047   0.1789  8.12    382.6800     25.4832     1.089     0.824  34.63
        12   1     606.7238     70.89503  21.0973   0.1269  6.45   1110.6578     36.5190     1.297     0.966 -49.38
        13   1     515.7565     87.44759  21.2737   0.1841  6.19    326.7798     34.8941     1.759     1.173  -6.17
        14   1     45892.11     81.42189  16.4004   0.0019  3.50    537.4344     81.5319     2.423     2.339 -10.68
        15   1     347.3281     52.09107  21.7029   0.1629  6.57   1170.5585     40.7102     1.270     0.507  40.85
        16   1     250.3938      41.5543  22.0582   0.1802  5.84   1521.2733     40.0144     0.741     0.661  85.98
        17   1      252.799     54.97117  22.0478   0.2362  5.96    915.1636     44.3193     1.037     0.830 -57.46
        18   1     224.5066     38.47181  22.1767   0.1861  8.83    440.3448     45.6943     0.570     0.337  43.15
        19   1     1550.209     62.33145  20.0788   0.0437  3.86    128.1458     76.6940     1.719     1.565 -36.54
        20   1     1004.912     120.2565  20.5495   0.1300  6.41    376.7003     91.3006     2.278     1.590  59.94
        21   1     560.8573     72.18805  21.1826   0.1398  5.67    421.1942     84.3876     1.543     1.097 -71.73
        22   1     69004.64     83.84736  15.9576   0.0013  3.50    788.9817    123.3941     2.490     2.407   1.93
        23   1     2414.793     73.24814  19.5976   0.0329  4.29     56.0174     98.1544     1.876     1.626  -2.93
        24   1     543.6932     81.79972  21.2164   0.1634  6.17    452.8300     99.8754     1.469     1.252  11.31
        25   1     271.4502     46.45912  21.9706   0.1859  5.78    495.7601     92.9686     0.890     0.757  -1.84
        26   1     210.7896     47.11815  22.2452   0.2428  8.06   1075.7946     97.6176     0.767     0.445  18.16
        27   1     247.1462     55.25093  22.0724   0.2428  7.50    990.2148    118.7651     0.770     0.712  56.09
        28   1     297978.6     93.57959  14.3693   0.0003  3.50    317.9610    195.1572     2.782     2.657 -41.25
        29   1      39034.7     77.93905  16.5762   0.0022  3.50   1468.2515    163.8908     2.301     2.243 -11.43
        30   1     145.0553     46.78979  22.6509   0.3503  8.09    418.1811    132.3931     0.751     0.447  19.00
        31   1     8788.279     74.70699  18.1950   0.0092  3.64    877.2230    171.7732     2.117     2.046 -67.73
        32   1     49069.48     244.7071  16.3278   0.0054  4.14    403.5941    236.5317     6.506     5.518 -41.84
        33   1     252.3915     37.25017  22.0496   0.1603  6.41    353.9936    148.9917     0.620     0.600 -89.87
        34   1     127.7789     28.31448  22.7886   0.2406  5.04   1280.5729    152.7571     0.724     0.458  70.56
        35   1     586.4182     49.97635  21.1343   0.0926  3.57    104.0227    167.9652     1.477     1.352 -78.60
        36   1     824.7416     89.36591  20.7640   0.1177  6.30   1445.8739    166.7165     1.482     1.386  25.89
        37   1     1486.243     84.03104  20.1246   0.0614  5.49    325.4615    173.1771     1.587     1.503  16.30
        38   1    -42.31702      31.4121  99.0000  99.0000  0.00    634.5322    161.5322     0.509     0.489  45.00
        39   1     347.2073     59.80685  21.7033   0.1871  6.45   1368.4978    170.4766     0.962     0.894   1.76
        40   1     178.1708     36.41298  22.4277   0.2219  6.49    651.2307    170.4273     0.769     0.448  19.56
        41   1     527.2828     88.14999  21.2497   0.1816  7.88    575.0485    181.2506     1.588     0.819  33.93
        42   1     1036.578     73.87689  20.5158   0.0774  5.32   1350.5676    194.2067     1.471     1.371 -61.81
        43   1     478.1459     61.33408  21.3559   0.1393  6.62   1354.9641    188.1914     1.032     0.844  38.79
        44   1     5126.631     140.1495  18.7802   0.0297  4.60    827.3505    212.4507     4.311     2.212 -12.74
        45   1     1858.773     77.74098  19.8817   0.0454  4.85    548.9967    208.1533     1.728     1.561 -56.60
        46   1     173.6721     29.90343  22.4555   0.1870  5.72    268.7589    196.9942     0.669     0.428 -89.70
        47   1     959.5404     74.08529  20.5996   0.0838  4.64    349.6559    210.1383     1.790     1.474  53.37
        48   1     1648.288     54.97117  20.0122   0.0362  3.50   1306.0121    213.7668     1.673     1.542  -5.52
        49   1     5047.939     182.9097  18.7970   0.0394  5.57    561.9375    231.9906     3.530     3.154 -29.90
        50   1      88612.4     86.38327  15.6860   0.0011  3.50     67.5887    267.4318     2.519     2.455   4.04
        51   1     415.9542     59.80685  21.5072   0.1561  6.26    250.8450    205.3241     1.499     0.627  36.23
        52   1     560.4701     77.34332  21.1834   0.1499  5.22    684.2392    212.3623     1.589     1.414 -21.56
        53   1     105787.1     85.48623  15.4937   0.0009  3.50    997.3770    261.3211     2.487     2.473  -5.15
        54   1     2127.987     56.35606  19.7349   0.0288  3.62   1226.0276    225.6275     1.638     1.513  56.38
        55   1     967.1212     128.5596  20.5911   0.1444  8.63   1122.9299    224.0614     1.885     1.218  71.23
        56   1     736.4305     82.73675  20.8870   0.1220  5.20    345.2687    223.4958     1.862     1.400  38.99
        57   1     769.1244     65.46805  20.8398   0.0924  4.84    774.7049    224.2253     1.485     1.274 -64.77
        58   1     1635.085     107.6752  20.0209   0.0715  5.40    112.9577    245.7517     2.269     1.821 -84.19
        59   1     4033.149     116.6115  19.0407   0.0314  4.76    612.8062    256.8083     2.763     2.241 -31.38
        60   1      688.783     100.2607  20.9596   0.1581  6.68    838.1740    240.4640     1.587     1.461   3.11
        61   1     860.7277     84.57967  20.7176   0.1067  6.57   1372.6572    253.3820     1.676     1.007 -77.44
        62   1     364137.9     92.41913  14.1516   0.0003  3.50    439.4230    313.6555     2.726     2.645 -29.46
        63   1     388.6216     41.38091  21.5810   0.1156  7.15    107.6562    251.7136     1.286     0.961 -47.45
        64   1     217.2803     47.76809  22.2122   0.2388  7.46   1352.0001    254.2400     0.825     0.505  52.98
        65   1     20858.54     75.11861  17.2566   0.0039  3.50   1486.3666    289.1064     2.197     2.143  -0.24
        66   1     4609.062     68.00919  18.8958   0.0160  3.69   1522.2140    283.4656     1.863     1.834  34.16
        67   1     160.7977     40.42592  22.5391   0.2730  8.03    123.0000    266.9816     0.858     0.289  90.00
        68   1      443.088     69.35603  21.4386   0.1700  6.59   1273.7917    272.2896     1.215     0.927   3.52
        69   1     15179.66     75.11861  17.6016   0.0054  3.50    201.6470    304.5827     2.214     2.163   7.61
        70   1     321737.8     92.41913  14.2860   0.0003  3.50    890.7000    352.8533     2.708     2.638 -41.09
        71   1     60654.29     80.85184  16.0976   0.0014  3.50    905.3373    320.2001     2.371     2.336  17.94
        72   1     1812.206     61.58494  19.9093   0.0369  3.50    515.0054    291.1290     1.867     1.704  -4.76
        73   1     310625.5     92.08488  14.3242   0.0003  3.50   1345.7853    352.8833     2.672     2.630 -27.88
        74   1     1865.384     62.57831  19.8779   0.0364  3.89   1327.5559    295.5385     1.682     1.633  16.46
        75   1     983.5667      48.6272  20.5728   0.0537  5.59   1475.5228    294.7319     1.490     1.410 -32.70
        76   1     1122.538     113.6656  20.4293   0.1100  5.89   1413.5488    298.9774     2.281     1.700 -31.73
        77   1     10060.59     71.97416  18.0482   0.0078  3.50    697.2145    323.5643     2.098     2.084  48.90
        78   1     744.4962     62.08361  20.8751   0.0906  4.10    563.4363    303.5893     1.634     1.445 -14.17
        79   1     167.0941     36.41298  22.4974   0.2367  8.31    247.3226    294.2922     0.554     0.344 -43.23
        80   1     763.3594     95.85838  20.8480   0.1364  5.61    641.3190    322.5241     1.952     1.535  77.61
        81   1     454.0394      61.0822  21.4120   0.1461  8.04     85.7015    310.1534     1.131     0.517 -35.38
        82   1     2107.975     92.75217  19.7451   0.0478  5.15    595.4161    328.8730     1.940     1.713 -35.23
        83   1     7109.287     88.67313  18.4252   0.0135  4.20    867.0420    347.9107     2.264     2.015  25.16
        84   1     281.1241     63.31311  21.9325   0.2446  6.23   1545.8273    331.3643     1.283     0.835  52.86
        85   1     195.6068     38.47181  22.3263   0.2136  5.89    955.5109    326.3526     0.926     0.478   0.07
        86   1     344.3395     57.97426  21.7123   0.1828  6.09     93.5791    333.6950     0.971     0.940  55.69
        87   1       331.17     52.38621  21.7547   0.1718  5.78   1439.6562    336.5270     1.042     0.821 -34.70
        88   1     5390.219     72.82596  18.7258   0.0147  3.69    431.7284    357.2689     2.062     1.955 -73.63
        89   1     813.6549     69.35603  20.7787   0.0926  5.25     54.6837    351.3244     1.405     1.282  61.37
        90   1     10435.57     75.11861  18.0085   0.0078  3.71    760.9843    369.6347     2.101     2.028  22.47
        91   1     51440.35     81.61103  16.2765   0.0017  3.50    231.3483    396.6438     2.424     2.344 -28.26
        92   1     1956.282     84.03104  19.8262   0.0466  4.89   1500.1429    362.7214     1.894     1.593   0.84
        93   1     3764.966     62.33145  19.1154   0.0180  3.54    442.7167    368.9449     1.817     1.730  23.76
        94   1     271.0547     71.75964  21.9721   0.2875  6.61   1033.3591    362.1609     1.241     0.996 -58.97
        95   1     306.4988     45.45267  21.8387   0.1610  5.00    533.3430    361.2872     1.219     0.716  -8.77
        96   1      426.058     57.97426  21.4811   0.1478  7.19   1415.9182    364.6555     0.961     0.690 -70.00
        97   1     694.8182     59.32479  20.9501   0.0927  6.32    753.3804    376.5251     2.021     1.175  45.42
        98   1     266.1332     71.11217  21.9920   0.2902  5.75   1083.9891    375.3518     1.453     1.092 -64.08
        99   1     91.76562     54.97117  23.1481   0.6506  5.86      1.5932    381.5696     2.024     0.637 -89.37
       100   1     729.7302     72.40131  20.8969   0.1077  6.06    992.6714    374.2666     1.283     1.155  16.70
       101   1     203.8461     60.82927  22.2815   0.3241  6.92     72.0737    371.3849     1.328     0.618  -4.98
       102   1     187.1833     44.42342  22.3741   0.2577  7.71    209.7980    370.4338     0.757     0.448 -20.40
       103   1     8275.419     68.23551  18.2603   0.0090  3.50    354.4694    399.6199     2.028     1.927  17.69
       104   1     7514.324     66.40335  18.3651   0.0096  3.50   1461.0906    398.5513     1.985     1.894  -9.16
       105   1     220.3135     54.68999  22.1972   0.2696  5.48     67.2584    384.9274     1.574     0.663  84.64
       106   1     121.1329     30.91739  22.8466   0.2772  5.96     87.0265    376.7703     0.694     0.420   1.14
       107   1     46579.37     79.50581  16.3843   0.0019  3.50    433.2188    421.0826     2.332     2.293   2.48
       108   1     362.2563     58.50372  21.6572   0.1754  6.76    125.8206    382.1244     0.976     0.759 -25.56
       109   1     1741.524     63.06913  19.9525   0.0393  4.03   1088.6277    395.3357     1.645     1.542  16.80
       110   1     22482.82     75.32357  17.1752   0.0036  3.50    837.3096    417.0440     2.185     2.170  10.22
       111   1     784.6407     87.79948  20.8181   0.1215  7.52    626.6414    397.2802     1.368     1.024 -84.28
       112   1      168.597      26.6309  22.4877   0.1715  5.78   1196.0000    390.9907     0.849     0.289  90.00
       113   1     252.0509     77.74098  22.0511   0.3350  6.11      1.9529    413.6238     2.734     0.909  88.05
       114   1     360.1979     46.12608  21.6634   0.1391  4.90    977.6585    397.7170     1.233     0.712 -45.77
       115   1     619.7703      83.1086  21.0742   0.1456  7.33    526.4940    405.2974     1.299     1.026  83.57
       116   1     145751.6     87.09426  15.1457   0.0006  3.50    807.5491    462.6601     2.554     2.475 -14.20
       117   1     4081.832     61.83478  19.0276   0.0165  3.50    926.3489    425.5665     1.842     1.791  46.72
       118   1     16871.67     75.11861  17.4869   0.0048  3.50    252.0300    439.4121     2.198     2.152   6.63
       119   1     282.6312     59.80685  21.9267   0.2298  6.39    281.9646    408.1781     1.164     0.805  29.19
       120   1    -4.999023     32.37885  99.0000  99.0000  0.00    943.7681    403.4152     0.745     0.452 -19.28
       121   1     1293.478     90.22439  20.2754   0.0758  5.73    159.3221    422.2335     1.823     1.388  51.63
       122   1     357.7546     63.55616  21.6708   0.1929  7.68    299.5127    426.9838     1.409     0.499  88.57
       123   1     325.2761     51.19546  21.7742   0.1709  7.33   1204.3013    419.4578     1.015     0.481  -8.30
       124   1     613.0347     81.42189  21.0861   0.1442  7.02   1179.8237    428.1476     1.268     1.091  43.93
       125   1     1341.785     73.24814  20.2356   0.0593  5.03   1421.9890    434.3694     1.563     1.401 -10.91
       126   1     333.5225     48.40929  21.7470   0.1576  8.46    133.4180    424.2213     0.751     0.455  71.45
       127   1     207.6619     36.83395  22.2614   0.1926  5.94   1580.9537    421.4902     0.778     0.499   2.69
       128   1     295.7296     35.98708  21.8775   0.1322  8.25    136.3273    421.6680     0.574     0.335  45.21
       129   1     214.8546     36.83395  22.2244   0.1862  7.28   1063.4724    425.5192     0.503     0.496  46.62
       130   1     670.2161      61.0822  20.9892   0.0990  8.39    718.8471    431.2661     1.078     0.508  67.24
       131   1      8931.71     197.9679  18.1774   0.0241  4.91    850.2258    469.1449     7.532     2.223  21.77
       132   1     5156.083     79.50581  18.7740   0.0167  4.03     21.3153    451.8586     2.088     1.943  -0.20
       133   1     558.6163     70.01974  21.1870   0.1361  5.98    151.0912    435.1284     1.240     1.134  52.00
       134   1      735.488     67.55428  20.8883   0.0997  5.34    305.5745    441.5390     1.441     1.138 -51.09
       135   1     1049.774      76.1379  20.5020   0.0788  5.43    122.1028    446.8850     1.505     1.355  85.16
       136   1      153.113     27.76464  22.5923   0.1969  6.19    353.6779    435.6658     0.573     0.336 -45.55
       137   1     5859.109     74.50034  18.6352   0.0138  3.93     34.4913    459.3049     1.983     1.870 -43.25
       138   1     941.6968     86.20461  20.6200   0.0994  5.27    883.4819    448.5699     2.147     1.280   7.79
       139   1     221.7047     56.62897  22.1903   0.2774  8.31    654.3727    445.0175     1.075     0.452 -25.27
       140   1     1804.772     59.80685  19.9137   0.0360  3.72    468.4330    465.1295     1.736     1.538  46.31
       141   1     287.7026     45.79061  21.9074   0.1728  5.43   1533.5862    454.5111     0.992     0.775   2.58
       142   1     636.2272     45.79061  21.0457   0.0782  3.81   1096.4277    462.4622     1.423     1.022  13.23
       143   1     131.7334     28.31448  22.7555   0.2334  6.24   1224.3202    454.6659     0.572     0.336  45.64
       144   1     2339.756     69.35603  19.6319   0.0322  4.18    734.7418    473.5637     1.675     1.672 -32.10
       145   1     418.0455     61.33408  21.5017   0.1593  7.76    723.9955    463.4885     1.225     0.497 -62.96
       146   1     1833.194     64.51918  19.8968   0.0382  4.23    254.3179    473.0175     1.614     1.461   2.68
       147   1     2964.088     58.76665  19.3751   0.0215  3.50    922.8689    479.3951     1.738     1.689  50.12
       148   1     1223.418     65.70312  20.3358   0.0583  4.25   1276.8654    479.2148     1.668     1.470  88.29
       149   1     189.2581     42.28983  22.3621   0.2427  6.15   1198.3262    468.1648     0.748     0.647 -25.50
       150   1     138.0873     35.98708  22.7044   0.2830  8.21    561.6643    466.6413     0.589     0.326 -45.84
       151   1     22079.73     179.5065  17.1948   0.0088  4.30    518.4934    534.3708     4.541     3.949  33.99
       152   1     692.3623     87.44759  20.9539   0.1372  5.41    839.4063    489.4281     2.624     1.021 -82.78
       153   1     3011.959     123.7942  19.3577   0.0446  5.00     82.7204    497.6219     2.586     2.443 -14.39
       154   1     2544.001     111.4742  19.5410   0.0476  4.50   1186.5588    497.1445     2.872     2.197 -19.25
       155   1      239.812     45.79061  22.1051   0.2074  5.27   1167.6362    477.6234     1.409     0.553 -32.52
       156   1     1253.732     50.28389  20.3093   0.0436  3.50   1070.7618    485.5692     1.528     1.376 -13.26
       157   1     242.5905     24.20465  22.0926   0.1084  3.50    682.8082    480.6513     0.846     0.613 -28.81
       158   1     154.7902     30.91739  22.5804   0.2169  5.97   1309.2524    483.2269     0.842     0.349  17.63
       159   1     12041.82     73.24814  17.8531   0.0066  3.50   1302.1998    513.8845     2.242     2.029 -12.26
       160   1     151.1583     34.23054  22.6062   0.2459  7.02    424.4973    490.9982     0.783     0.319  57.39
       161   1     1411.331     86.02557  20.1807   0.0662  4.94    762.6536    505.6879     1.866     1.696  29.68
       162   1     395.0878     60.06409  21.5630   0.1651  6.04    366.5008    499.2488     1.260     0.822  48.61
       163   1     709.7847     46.45912  20.9270   0.0711  3.64    863.6854    503.5775     1.342     1.232  22.73
       164   1     3417.396     105.7975  19.2205   0.0336  4.16   1461.1040    516.8404     3.621     1.835  25.63
       165   1      580.629     57.97426  21.1450   0.1084  6.26   1310.3589    502.6222     1.014     0.855 -36.68
       166   1     1193.377     43.19027  20.3628   0.0393  4.41   1309.9906    514.6971     1.613     1.381 -41.48
       167   1     982.0961     106.2337  20.5744   0.1175  6.42    164.7969    511.4173     2.143     1.304  15.76
       168   1     68.43909     24.20465  23.4665   0.3841  3.50    442.7247    504.0079     0.742     0.697 -86.64
       169   1      665.449     50.58957  20.9970   0.0826  3.90   1179.1432    515.1553     1.351     1.290 -11.56
       170   1     514.0775     46.78979  21.2772   0.0988  3.71    642.2778    520.8369     1.390     1.164   1.63
       171   1     333807.5     90.90533  14.2460   0.0003  3.50   1315.8739    589.2560     2.686     2.599 -42.29
       172   1     335.2551     62.08361  21.7413   0.2011  7.82    854.1041    522.2987     0.956     0.691 -68.90
       173   1     272.8739     48.08976  21.9649   0.1914  6.17   1519.3197    519.8758     0.920     0.674  20.54
       174   1     1777.971     52.67969  19.9300   0.0322  3.50    999.6561    541.7063     1.600     1.510 -28.15
       175   1     295210.3     97.29514  14.3795   0.0004  3.50    483.1350    632.6228     2.864     2.775 -18.25
       176   1     443.0037      66.8661  21.4388   0.1639  5.93    404.2007    537.3940     1.629     0.795  25.92
       177   1     2385.453     60.06409  19.6109   0.0273  3.50   1041.6516    560.4192     1.867     1.613  18.47
       178   1     7304.456     66.63512  18.3958   0.0099  3.50   1242.7412    574.0022     1.968     1.904  14.96
       179   1     1992.783     97.13655  19.8061   0.0529  6.18   1336.7483    576.2877     1.689     1.511  46.16
       180   1     1928.609     94.72584  19.8417   0.0533  4.94     45.8521    572.7739     2.131     1.762  54.85
       181   1     1737.273     72.82596  19.9551   0.0455  3.50   1448.4083    573.2253     2.428     1.835  31.01
       182   1     9907.184     71.75964  18.0649   0.0079  3.56    319.1037    583.7048     2.099     2.037  10.35
       183   1     9916.727     69.79921  18.0639   0.0076  3.50    144.8951    582.1736     2.082     1.967  -0.68
       184   1     221.4767     36.41298  22.1915   0.1785  6.40    778.6027    557.7811     0.764     0.454  72.66
       185   1     6526.551     135.3366  18.5181   0.0225  4.05    782.6208    598.1442     3.563     3.261 -52.42
       186   1     455.8318     64.99535  21.4078   0.1548  5.76    139.6721    566.2109     1.261     1.043 -56.27
       187   1     81.00049     38.87049  23.2836   0.5211  6.84    633.2249    568.5835     0.738     0.455 -19.07
       188   1     626.2003     71.75964  21.0630   0.1245  6.26   1001.7804    578.0511     1.682     0.817 -28.13
       189   1     760.5604     66.63512  20.8519   0.0951  5.30     75.9674    586.1544     1.328     1.229  -8.76
       190   1     1199.816     55.25093  20.3570   0.0500  3.64   1555.2332   1002.5687     1.624     1.448  79.83
       191   1      930.703     57.70771  20.6328   0.0673  4.41    654.3972   1598.1855     1.887     1.210  -0.88
       192   1     452.0638     45.79061  21.4168   0.1100  3.70    373.5580   1595.8204     1.480     1.018  36.47
       193   1     245.8296     70.89503  22.0782   0.3132  6.34   1384.2332   1594.4935     1.436     0.913 -29.70
       194   1     1590.572      74.2931  20.0509   0.0507  4.85   1108.5289   1586.2167     1.711     1.419  10.82
       195   1     2348.139     79.31166  19.6280   0.0367  4.54     21.5654   1567.9301     1.823     1.751   3.80
       196   1     1700.042     96.49958  19.9786   0.0616  5.33    784.3434   1567.0110     2.030     1.671 -85.86
       197   1     233.8298     37.66179  22.1325   0.1749  6.81    670.7685    880.5679     0.733     0.453  20.32
       198   1     263.3992     51.49573  22.0032   0.2123  8.16    542.0080    878.4954     0.795     0.500   1.12
       199   1     2793.339     71.75964  19.4395   0.0279  3.65   1103.3278    870.8375     2.023     1.970 -75.84
       200   1     299495.9     94.39976  14.3638   0.0003  3.50   1224.3727    860.6606     2.793     2.688 -17.04
       201   1     1059.113     67.55428  20.4924   0.0693  4.19    939.8438    868.9675     1.862     1.435  48.58
       202   1     254.7466     38.47181  22.0395   0.1640  6.08    643.2283    870.7625     0.935     0.438 -45.21
       203   1     78.93909     34.67802  23.3116   0.4771  7.88    454.3017    868.9412     0.908     0.211  62.52
       204   1     871.1046     47.11815  20.7046   0.0587  3.50   1157.1390    861.1002     1.498     1.226  18.12
       205   1     148.6915     23.55907  22.6241   0.1721  3.50   1554.1732    861.9904     0.917     0.472 -54.13
       206   1     643.4655     49.04213  21.0335   0.0828  4.21   1339.3500    859.9587     1.495     0.944 -33.28
       207   1     207.1189     40.04273  22.2642   0.2100  8.51    545.0228    857.5150     0.802     0.312  31.94
       208   1     94.51123     35.98708  23.1161   0.4135  8.32    363.3300    850.6461     0.585     0.329  45.93
       209   1     1112.448     55.25093  20.4391   0.0539  3.50   1106.0951    844.6611     1.754     1.489  26.38
       210   1     580.4279     43.01279  21.1454   0.0805  3.50   1063.7417    845.9619     1.310     1.128 -67.33
       211   1     997.0408     84.21431  20.5580   0.0917  6.17   1206.1925    845.9415     1.560     1.216 -72.76
       212   1     2402.487       109.38  19.6031   0.0494  5.60   1247.2026    839.2313     2.111     1.866 -63.16
       213   1     1442.553     68.91001  20.1570   0.0519  4.46    298.8445    837.9797     1.631     1.534  12.84
       214   1     196.7921     47.76809  22.3198   0.2636  6.13   1520.5084    838.5260     1.021     0.596  45.37
       215   1     358.4485     45.45267  21.6687   0.1377  5.37    818.9592    836.8230     0.944     0.770  62.38
       216   1     6652.107     72.82596  18.4974   0.0119  3.62    654.3231    824.2859     2.096     1.990  45.13
       217   1     77.38171     29.38333  23.3332   0.4124  6.99    779.6790    820.6904     0.561     0.341 -44.39
       218   1     197.6931     54.68999  22.3148   0.3004  7.22    878.2869    817.8287     1.042     0.570 -18.00
       219   1     6153.395      66.8661  18.5820   0.0118  3.50   1378.5775    804.4241     1.936     1.899  24.13
       220   1     7.857178      19.2359  25.8166   2.6587  4.95    127.3259    809.3414     0.578     0.333 -45.66
       221   1     17898.74     84.21431  17.4227   0.0051  3.50    695.5576    799.8766     2.757     2.170  85.99
       222   1     3003.213      64.7577  19.3608   0.0234  3.60     41.0133    802.0168     1.832     1.772  17.44
       223   1     179.8278     46.45912  22.4176   0.2806  7.46    295.4833    796.0336     0.794     0.500 -88.72
       224   1     2963.957      90.5655  19.3751   0.0332  3.80   1427.3660    775.2002     2.890     2.022 -86.99
       225   1     1517.984     66.40335  20.1016   0.0475  4.00    391.5318    768.1792     1.844     1.529 -34.33
       226   1     506.2877     67.78211  21.2938   0.1454  6.30    140.4928    768.8489     1.337     0.879 -79.70
       227   1     585.6947     80.66093  21.1356   0.1496  7.78    193.6100    755.8051     1.706     0.651  86.14
       228   1     141.1672     39.65583  22.6804   0.3051  7.70   1342.5267    756.4966     0.504     0.495  47.35
       229   1     1533.537     62.08361  20.0905   0.0440  3.99    556.2839    744.2444     1.633     1.515 -43.37
       230   1     408727.2     97.61155  14.0262   0.0003  3.50    404.7108    725.5315     2.928     2.738 -22.93
       231   1     515.9645     69.13338  21.2732   0.1455  5.16    649.6646    737.5416     1.432     1.311  80.81
       232   1      69428.2     83.66328  15.9509   0.0013  3.50    848.3533    727.9818     2.439     2.389  27.94
       233   1     1048.458     51.19546  20.5034   0.0530  3.65   1178.1921    728.8093     1.450     1.412  49.56
       234   1      406.009     55.25093  21.5334   0.1478  5.35   1394.9901    722.8375     1.262     0.880  -0.28
       235   1     559.3607     45.79061  21.1856   0.0889  3.83   1157.9702    739.4140     1.298     1.182  25.31
       236   1     1339.537     65.23212  20.2374   0.0529  4.09    808.4064    717.2899     1.690     1.558  57.08
       237   1     1371.894     54.97117  20.2115   0.0435  3.80   1163.6552    710.4381     1.559     1.418  10.15
       238   1     1565.759     72.61395  20.0680   0.0504  3.97   1339.0944    705.6192     1.922     1.778 -43.80
       239   1     106.8568     43.01279  22.9828   0.4371  8.85    538.5060    708.5008     0.503     0.497 -45.17
       240   1      2581.39     59.02842  19.5251   0.0248  3.50    952.3771    704.2918     1.750     1.664  34.75
       241   1     675.6625     75.93513  20.9805   0.1221  5.60    582.5702    700.6096     1.760     1.081  -7.99
       242   1     695.6306     50.30742  20.9488   0.0785  4.76   1213.7378    692.9648     1.653     1.310  49.08
       243   1     430.8221     36.47951  21.4690   0.0920  6.03   1213.9957    688.5043     1.280     0.955  32.90
       244   1     426.6206     55.80622  21.4797   0.1421  6.69    316.1916    693.2252     1.068     0.678  16.66
       245   1       2709.5     151.5654  19.4726   0.0607  5.31    472.2632    684.2127     3.176     2.643  80.65
       246   1     2089.786     63.06913  19.7545   0.0328  3.75    644.1543    686.8886     1.784     1.627  11.80
       247   1      391.701     38.47181  21.5724   0.1067  4.71    130.9188    688.8412     0.907     0.746  89.98
       248   1     2186.665     124.6629  19.7053   0.0619  5.91    543.5035    682.6291     2.379     1.928 -61.11
       249   1     262.8252     44.07499  22.0056   0.1821  8.25    401.0182    686.7358     0.683     0.441   1.01
       250   1      180.522     35.98708  22.4135   0.2165  7.16    230.4650    674.4924     0.501     0.498 -55.30
       251   1     630.5367     53.26181  21.0555   0.0917  4.38    870.9708    656.2733     1.445     1.068 -80.68
       252   1     70213.25     80.66093  15.9387   0.0012  3.50   1464.2933    649.7220     2.368     2.331   7.81
       253   1     425.9882     63.55616  21.4813   0.1620  7.04    414.5703   1534.2606     1.290     0.650  -1.92
       254   1      10390.1     71.32864  18.0132   0.0075  3.50    536.7910    641.2206     2.093     2.008  32.48
       255   1      671.319      66.8661  20.9875   0.1082  4.86    806.0596    631.8602     1.448     1.352  -7.26
       256   1     1164.293     60.32023  20.3896   0.0563  4.44   1581.7684    624.8701     1.486     1.293  -0.44
       257   1     527.5361     60.57528  21.2492   0.1247  7.60   1151.4739    619.8640     1.117     0.574  26.32
       258   1     310.6382     60.82927  21.8241   0.2127  7.73    653.2193    647.1571     0.953     0.671 -18.86
       259   1     250.5741     43.36975  22.0574   0.1880  7.52    946.1575    610.6086     0.761     0.445 -18.98
       260   1     1134.098     56.35606  20.4182   0.0540  3.92    586.3604    606.9233     1.600     1.321  31.61
       261   1      520.252     41.18161  21.2642   0.0860  3.57    960.9187    878.8604     1.204     1.126 -38.72
       262   1     437.2086     57.70771  21.4531   0.1433  6.26   1100.3423   1521.1362     1.360     0.634 -33.34
       263   1     152.3165     34.23054  22.5979   0.2441  5.28    882.5083    593.5085     0.982     0.405  70.91
       264   1     973.3903     72.40131  20.5841   0.0808  5.07    861.0878   1562.5160     1.564     1.347 -75.69
       265   1     60772.71     84.21431  16.0955   0.0015  3.50    303.8436   1564.8943     2.493     2.394  -8.00
       266   1     25504.75     161.9895  17.0382   0.0069  3.74    681.9242   1553.8458     4.766     4.085 -32.53
       267   1     2592.381      76.1379  19.5205   0.0319  4.39    654.2137   1543.8602     1.806     1.722  83.24
       268   1     1905.463     71.32864  19.8548   0.0407  4.26     92.3905   1571.7207     1.728     1.660  85.35
       269   1     91.63342     29.90343  23.1496   0.3544  7.15   1565.6927   1564.3650     0.579     0.331  47.41
       270   1     3554.547     66.63512  19.1778   0.0204  3.70    134.8626   1543.1177     1.861     1.807  13.62
       271   1     988.8799     73.24814  20.5669   0.0804  4.36    863.0593   1546.9213     2.299     1.275  41.04
       272   1     189.8928     56.62897  22.3585   0.3239  7.63   1491.3174   1576.4641     1.251     0.465  89.38
       273   1     59928.07     86.20461  16.1107   0.0016  3.50    487.3318   1559.3071     2.552     2.462  -7.88
       274   1     822.6421     74.91308  20.7668   0.0989  6.13   1221.4904   1552.6815     1.347     1.128 -81.14
       275   1     32871.85      83.1086  16.7627   0.0027  3.50    269.0288   1508.4398     2.425     2.347   0.55
       276   1     321799.8      113.394  14.2858   0.0004  3.50    183.6469    883.3881     3.359     3.240 -25.60
       277   1      362.988     65.23212  21.6551   0.1952  7.54   1429.6595   1536.9376     1.278     0.620 -25.77
       278   1     239.6232     31.89914  22.1060   0.1446  5.50    733.4183   1529.7546     0.745     0.453 -70.72
       279   1     8052.556     70.01974  18.2899   0.0094  3.50    392.2966   1516.1572     2.134     1.955   2.53
       280   1     176.6619     36.83395  22.4369   0.2264  7.47     12.4902   1524.0001     0.803     0.311 -58.10
       281   1      213.463     46.12608  22.2315   0.2347  7.85   1096.0143   1505.0273     0.627     0.612 -88.73
       282   1     440.3715      77.5424  21.4452   0.1912  6.76   1546.2744   1516.7573     1.269     1.081 -58.46
       283   1     308.7089     56.08181  21.8309   0.1973  5.89     77.9050   1489.2261     1.275     0.721 -85.23
       284   1     769.5297     45.79061  20.8392   0.0646  3.50   1304.3940    887.0648     1.546     1.153  70.40
       285   1      383.658     46.45912  21.5949   0.1315  4.57    483.5974   1515.6066     1.128     0.919 -43.91
       286   1     546.8513     74.08529  21.2101   0.1471  7.17    339.9195    886.6301     1.415     0.775   1.88
       287   1      270.276     38.47181  21.9753   0.1546  5.59    844.0128   1499.6895     0.731     0.666   4.94
       288   1      856.326     47.44423  20.7232   0.0602  3.71   1499.8872    887.1884     1.355     1.271 -10.50
       289   1     1208.918     88.14999  20.3488   0.0792  4.79   1177.0895    879.9671     1.925     1.781   1.79
       290   1     816.3942     55.80622  20.7750   0.0742  4.04    723.2294   1505.4595     1.566     1.307 -27.09
       291   1     7580.024     184.6714  18.3556   0.0265  4.75    224.2591    880.3963     7.221     2.163  87.86
       292   1     138.7338      26.6309  22.6993   0.2085  5.63    987.0000    898.9808     0.857     0.289  90.00
       293   1     221.1288     35.11979  22.1932   0.1725  7.90    680.6741    890.3393     0.577     0.334  45.58
       294   1      1733.29     94.56294  19.9576   0.0592  5.28    538.4159    897.4249     1.894     1.749  29.97
       295   1     927.4149      108.104  20.6366   0.1266  6.65    326.2474    890.1077     2.090     1.302  22.80
       296   1     567.6552      87.2711  21.1696   0.1670  8.32    575.0490   1482.7103     1.286     0.867 -58.96
       297   1    -43.84436     27.20368  99.0000  99.0000  0.00   1494.5192   1491.4724     0.508     0.491 -44.31
       298   1     479.2731     60.06409  21.3533   0.1361  5.33   1001.2723    913.9099     1.204     1.096 -17.81
       299   1     401.1737     68.91001  21.5464   0.1865  6.46   1315.1787    905.8102     1.273     0.918 -73.04
       300   1     117390.7     86.02557  15.3807   0.0008  3.50   1592.4185    881.6274     2.524     2.456  78.51
       301   1     449.1536     57.70771  21.4238   0.1395  5.33   1425.6116    895.1293     1.332     0.901  22.24
       302   1     126.1241     43.36975  22.8028   0.3734  7.51   1495.2007   1438.3938     0.765     0.441  19.65
       303   1    -44.74719     56.90057  99.0000  99.0000  0.00    806.9644    923.3138     1.705     1.570  65.58
       304   1     713.1573     64.27978  20.9218   0.0979  4.61    838.4760    913.9817     1.454     1.365  19.87
       305   1      2516.94     60.57528  19.5526   0.0261  3.50    308.0300   1409.5125     1.859     1.658  26.47
       306   1     581.6039     54.40735  21.1432   0.1016  7.47    999.4857   1476.4878     1.041     0.500   0.19
       307   1     1828.529     66.40335  19.8995   0.0394  4.14   1067.0037    940.5593     1.745     1.480  57.79
       308   1     6583.915     71.75964  18.5086   0.0118  3.59    302.5987    901.8616     2.056     1.988 -34.10
       309   1      203.658     52.97155  22.2825   0.2825  7.53    253.0119    917.6951     0.750     0.681  -8.38
       310   1     15273.49      74.2931  17.5949   0.0053  3.50   1178.3051    931.0344     2.201     2.101  38.39
       311   1     119.7677     28.85386  22.8589   0.2616  6.94    647.3334   1439.7006     0.562     0.341  43.21
       312   1     141.2712     23.55907  22.6796   0.1811  5.30   1346.6786   1438.3149     0.564     0.340  44.67
       313   1     874.1543     88.14999  20.7008   0.1095  6.70    516.0169    940.1115     1.572     1.142  52.85
       314   1     895.8545     54.68999  20.6742   0.0663  3.80   1322.3403    929.8040     1.572     1.385  46.83
       315   1     146968.1     90.22439  15.1367   0.0007  3.50   1090.3253   1435.6713     2.677     2.602 -24.44
       316   1     2645.518     70.67722  19.4985   0.0290  4.09    618.8486   1441.0920     1.823     1.680 -20.90
       317   1     279.9137     48.40929  21.9372   0.1878  7.87    266.9670    950.5084     0.797     0.500   0.46
       318   1     667.4052     51.79425  20.9938   0.0843  3.50    349.3116   1411.7726     1.880     1.195  62.13
       319   1     597.6018     65.23212  21.1138   0.1185  5.90   1270.9764   1439.8511     1.330     0.943 -20.06
       320   1     968.8839     69.57798  20.5891   0.0780  4.59    798.0069    982.2236     1.607     1.483   3.67
       321   1     444.7596     83.84736  21.4345   0.2047  7.31    444.5894    948.8851     1.335     1.036  49.04
       322   1     3601.774     66.40335  19.1635   0.0200  3.73    224.4045   1436.6449     1.856     1.774  25.06
       323   1     178.9093     30.41463  22.4232   0.1846  7.35     60.3068    952.6716     0.563     0.340  46.12
       324   1     1140.539     79.50581  20.4120   0.0757  5.01    726.7319   1061.0553     1.869     1.399  -5.53
       325   1     563.5911     56.35606  21.1774   0.1086  5.60    329.5723   1407.5088     1.107     0.930  42.39
       326   1     344.3167     50.28389  21.7124   0.1586  7.67    569.1638   1067.8495     0.772     0.568 -43.07
       327   1     18609.74     79.11703  17.3804   0.0046  3.50   1126.1257   1420.6368     2.318     2.281 -34.36
       328   1     418.7583     46.45912  21.4999   0.1205  7.31    340.5226   1434.0306     0.823     0.499  88.05
       329   1     297.4565     49.04213  21.8712   0.1791  6.26      1.4686   1413.4269     1.831     0.497  88.51
       330   1     338.2114     40.24992  21.7318   0.1292  6.16    452.2737    979.4700     1.245     0.901  72.96
       331   1     456.0278     70.23959  21.4073   0.1673  6.08    806.3391   1390.4139     1.517     0.893  14.97
       332   1     358.5533     52.97155  21.6684   0.1604  5.00    416.5706    966.7556     1.190     0.957 -75.97
       333   1     740.5907     77.34332  20.8808   0.1134  6.89    654.4576    951.8934     1.280     1.030 -83.76
       334   1     1968.782     75.52798  19.8193   0.0417  4.66   1386.4370   1416.6246     1.742     1.548 -19.31
       335   1     2595.444     69.57798  19.5193   0.0291  3.94    713.0142   1391.7336     1.876     1.718 -18.73
       336   1      230.691     43.36975  22.1472   0.2042  6.43   1362.1821   1404.9912     0.940     0.467 -52.53
       337   1     82618.68     87.79948  15.7621   0.0012  3.50    114.2351   1394.7192     2.610     2.492  -2.33
       338   1     833.6971     84.21431  20.7523   0.1097  6.60    152.1203   1353.0374     1.536     1.084 -59.00
       339   1     9697.454     69.35603  18.0881   0.0078  3.50   1148.0122   1083.0811     2.076     1.992   4.60
       340   1     2106.845     89.19321  19.7457   0.0460  4.51   1218.8108   1073.2249     2.075     1.941 -45.91
       341   1     414.6259     35.55608  21.5106   0.0931  3.50      6.7693   1064.1989     1.065     0.952  17.79
       342   1     1762.606     62.08361  19.9394   0.0383  3.90   1038.5681   1393.6564     1.736     1.508  30.23
       343   1     300259.6     124.1672  14.3610   0.0004  3.50   1159.4253   1367.8368     4.243     3.060  14.94
       344   1     845.9756     80.08546  20.7364   0.1028  5.47   1031.5410   1401.7460     1.633     1.347 -12.84
       345   1     7714.522     69.13338  18.3365   0.0097  3.50   1428.3429   1390.1338     2.015     1.981  24.43
       346   1     597.0203     56.35606  21.1148   0.1025  4.62      6.8716   1074.2052     1.362     1.112 -18.31
       347   1     361.8553     52.97155  21.6584   0.1590  7.54    396.6888   1089.9775     0.741     0.678  78.15
       348   1     450.3717     38.06895  21.4209   0.0918  5.07   1596.9507   1067.0283     0.796     0.782 -16.17
       349   1      936.168      95.0508  20.6264   0.1103  5.70    468.3736   1091.7946     2.025     1.407 -46.23
       350   1     502.4183     38.06895  21.3021   0.0823  4.11    386.3806   1331.4196     1.014     0.857  44.83
       351   1      142.387     35.98708  22.6711   0.2745  8.30    429.3361   1094.3149     0.570     0.337 -44.00
       352   1     478.4097     59.54851  21.3553   0.1352  7.47   1273.8695   1386.6847     0.947     0.678 -70.91
       353   1     33996.72     82.92288  16.7262   0.0026  3.50    512.0276   1081.2974     2.425     2.366   3.34
       354   1     1847.106     139.3774  19.8886   0.0819  6.88    478.9657   1112.3186     2.244     1.894  26.14
       355   1     8933.572     74.08529  18.1772   0.0090  3.55   1018.7087   1373.8938     2.214     2.032  -5.56
       356   1     247.6277     58.50372  22.0703   0.2566  6.20   1452.9968   1087.1072     1.198     0.771 -58.43
       357   1     13800.76     127.5965  17.7050   0.0100  3.64    609.6885   1274.1567     4.494     2.827 -59.67
       358   1     931.3497     58.50372  20.6320   0.0682  4.53    892.7053   1306.1177     1.545     1.114  10.67
       359   1     672.3954     85.66639  20.9857   0.1384  6.51    674.4939   1115.3567     1.509     1.177  11.95
       360   1     959.2721     91.58122  20.5999   0.1037  6.19    678.2977   1106.8710     1.730     1.319 -51.68
       361   1     7107.889     72.82596  18.4254   0.0111  3.61    427.8470   1108.7615     2.142     1.984 -15.39
       362   1     912.3901     50.58957  20.6543   0.0602  3.50    107.1236   1333.7377     1.515     1.391 -13.21
       363   1     10950.58      74.2931  17.9562   0.0074  3.50    751.7592   1105.7592     2.197     2.087  12.39
       364   1     4291.988     67.09628  18.9731   0.0170  3.56   1331.1583   1279.3622     1.973     1.870  75.39
       365   1     407.1675     56.90057  21.5303   0.1518  5.99    604.6953   1347.4882     1.121     0.830 -37.75
       366   1     31737.29     92.80023  16.8009   0.0032  3.50    659.7673   1321.3125     2.415     2.358  26.44
       367   1     3527.112     61.26084  19.1862   0.0189  3.78    655.5963   1331.2336     2.026     1.840  21.58
       368   1     1219.868     105.3594  20.3390   0.0938  6.80   1139.4945   1332.0455     1.839     1.328 -84.41
       369   1     509.0687     42.65284  21.2878   0.0910  3.50    263.9218   1320.5798     1.356     1.157  87.87
       370   1     251.4354     48.08976  22.0537   0.2077  8.41     53.7503   1300.4139     0.759     0.449 -19.42
       371   1     427.9438     59.02842  21.4763   0.1498  7.46    607.3632   1134.8855     0.926     0.679  18.15
       372   1     3031.797     63.87155  19.3505   0.0229  4.31    669.5031   1308.7135     2.212     1.704 -40.71
       373   1     466.3877     56.90057  21.3829   0.1325  6.42     47.7611   1239.1719     0.957     0.857 -21.29
       374   1     2722.297     85.66639  19.4674   0.0342  4.01   1035.8164   1308.8643     2.483     1.886 -37.66
       375   1     9732.401     74.70699  18.0842   0.0083  3.50   1194.6746   1220.2122     2.221     2.136  79.30
       376   1     194802.2      96.9777  14.8308   0.0005  3.50    724.7348   1299.5779     3.006     2.626 -13.72
       377   1     7084.766      77.5424  18.4290   0.0119  3.55    762.0449   1292.6382     2.462     2.015 -19.58
       378   1     928.2456     58.76665  20.6356   0.0688  4.29    412.4755   1293.8401     1.530     1.267  -9.04
       379   1     713.6174      73.6679  20.9211   0.1121  5.70    547.3597   1130.1278     1.403     1.218 -12.51
       380   1     444.0293     70.01974  21.4363   0.1713  7.10    855.2509   1263.6656     1.106     0.924  59.97
       381   1     221.9921     40.04273  22.1889   0.1959  7.20    545.4184   1292.7781     0.753     0.449 -70.33
       382   1     260.4457     54.12324  22.0155   0.2257  7.25    357.5125   1132.3717     1.445     0.399 -36.20
       383   1       1423.2     72.82596  20.1716   0.0556  4.07    432.3235   1260.6809     2.006     1.652  39.19
       384   1     3451.229     69.13338  19.2098   0.0218  3.81    807.7172   1266.6024     1.921     1.787  21.31
       385   1     503.6444      61.0822  21.2995   0.1317  5.84   1153.2823   1229.8680     1.141     0.989  39.15
       386   1     706999.8      189.533  13.4312   0.0003  3.50    994.9560   1222.6515     5.721     5.297 -18.85
       387   1     313.2766     53.55049  21.8150   0.1856  7.16    697.8719   1275.1455     0.820     0.682  44.55
       388   1     198.9761     35.98708  22.3078   0.1964  6.30    857.8015   1239.4313     0.723     0.459 -19.51
       389   1     898.0389     49.66689  20.6715   0.0601  3.68    672.2609   1243.6359     1.512     1.251  45.24
       390   1     238.2958     40.04273  22.1120   0.1825  8.04    216.5174   1262.5000     0.507     0.493  45.65
       391   1     32234.54     81.61103  16.7840   0.0027  3.50    147.8721   1139.7532     2.420     2.293   8.49
       392   1     2267.367     94.39976  19.6660   0.0452  4.85    124.0824   1196.0813     2.138     1.819 -57.97
       393   1     2810.697     67.32566  19.4327   0.0260  3.92    304.5524   1235.6237     1.862     1.665  17.18
       394   1     1923.451     69.13338  19.8446   0.0390  4.41   1553.3666   1238.3259     1.624     1.543 -27.74
       395   1     1102.231      89.0202  20.4491   0.0877  6.26    599.4329   1231.2922     1.531     1.376   2.44
       396   1     1346.222     82.55019  20.2320   0.0666  4.85   1441.9395   1201.8480     1.812     1.625  52.88
       397   1     1975.706     113.5299  19.8155   0.0624  5.50   1429.0648   1213.8219     2.314     1.913  62.25
       398   1     235.7177     40.42592  22.1238   0.1863  7.87    914.0066   1229.0000     0.858     0.289   0.00
       399   1     15085.84     74.91308  17.6084   0.0054  3.50    512.8164   1215.8934     2.202     2.129  15.78
       400   1     305826.8     102.5414  14.3411   0.0004  3.50    693.7171   1152.9501     3.016     2.910 -19.54
       401   1     7747.475     129.7533  18.3319   0.0182  3.63    757.7162   1174.0677     3.644     3.620 -45.34
       402   1     1479.088     62.57831  20.1298   0.0459  3.50   1075.6238   1204.6260     1.933     1.730  31.30
       403   1     16955.18     76.54182  17.4815   0.0049  3.50    813.5752   1011.1388     2.236     2.154  15.29
       404   1      260.132      31.4121  22.0168   0.1311  6.73   1216.5016   1205.4939     0.501     0.499 -44.35
       405   1     528.8295     52.38621  21.2465   0.1076  4.29    549.4454   1182.1754     1.339     1.138  52.54
       406   1     428.0846     70.23959  21.4760   0.1782  6.34   1053.3743   1197.8005     1.564     0.815  43.07
       407   1     322.6002     42.65284  21.7831   0.1436  5.56    176.4455   1183.4515     1.019     0.596  43.21
       408   1     15496.14     157.8438  17.5792   0.0111  3.50   1278.7762   1211.9427     5.910     3.549  81.36
       409   1     1919.983     72.18805  19.8465   0.0408  4.66    838.6198   1209.0648     1.629     1.531 -85.48
       410   1     369.6172     51.19546  21.6354   0.1504  6.98    673.8151   1184.0507     0.843     0.646  49.31
       411   1     186.3727     52.67969  22.3788   0.3070  7.66    769.3144   1146.9288     0.740     0.661 -78.58
       412   1     155.1862      31.4121  22.5776   0.2198  7.59   1599.5153   1168.4935     0.514     0.486  45.20
       413   1     16757.92     77.93905  17.4942   0.0051  3.50    183.3221   1131.2684     2.263     2.227 -33.12
       414   1     51601.84      83.1086  16.2731   0.0017  3.50   1299.5200   1166.4520     2.443     2.420 -18.22
       415   1     130.6831      31.4121  22.7642   0.2610  6.11     18.4826   1177.4873     0.507     0.492 -45.27
       416   1     1545.602     76.94361  20.0820   0.0541  4.60     99.1998   1152.6638     1.736     1.672   1.48
       417   1     599.2634     61.83478  21.1107   0.1121  5.70    887.9297   1162.4755     1.214     0.999  -3.09
       418   1     616.8019     67.32566  21.0794   0.1185  5.47    219.2832   1131.3656     1.407     1.133   5.72
       419   1     5914.709     71.32864  18.6249   0.0131  3.66    236.1456   1159.0969     2.114     1.861  28.13
       420   1     1531.979     54.40735  20.0916   0.0386  3.50    338.7113   1203.1788     1.595     1.555 -30.19
       421   1     275.5461     47.11815  21.9543   0.1857  7.47    566.4995   1159.0020     0.808     0.499 -87.40
       422   1     935.3534     73.87689  20.6273   0.0858  4.83   1352.9104   1154.7657     1.614     1.496 -16.12
       423   1     66.70386      19.2359  23.4944   0.3132  4.86    921.3041   1080.3595     0.575     0.333 -47.44
       424   1     778.6764      83.4788  20.8264   0.1164  7.50    662.0576   1142.4078     1.224     1.053  77.12
       425   1     2536.974     105.5056  19.5440   0.0452  4.51    329.5204   1121.3683     2.915     1.938  59.09
       426   1     957.2968     65.46805  20.6022   0.0743  4.88   1526.4592   1096.9320     1.378     1.340  39.67
       427   1     3204.608     66.17076  19.2903   0.0224  3.72    642.2306   1090.5541     1.830     1.775  36.55
       428   1     31068.81     80.08546  16.8240   0.0028  3.50    777.9907   1096.1063     2.352     2.299  20.55
       429   1     570.0503     49.04213  21.1650   0.0934  4.75    329.8643   1080.5232     1.275     0.874 -14.82
       430   1     279.5009     30.91739  21.9388   0.1201  3.84   1136.1642   1096.0427     0.929     0.750  -2.80
       431   1     8801.198     73.45832  18.1934   0.0091  3.63    525.2812   1039.9791     2.100     2.006  39.19
       432   1     440.0696     60.57528  21.4460   0.1495  5.11     42.7669   1084.7773     1.515     0.952  -2.67
       433   1     1112.073     94.39976  20.4394   0.0922  6.06   1563.1591   1066.8558     1.791     1.399  75.22
       434   1     285.7987     38.47181  21.9146   0.1462  8.91   1268.9786   1022.3207     0.914     0.210  27.92
       435   1     300.6747     42.65284  21.8595   0.1541  6.71    452.9904   1015.7997     0.813     0.506 -57.19
       436   1     43482.57     82.17582  16.4590   0.0021  3.50    632.9153   1041.5137     2.383     2.353  15.00
       437   1     798.4241     72.40131  20.7992   0.0985  7.54    121.8496   1039.7445     1.327     0.716  -7.06
       438   1     486294.8     96.65922  13.8375   0.0002  3.50     50.2350   1025.0127     2.858     2.765 -13.87
       439   1     166.9082     35.55608  22.4986   0.2313  7.17    467.0000   1041.9910     0.854     0.289  90.00
       440   1      1939.07     97.45348  19.8358   0.0546  4.45    302.4050   1031.5867     2.790     1.770  70.40
       441   1     19820.71     76.94361  17.3120   0.0042  3.50   1379.8351   1027.0432     2.265     2.218  39.68
       442   1     2647.411     71.54446  19.4977   0.0293  4.11    344.5635   1012.5897     1.809     1.763  27.07
       443   1     30124.04     79.69949  16.8575   0.0029  3.50    558.3832    986.2089     2.341     2.296  37.48
       444   1     1991.346     113.9365  19.8069   0.0621  6.13    454.2320    987.8520     1.987     1.789  47.58
       445   1     204.6748      31.4121  22.2771   0.1667  6.80    266.9891   1011.5045     0.807     0.310 -31.78
       446   1     2862.321     71.54446  19.4130   0.0271  3.95    542.3765   1002.9374     1.957     1.741  41.74
       447   1     215.7378     57.70771  22.2200   0.2905  7.06    232.9362    999.1951     1.047     0.668 -30.84
       448   1      785.162     53.26181  20.8174   0.0737  4.14   1273.6106   1001.1895     1.429     1.189  -3.59
