#   1 KRON_RADIUS            Kron apertures in units of A or B                         
#   2 MAGERR_APER            RMS error vector for fixed aperture mag.                   [mag]
#   3 Y_IMAGE                Object position along y                                    [pixel]
#   4 X_IMAGE                Object position along x                                    [pixel]
#   5 FLUX_APER              Flux vector within fixed circular aperture(s)              [count]
#   6 THRESHOLD              Detection threshold above background                       [count]
#   7 THETA_IMAGE            Position angle (CCW/x)                                     [deg]
#   8 A_IMAGE                Profile RMS along major axis                               [pixel]
#   9 B_IMAGE                Profile RMS along minor axis                               [pixel]
#  10 FLUX_RADIUS            Fraction-of-light radii                                    [pixel]
#  11 FLUXERR_APER           RMS error vector for aperture flux(es)                     [count]
#  12 MAG_APER               Fixed aperture magnitude vector                            [mag]
#  13 NUMBER                 Running object number                                     
 4.23   0.0000     53.2652     63.6543     56511.18      43.5214   3.17     5.181     4.630      3.573   0.01318744  16.1697          1
 3.95   0.0000     16.5149    985.0804     8842.961      43.5214 -88.61     4.203     1.941      2.982   0.01318296  18.1835          2
 4.06   0.0000     18.0504     91.3141      7233.07      43.5214   0.42     1.768     1.716      2.218   0.01318594  18.4017          3
 3.50   0.0000     14.6167   1445.7477     21325.14      43.5214 -47.82     1.890     1.819      2.209   0.01319639  17.2278          4
 8.12   0.0000     10.2946   1183.6542     295.6055      43.5214  42.42     0.565     0.339      2.272   0.01318296  21.8732          5
 7.36   0.0000      4.2259    145.0241     297.8379      43.5214  89.83     0.957     0.768      3.088   0.01181888  21.8650          6
 6.64   0.0000     17.2495    384.5071     822.5478      43.5214  19.99     0.993     0.952      2.337   0.01318146  20.7621          7
 5.14   0.0000     24.7971    367.2085      1404.07      43.5214  13.81     1.305     1.234      2.191   0.01318744  20.1815          8
 3.50   0.0000     59.7850   1078.4766     105473.3      43.5214  77.02     2.287     2.159      2.246   0.01320087  15.4921          9
 8.57   0.0000     23.7800    383.3999     932.9934      43.5214 -71.85     0.755     0.452      2.310   0.01319192  20.6253         10
 6.41   0.0000     33.9023   1110.1802     731.7966      43.5214  68.24     1.657     0.778      2.362   0.01318594  20.8890         11
 7.88   0.0000     33.3076    326.9492      537.801      43.5214  -6.92     0.747     0.677      2.482   0.01318445  21.2234         12
 5.98   0.0000     37.8655   1521.1591     444.1393      43.5214  46.72     0.834     0.669      2.300   0.01319192  21.4312         13
 7.05   0.0000     38.8750   1170.6508     389.1982      43.5214 -19.52     0.923     0.691      2.228   0.01318296  21.5746         14
 5.87   0.0000     42.4605    915.4996     463.7977      43.5214 -77.10     0.913     0.907      2.216   0.01318146  21.3842         15
 3.50   0.0000     80.1536    537.6561     96326.44      43.5214 -59.56     2.145     2.122      2.278   0.01319042  15.5906         16
 9.02   0.0000     44.6655    440.6699      463.555      43.5214 -45.19     0.576     0.334      1.919   0.01318445  21.3847         17
 4.26   0.0000     75.2162    128.0142     2987.848      43.5214  -5.75     1.516     1.469      2.255   0.01319192  19.3616         18
 6.64   0.0000     82.2787    421.5101     589.6189      43.5214 -15.66     0.994     0.986      2.412   0.01318146  21.1236         19
 3.50   0.0000    121.8120    789.2006     144842.6      43.5214 -62.81     2.230     2.179      2.166   0.01319192  15.1478         20
 6.02   0.0000     90.7295    376.9918     1401.704      43.5214   4.47     1.628     1.442      2.833   0.01319788  20.1834         21
 4.42   0.0000     96.6151     56.2576     4345.606      43.5214 -38.95     1.639     1.566      2.183   0.01319341  18.9549         22
 6.10   0.0000     98.0585    452.9797     934.9857      43.5214 -14.82     1.454     1.005      2.327   0.01319639  20.6230         23
 7.39   0.0000     91.4945    495.9650      427.608      43.5214  -1.40     0.788     0.500      2.235   0.01318296  21.4724         24
 3.50   0.0000    162.2989   1468.3301     82191.99      43.5214 -48.48     2.111     2.074      2.162   0.01318445  15.7629         25
 6.85   0.0001    131.2865    418.0175     286.4363      43.5214   5.64     0.729     0.681      2.279   0.01319042  21.9074         26
 3.55   0.0000    170.2996    877.3505      16644.6      43.5214  -8.96     1.882     1.865      2.182   0.01317399  17.4968         27
 8.52   0.0000    151.4999   1280.4825     364.5128      43.5214 -47.88     0.501     0.498      2.017   0.01317549  21.6457         28
 5.51   0.0000    164.9741   1445.6677     1188.919      43.5214  17.35     1.303     1.186      2.251   0.01319341  20.3621         29
 4.82   0.0000    166.8505    104.4303     998.4245      43.5214 -46.35     1.196     1.124      2.163   0.01319639  20.5517         30
 6.42   0.0000    169.3397   1368.8977     353.6885      43.5214  68.06     0.910     0.689      2.227   0.01318146  21.6784         31
 7.68   0.0000    180.3316    574.9897     765.1697      43.5214  53.18     1.039     0.643      2.572   0.01319938  20.8406         32
 7.49   0.0000    186.6387   1354.8976     623.1357      43.5214  75.59     1.045     0.753      2.478   0.01317997  21.0635         33
 5.30   0.0000    192.6023   1350.5554     1618.485      43.5214 -19.15     1.368     1.305      2.158   0.01319938  20.0272         34
 4.77   0.0000    210.7202    827.6749     6300.052      43.5214  -5.78     3.810     2.091      2.902   0.01318594  18.5516         35
 4.14   0.0000    206.7225    549.0807     3182.061      43.5214   3.37     1.545     1.484      2.194   0.01318744  19.2932         36
 4.19   0.0000    212.1664   1306.1005     2991.768      43.5214 -64.54     1.516     1.487      2.153   0.01317698  19.3602         37
 5.52   0.0000    230.1494    562.2775     5480.257      43.5214 -37.31     3.231     3.004      4.267   0.01318296  18.7030         38
 5.76   0.0000    210.8939    684.8484     861.4748      43.5214 -66.39     1.218     1.115      2.368   0.01318146  20.7119         39
 3.50   0.0000    259.7588    997.4791     270865.8      43.5214 -48.81     2.331     2.263      2.175   0.01318893  14.4681         40
 3.92   0.0000    223.9121   1226.0618     3754.509      43.5214  25.89     1.523     1.479      2.106   0.01318445  19.1136         41
 4.86   0.0000    222.6267    774.9695     1189.578      43.5214  81.57     1.224     1.191      2.129   0.01319341  20.3615         42
 3.50   0.0000    265.9002     67.6173     186342.6      43.5214 -49.31     2.268     2.237      2.268   0.01318594  14.8742         43
 5.52   0.0000    243.9732    112.8913     2399.522      43.5214 -88.19     1.951     1.539      3.092   0.01318744  19.5997         44
 4.81   0.0000    255.4885    613.0098     5936.458      43.5214 -41.01     2.436     2.028      2.523   0.01319192  18.6162         45
 6.52   0.0000    239.3535    838.8231     784.3036      43.5214  -5.84     1.203     1.102      2.268    0.0131949  20.8138         46
 7.18   0.0000    250.5180    107.4840     854.8334      43.5214 -42.78     1.108     0.852      2.434   0.01318296  20.7203         47
 3.50   0.0000    287.5196   1486.4733     42913.24      43.5214 -43.97     2.033     1.992      2.187   0.01318445  16.4685         48
 3.66   0.0000    281.9236   1522.4003     8623.599      43.5214   3.77     1.701     1.668      2.105   0.01319341  18.2108         49
 6.46   0.0000    270.7727   1273.6278     605.6075      43.5214  16.49     1.000     0.849      2.188    0.0131949  21.0945         50
 3.50   0.0000    303.1506    201.7659     29982.25      43.5214 -78.11     1.968     1.942      2.261   0.01319341  16.8578         51
 6.27   0.0000    293.2967   1475.8354     1128.218      43.5214 -33.66     1.250     1.086      2.107   0.01317848  20.4190         52
 4.64   0.0000    302.2875    563.6751     1461.841      43.5214  31.81     1.325     1.283      2.199   0.01318146  20.1377         53
 3.50   0.0000    322.0853    697.3419      19203.5      43.5214   1.78     1.882     1.848      2.094   0.01318594  17.3415         54
 7.64   0.0000    308.7069     85.2985     588.2902      43.5214  45.78     0.969     0.767      2.235   0.01317997  21.1260         55
 6.05   0.0000    321.9905    641.4783      1370.05      43.5214 -64.00     1.799     1.232      2.972    0.0131949  20.2082         56
 5.16   0.0000    327.5369    595.4523     3177.984      43.5214 -52.10     1.728     1.694      2.404   0.01318744  19.2946         57
 6.07   0.0000    329.2517   1546.0168     645.4833      43.5214 -87.78     0.913     0.756      2.276   0.01319639  21.0253         58
 5.83   0.0000    332.2679     93.4347     775.5366      43.5214  20.40     0.992     0.948      2.141   0.01319341  20.8260         59
 4.78   0.0000    350.1319     54.7084         1681      43.5214  -8.51     1.366     1.298      2.249   0.01318296  19.9861         60
 3.50   0.0000    368.1670    761.1217     19697.33      43.5214 -26.12     1.940     1.871      2.122   0.01319042  17.3140         61
 4.02   0.0000    361.1491   1500.4037     3281.677      43.5214 -15.08     1.586     1.464      2.243   0.01320087  19.2598         62
 3.50   0.0000    395.2009    231.4691       108883      43.5214 -63.05     2.184     2.143      2.263   0.01319788  15.4576         63
 5.78   0.0000    360.5269   1034.0070     912.7425      43.5214  -1.40     1.111     0.957      2.253   0.01319788  20.6491         64
 6.91   0.0000    375.4792    754.0627     798.4434      43.5214  56.22     1.715     0.961      2.033   0.01318296  20.7944         65
 7.68   0.0000    370.3091     71.9499     473.7242      43.5214 -10.89     0.743     0.672      2.203   0.01318744  21.3612         66
 6.47   0.0000    373.4826   1083.8826     713.1023      43.5214 -17.84     1.100     0.990      2.455   0.01318296  20.9171         67
 6.41   0.0002    380.6161      1.4882     65.09715      43.5214 -89.79     1.601     0.500      3.001   0.01007989  23.5161         68
 3.50   0.0000    397.0519   1461.2017     14267.54      43.5214 -44.85     1.804     1.797      2.119   0.01320087  17.6641         69
 3.50   0.0000    398.1799    354.6261     15263.39      43.5214 -13.53     1.890     1.844      2.229   0.01319192  17.5909         70
 8.09   0.0000    375.6552     87.2937     405.2644      43.5214  47.61     0.564     0.339      2.061   0.01318445  21.5307         71
 6.71   0.0000    380.1594    125.8447     611.0153      43.5214  44.65     0.818     0.680      2.369    0.0131949  21.0849         72
 4.22   0.0000    393.8183   1088.7736     3236.468      43.5214 -35.06     1.516     1.449      2.147   0.01319341  19.2748         73
 8.89   0.0000    382.4900     67.5055     491.4935      43.5214 -44.69     0.503     0.497      2.110   0.01317848  21.3212         74
 8.07   0.0000    388.6902   1195.3347     315.1455      43.5214  43.77     0.567     0.338      2.447   0.01318744  21.8037         75
 6.14   0.0001    412.0432      1.7727     155.2204      43.5214  90.00     2.505     0.701      4.363   0.01029061  22.5726         76
 7.90   0.0000    396.8768    626.5975     1244.568      43.5214 -73.71     1.239     0.985      3.006   0.01319341  20.3125         77
 8.16   0.0000    403.6928    526.4366     575.8854      43.5214  81.17     1.023     0.476      2.337   0.01318445  21.1492         78
 7.54   0.0000    407.0518    282.4902     435.8179      43.5214 -88.59     0.787     0.500      2.013   0.01318744  21.4517         79
 3.50   0.0000    437.9478    252.1072     32466.93      43.5214 -87.21     2.006     1.974      2.224   0.01318445  16.7714         80
 3.50   0.0000    461.0704    807.6703     276946.8      43.5214 -68.51     2.341     2.304      2.135   0.01317698  14.4440         81
 5.83   0.0000    420.9021    159.0900     1452.426      43.5214  37.62     1.694     1.421      2.381   0.01317848  20.1448         82
 7.67   0.0000    419.5386   1580.4929     360.7473      43.5214  40.47     0.504     0.495      2.321   0.01318445  21.6570         83
 4.17   0.0000    432.9492   1422.0629     2173.256      43.5214   6.85     1.427     1.396      2.110   0.01318744  19.7072         84
 6.72   0.0000    426.5748   1179.2787     869.5701      43.5214  26.35     1.188     0.957      2.576   0.01319192  20.7017         85
 6.42   0.0000    426.8329    433.0970     83668.38      43.5214  -3.27     2.183     0.735      4.313   0.01318146  15.7436         86
 5.15   0.0000    434.2586    151.1154     992.3832      43.5214 -20.05     1.138     1.034      2.081   0.01318594  20.5583         87
 3.88   0.0000    450.3392     21.3603     9553.813      43.5214 -27.47     1.777     1.769      2.197   0.01319341  18.0996         88
 5.07   0.0000    467.7993    850.4810      7484.57      43.5214  22.59     7.403     2.054      5.037   0.01319341  18.3646         89
 9.05   0.0000    430.6650    719.3185     733.4137      43.5214  45.76     0.572     0.336      1.979   0.01318146  20.8866         90
 4.48   0.0000    440.0043    305.8401     1101.195      43.5214  22.45     1.160     1.136      2.137   0.01319341  20.4453         91
 5.42   0.0000    445.2589    122.3780     1462.019      43.5214 -23.52     1.401     1.309      2.374   0.01319639  20.1376         92
 3.80   0.0000    457.8408     34.5939     11226.81      43.5214 -30.83     1.779     1.767      2.226    0.0131949  17.9244         93
 8.05   0.0000    443.6886    655.3237     328.0756      43.5214  44.36     0.563     0.340      2.127   0.01317997  21.7601         94
 4.32   0.0000    463.6414    468.6490     3146.486      43.5214  70.99     1.619     1.558      2.249   0.01319639  19.3054         95
 6.24   0.0000    452.9206   1533.0249     549.8854      43.5214 -31.03     0.792     0.774      2.224   0.01319192  21.1993         96
 5.22   0.0000    460.9918   1096.1410     1022.135      43.5214  47.71     1.191     1.080      2.412   0.01320087  20.5262         97
 4.60   0.0000    471.3581    254.2742     2706.625      43.5214 -79.51     1.510     1.439      2.211   0.01318893  19.4689         98
 4.03   0.0000    472.1380    734.9207     3931.987      43.5214  75.27     1.566     1.511      2.203   0.01318296  19.0635         99
 7.71   0.0000    461.8358    724.7247     627.0784      43.5214 -20.12     0.949     0.683      2.463   0.01318893  21.0567        100
 3.70   0.0000    477.9271    923.0840     5160.209      43.5214 -28.67     1.679     1.612      2.138   0.01318296  18.7683        101
 4.34   0.0000    477.2791   1276.4363      1889.13      43.5214 -44.53     1.334     0.920      3.008   0.01318893  19.8593        102
 5.84   0.0000    488.9431    839.6031      894.014      43.5214  87.10     2.059     0.959      2.872   0.01320087  20.6716        103
 4.14   0.0000    484.0388   1070.6680     2285.806      43.5214 -80.82     1.429     1.400      2.165   0.01319192  19.6524        104
 7.10   0.0000    475.9789   1168.4807     384.3658      43.5214  89.68     0.781     0.500      2.067   0.01319341  21.5881        105
 5.40   0.0000    496.2654     82.9187     3639.318      43.5214  66.13     2.311     2.046      3.241   0.01318146  19.1474        106
 6.87   0.0000    478.8629    682.8434     520.2889      43.5214 -46.10     0.819     0.679      2.173   0.01318893  21.2594        107
 5.12   0.0000    495.7248   1186.8407     3533.711      43.5214 -15.71     2.996     1.931      3.355   0.01318893  19.1794        108
 5.26   0.0000    504.0796    762.8668     2158.869      43.5214 -10.71     1.688     1.646      2.563   0.01318146  19.7144        109
 4.77   0.0000    502.0138    863.8067     1271.766      43.5214  64.62     1.201     1.192      2.252   0.01318445  20.2890        110
 4.57   0.0000    515.3623   1461.0657     4524.811      43.5214  23.93     4.115     1.649      2.917   0.01319341  18.9110        111
 6.08   0.0000    498.0054    366.2516     540.5697      43.5214   0.37     0.926     0.749      2.342   0.01320087  21.2179        112
 6.08   0.0000    509.9191    164.8152     1376.991      43.5214  -5.95     1.820     1.073      2.951    0.0131949  20.2027        113
 4.83   0.0000    513.8598   1179.1876     1326.176      43.5214  24.06     1.285     1.178      2.177    0.0131949  20.2435        114
 5.52   0.0000    519.1540    641.9484     953.0789      43.5214  22.36     1.200     1.120      2.319   0.01319788  20.6022        115
 6.45   0.0000    518.1915   1519.1722      476.938      43.5214  45.74     0.761     0.567      2.230   0.01319341  21.3538        116
 4.09   0.0000    540.2067    999.9378     3440.601      43.5214  61.15     1.534     1.490      2.180   0.01319938  19.2084        117
 6.53   0.0000    536.3547    404.5305      652.243      43.5214  38.93     1.195     0.786      1.936   0.01318744  21.0140        118
 3.90   0.0000    558.9035   1041.7982     4475.672      43.5214   6.20     1.633     1.563      2.188   0.01319042  18.9229        119
 4.74   0.0000    571.3472     45.9143     3115.098      43.5214  46.17     2.084     1.522      2.267   0.01318445  19.3163        120
 5.98   0.0000    555.8228    778.8107     392.0096      43.5214  44.57     0.756     0.567      2.168   0.01319042  21.5668        121
 3.50   0.0000    580.7163    144.9663     19914.01      43.5214  83.47     1.885     1.868      2.244   0.01319192  17.3021        122
 4.85   0.0000    571.3085   1447.7944      2777.25      43.5214  19.43     2.258     1.637      2.392   0.01318594  19.4410        123
 5.88   0.0000    565.0881    139.5546     804.7439      43.5214 -69.74     1.052     0.977      2.128   0.01318594  20.7859        124
 3.50   0.0000    582.1971    319.2584      18811.1      43.5214   7.31     1.887     1.830      2.123   0.01320087  17.3640        125
 4.29   0.0000    596.7602    782.6867     8855.707      43.5214 -62.08     3.302     3.182      3.659   0.01319042  18.1819        126
 5.97   0.0000    576.2225   1001.8235     919.3694      43.5214  40.80     1.216     1.076      2.346   0.01319341  20.6413        127
 4.64   0.0000    584.5398     76.0209     1162.079      43.5214  -0.84     1.205     1.138      2.260   0.01319639  20.3869        128
 4.19   0.0000   1001.5298   1555.4829     2206.184      43.5214  54.97     1.346     1.330      2.141   0.01318146  19.6909        129
 4.71   0.0000   1597.6036    654.7847     633.9244      43.5214   1.75     1.659     1.434      2.588    0.0113428  21.0449        130
 5.16   0.0000   1594.7568    374.1190     880.3422      43.5214  42.74     1.307     1.027      1.904   0.01274553  20.6884        131
 4.05   0.0000   1584.9181   1108.9316     3532.194      43.5214 -15.59     1.433     1.357      2.159   0.01318445  19.1799        132
 6.78   0.0000   1585.9497   1069.5099      1140.58      43.5214 -88.96     0.783     0.500      2.357   0.01318594  20.4072        133
 3.60   0.0000   1541.8564    135.1745     7549.318      43.5214  54.68     1.663     1.623      2.132    0.0131949  18.3552        134
 8.74   0.0000   1519.3268     85.3294      777.791      43.5214 -44.88     0.573     0.336      1.926   0.01317997  20.8228        135
 4.79   0.0000   1514.6519    483.6263       1470.7      43.5214 -43.74     1.049     0.951      2.274   0.01319639  20.1312        136
 4.90   0.0000    912.4185   1001.2366     1057.589      43.5214  73.44     0.989     0.957      2.097    0.0131949  20.4892        137
 3.50   0.0000    900.4997    302.8331     12708.64      43.5214 -64.19     1.794     1.787      2.201   0.01317848  17.7898        138
 4.92   0.0000    896.1861    538.5018     2790.539      43.5214   6.05     1.942     1.608      2.294   0.01318744  19.4358        139
 5.31   0.0000    893.7880   1426.2821     813.3495      43.5214 -16.60     0.974     0.854      2.079    0.0131949  20.7743        140
 3.50   0.0000    880.2065   1592.6320     191429.1      43.5214 -83.52     2.300     2.188      2.045   0.01319639  14.8450        141
 6.04   0.0000    888.8303    325.8213     1648.078      43.5214  17.19     1.767     1.100      2.104   0.01319192  20.0076        142
 8.02   0.0000    888.6788    681.3232     472.6421      43.5214  44.90     0.568     0.338      2.158   0.01318744  21.3637        143
 4.51   0.0000    885.7850   1500.2664     1578.932      43.5214  10.00     1.303     1.227      2.112   0.01319788  20.0541        144
 7.04   0.0000    885.0953    339.2578     964.2855      43.5214  -2.69     1.149     0.882      2.204   0.01318146  20.5895        145
 4.70   0.0000    877.6797    961.0908     1101.714      43.5214  27.86     1.126     1.034      2.183   0.01318445  20.4448        146
 6.46   0.0000    876.3213    541.9203      432.115      43.5214  -7.28     0.737     0.667      2.118   0.01318445  21.4610        147
 4.13   0.0000    869.4717   1103.7170     4754.554      43.5214 -55.22     1.983     1.793      2.251   0.01318146  18.8572        148
 4.96   0.0000    867.9886    939.9118     2040.197      43.5214  41.19     1.806     1.355      2.350   0.01319192  19.7758        149
 6.15   0.0000    869.3575    643.8528     712.9584      43.5214  68.50     0.904     0.687      2.232   0.01319341  20.9173        150
 8.15   0.0000    860.4996   1554.4683     348.1421      43.5214  48.21     0.504     0.495      2.059   0.01318594  21.6956        151
 4.53   0.0000    858.5098   1339.6924     1274.737      43.5214 -89.55     1.308     1.113      2.188   0.01317997  20.2864        152
 9.07   0.0000    855.5103    545.4817     658.3353      43.5214 -46.32     0.502     0.497      2.434   0.01318296  21.0039        153
 4.16   0.0000    844.9837   1063.9657     952.7827      43.5214   1.03     1.169     1.133      2.158   0.01319341  20.6025        154
 4.40   0.0000    843.3248   1106.2646     1972.741      43.5214  40.34     1.667     1.341      2.121   0.01318146  19.8123        155
 4.56   0.0000    836.6466    298.8450     2817.799      43.5214  11.92     1.467     1.396      2.174   0.01319639  19.4252        156
 6.83   0.0000    836.6003   1520.7371     399.9789      43.5214  18.11     0.733     0.456      2.066   0.01320087  21.5449        157
 5.73   0.0000    835.6805    819.1954      671.715      43.5214 -72.93     0.960     0.861      2.072   0.01319341  20.9820        158
 3.50   0.0000    822.9877    654.4249     12751.67      43.5214  74.96     1.838     1.773      2.049   0.01319042  17.7861        159
 7.91   0.0000    819.4906   1398.4888     424.2595      43.5214  46.70     0.500     0.500      2.209   0.01317997  21.4809        160
 3.50   0.0000    803.0379   1378.7590     12219.59      43.5214 -72.46     1.796     1.752      2.111   0.01319639  17.8324        161
 3.50   0.0000    798.4418    695.7374     34957.68      43.5214 -88.12     2.639     1.966      2.686   0.01319042  16.6911        162
 4.17   0.0000    800.7010     41.1932     5603.819      43.5214 -23.53     1.671     1.577      2.243   0.01318744  18.6788        163
 4.28   0.0000    774.2634   1427.3890     4460.825      43.5214  89.63     2.902     1.909      3.077   0.01320087  18.9265        164
 7.20   0.0000    768.0129    140.0102     763.3936      43.5214  44.98     0.806     0.795      2.444   0.01318744  20.8431        165
 4.24   0.0000    742.8162    556.3451     2721.035      43.5214 -57.68     1.449     1.420      2.136   0.01319639  19.4632        166
 4.32   0.0000    738.1102   1158.1116     939.3104      43.5214  47.36     1.221     1.121      2.203   0.01317848  20.6180        167
 5.08   0.0000    736.0913    649.8519     1169.921      43.5214 -38.54     1.206     1.123      2.170   0.01318594  20.3796        168
 3.50   0.0000    726.6004    848.5243     129742.3      43.5214 -72.04     2.212     2.178      2.209    0.0131949  15.2673        169
 3.87   0.0000    727.4650   1178.3309     2033.675      43.5214 -10.14     1.394     1.328      2.122   0.01318445  19.7793        170
 5.23   0.0000    721.4345   1395.1035     788.8815      43.5214  16.01     1.086     0.953      1.970   0.01318146  20.8075        171
 3.96   0.0000    715.8315    808.4100     2606.855      43.5214  51.69     1.425     1.393      2.117   0.01319341  19.5097        172
 3.99   0.0000    708.9626   1163.8940     2640.801      43.5214  20.90     1.464     1.393      2.134   0.01318146  19.4957        173
 4.42   0.0000    704.4229   1339.0634     3028.641      43.5214 -25.11     1.700     1.462      2.343   0.01319639  19.3469        174
 3.68   0.0000    702.8209    952.5522     4587.237      43.5214  -9.41     1.630     1.577      2.095    0.0131949  18.8961        175
 6.02   0.0000    699.1675    582.7174     1244.352      43.5214   5.06     1.844     0.873      2.313   0.01319042  20.3126        176
 5.87   0.0000    691.6353   1213.6743     1608.165      43.5214  87.83     1.432     1.241      2.735   0.01318893  20.0342        177
 6.00   0.0000    686.6937   1213.8435     868.5894      43.5214 -47.21     1.217     0.958      2.041   0.01317997  20.7030        178
 4.18   0.0000    685.6500    644.3535     3726.157      43.5214 -73.12     1.594     1.581      2.157   0.01319639  19.1218        179
 5.68   0.0000    687.6556    130.9231     585.4332      43.5214  76.35     0.983     0.752      2.283   0.01318744  21.1313        180
 7.44   0.0000    668.9944   1221.5293     596.0158      43.5214  -0.05     0.827     0.706      2.529   0.01319639  21.1119        181
 3.50   0.0000    648.2678   1464.4448       148960      43.5214 -76.52     2.214     2.143      2.125   0.01318893  15.1173        182
 5.07   0.0000    654.6734    870.9016     1100.335      43.5214  21.01     1.193     1.057      2.195   0.01318146  20.4462        183
 6.84   0.0000    645.7944    653.0030     774.2343      43.5214 -88.71     0.912     0.756      2.238   0.01318744  20.8278        184
 7.26   0.0000    641.1874    276.8223       393.25      43.5214 -45.77     0.755     0.569      2.371   0.01318893  21.5633        185
 4.14   0.0000    630.8300    806.1274     1188.701      43.5214 -34.12     1.204     1.125      2.252   0.01319192  20.3623        186
 4.30   0.0000    623.4095   1581.5348     1977.721      43.5214  49.39     1.346     1.338      2.086   0.01320087  19.8096        187
 7.18   0.0000    618.1836   1151.1306     842.5599      43.5214 -37.45     0.897     0.874      2.313   0.01319938  20.7360        188
 8.09   0.0000    609.5256    945.4929     475.4079      43.5214  42.34     0.503     0.496      2.242   0.01318445  21.3573        189
 3.50   0.0000   1563.6936    304.2686     117962.1      43.5214 -77.52     2.157     2.117      2.233   0.01318445  15.3706        190
 4.14   0.0000   1566.7208     22.0779     4734.962      43.5214  75.11     1.574     1.553      2.120   0.01318594  18.8617        191
 3.94   0.0000   1542.6152    654.7387     5390.042      43.5214  29.79     1.579     1.560      2.225   0.01319192  18.7210        192
 3.50   0.0000   1558.0082    487.7251     120897.8      43.5214 -78.65     2.166     2.125      2.228   0.01319788  15.3440        193
 4.16   0.0000   1570.5596     92.7663     3880.009      43.5214  -2.72     1.453     1.398      2.165   0.01319788  19.0779        194
 4.48   0.0000   1546.1006    863.5362      2558.86      43.5214  60.15     1.564     1.328      2.234   0.01318594  19.5299        195
 4.36   0.0000   1561.3612    861.4875     2680.398      43.5214  19.18     1.352     1.338      2.126   0.01318893  19.4795        196
 4.38   0.0000   1565.7378    784.6730     3279.088      43.5214 -79.11     1.769     1.443      2.437   0.01318594  19.2606        197
 5.18   0.0000   1550.8444   1221.8484     1365.057      43.5214  42.51     1.082     0.925      2.334    0.0131949  20.2121        198
 3.57   0.0000   1552.6281    682.2971     35774.74      43.5214 -26.44     4.582     3.959      3.763   0.01318296  16.6661        199
 7.80   0.0000   1535.9841   1428.9976     1252.063      43.5214 -45.55     0.927     0.527      2.720   0.01318893  20.3059        200
 7.00   0.0000   1532.4937    415.7445       1400.7      43.5214 -84.33     1.017     0.979      2.285   0.01318445  20.1841        201
 7.59   0.0000   1519.9943   1100.7047     1147.683      43.5214  89.07     0.749     0.679      2.503   0.01318893  20.4004        202
 4.09   0.0000    928.4031   1322.5200     2038.018      43.5214 -44.27     1.357     1.342      2.156    0.0131949  19.7770        203
 3.50   0.0000   1514.9222    392.7349     16620.08      43.5214  66.54     1.807     1.797      2.182   0.01318296  17.4984        204
 6.00   0.0000   1515.4878   1547.1486     1280.689      43.5214  74.03     1.048     0.871      2.174   0.01318445  20.2814        205
 3.50   0.0000   1507.1836    269.3994      65748.2      43.5214 -82.06     2.049     2.030      2.183   0.01318893  16.0053        206
 5.55   0.0000   1498.4597    844.2532     1053.643      43.5214 -25.00     0.883     0.757      2.352   0.01318744  20.4933        207
 4.56   0.0000   1504.1298    723.3583     2026.613      43.5214  14.84     1.297     1.162      2.180   0.01319192  19.7831        208
 3.97   0.0000    939.1798   1067.2053     3639.094      43.5214 -23.40     1.522     1.452      2.134   0.01319042  19.1475        209
 6.96   0.0000   1488.2819     78.0035     1073.819      43.5214  -1.74     0.735     0.681      2.327   0.01319192  20.4727        210
 3.92   0.0000    912.8765    838.6033     1601.055      43.5214  -0.15     1.305     1.218      2.201   0.01319341  20.0390        211
 5.67   0.0000    950.7991    654.3572     1820.179      43.5214  65.98     1.507     1.354      2.435   0.01319788  19.8997        212
 5.84   0.0000    947.8477    445.1833     771.6161      43.5214  47.70     0.889     0.856      2.154    0.0131949  20.8315        213
 5.26   0.0001   1065.7639   1597.2657     240.7162      43.5214 -14.20     0.952     0.861      0.995   0.01154583  22.0962        214
 7.26   0.0000    938.5413    516.3163     1454.365      43.5214  57.72     1.300     0.997      2.672   0.01318445  20.1433        215
 7.66   0.0000   1474.9158    998.3757     1866.443      43.5214 -14.25     1.054     0.754      2.852   0.01319192  19.8725        216
 6.42   0.0000   1482.4310    575.2145     1660.208      43.5214 -30.81     1.204     0.969      2.595   0.01319639  19.9996        217
 5.80   0.0000   1438.6464   1271.3108     1326.429      43.5214 -45.87     0.991     0.878      2.137   0.01318445  20.2433        218
 5.08   0.0000   1072.1349   1219.1719     3968.662      43.5214 -73.97     2.049     1.696      2.534   0.01319192  19.0534        219
 4.97   0.0000   1079.4351    330.1989      1109.26      43.5214   1.47     1.167     0.990      2.032   0.01318893  20.4374        220
 3.95   0.0000   1415.4110   1386.6447     3781.238      43.5214  75.55     1.498     1.406      2.120   0.01319341  19.1059        221
 3.55   0.0000   1107.4796    428.0644     14140.97      43.5214  29.41     1.816     1.783      2.139   0.01318146  17.6738        222
 3.50   0.0000   1081.7991   1148.2404     19486.94      43.5214  77.56     1.859     1.838      2.133    0.0131949  17.3256        223
 5.70   0.0000   1066.6768    569.0727     643.4691      43.5214 -72.74     1.032     0.751      2.432   0.01318445  21.0287        224
 6.53   0.0000   1110.7510    479.0507     3322.419      43.5214  19.20     1.749     1.562      3.249   0.01319788  19.2464        225
 3.54   0.0000   1435.3314    224.8159     7509.012      43.5214  21.04     1.687     1.611      2.196   0.01319788  18.3610        226
 6.26   0.0000   1090.9882    468.1736     1772.577      43.5214 -62.75     1.759     1.048      3.119   0.01319192  19.9285        227
 7.39   0.0000   1441.0785   1082.6284     364.4418      43.5214  43.16     2.974     0.680      5.871   0.01318893  21.6459        228
 4.76   0.0000   1411.0619    350.0085     2000.921      43.5214  44.81     1.366     1.125      2.136   0.01320087  19.7969        229
 8.08   0.0000   1453.3318    391.6697     619.5542      43.5214  45.06     0.575     0.334      2.288   0.01318146  21.0698        230
 3.54   0.0000   1439.7888    619.2131     5727.053      43.5214 -62.85     1.575     1.554      2.135   0.01318893  18.6552        231
 3.50   0.0000   1393.4050    114.5455       165416      43.5214 -80.89     2.215     2.169      2.269   0.01320236  15.0036        232
 6.42   0.0000   1436.1945   1347.1851     885.9088      43.5214  46.04     0.748     0.567      2.463   0.01318744  20.6815        233
 4.63   0.0000   1120.3417    329.8551     4541.805      43.5214  55.81     2.503     1.644      2.599   0.01318594  18.9069        234
 6.70   0.0000   1431.9259    340.6477      1347.44      43.5214  15.34     1.044     0.753      2.594   0.01318594  20.2262        235
 4.82   0.0000   1129.1801    547.4301     1329.003      43.5214  54.92     1.192     1.121      2.137   0.01319341  20.2412        236
 3.50   0.0000   1408.2377    308.3844     5528.768      43.5214  -7.03     1.547     1.510      2.103   0.01319639  18.6934        237
 5.35   0.0000   1400.5464   1031.5027     2415.471      43.5214  31.11     1.429     1.368      2.181   0.01317997  19.5925        238
 3.50   0.0000   1388.6937   1428.5571     15629.68      43.5214  55.76     1.789     1.763      2.103   0.01317997  17.5651        239
 6.79   0.0022   1412.1804      1.3059     5.003694      43.5214 -77.74     1.083     0.409      2.543  0.009946166  26.3018        240
 4.72   0.0000   1406.3345    329.8578     1679.664      43.5214  26.69     1.130     1.025      2.226   0.01318594  19.9869        241
 4.65   0.0000   1330.5002    386.9715     1241.751      43.5214   3.29     1.098     0.952      2.147   0.01318296  20.3149        242
 4.79   0.0000   1259.4657    432.5281     3712.929      43.5214  25.38     1.823     1.760      2.575   0.01318296  19.1257        243
 3.68   0.0000   1278.0730   1331.4478      8655.72      43.5214  82.55     1.714     1.699      2.021   0.01318594  18.2067        244
 3.79   0.0000   1390.4578    713.3802     5703.014      43.5214  43.10     1.588     1.550      2.135   0.01319639  18.6597        245
 5.96   0.0000   1388.9021    806.6555     1247.406      43.5214  13.85     0.984     0.753      2.213   0.01317997  20.3100        246
 4.34   0.0000   1392.2596   1038.8943     4290.429      43.5214   8.71     1.474     1.451      2.217   0.01318594  18.9687        247
 3.53   0.0000   1218.8743   1195.0033     19523.77      43.5214  54.82     1.997     1.952      2.063   0.01319938  17.3236        248
 6.99   0.0000   1291.8092    546.1708     697.9554      43.5214 -44.88     0.757     0.568      2.005   0.01319341  20.9404        249
 3.56   0.0000   1210.6931   1279.0286     19339.46      43.5214  82.87     5.696     3.445      4.668   0.01318744  17.3339        250
 3.82   0.0000   1292.8365    412.6910     2406.283      43.5214 -22.03     1.326     1.267      2.359   0.01318594  19.5966        251
 8.47   0.0000   1262.3208    216.3072     712.7882      43.5214 -45.74     0.560     0.342      2.085   0.01318445  20.9176        252
 8.25   0.0000   1379.3267    319.3086     958.1798      43.5214 -45.93     0.563     0.340      1.910   0.01318445  20.5964        253
 8.27   0.0000   1352.4868    152.2023      1496.87      43.5214 -89.11     1.011     0.738      2.629   0.01318893  20.1120        254
 3.50   0.0000   1372.5312   1019.0457      17929.4      43.5214 -41.64     1.951     1.869      2.152   0.01319042  17.4161        255
 3.50   0.0000   1320.0488    660.0613     59256.64      43.5214  75.91     2.093     2.039      2.208   0.01318744  16.1182        256
 5.87   0.0000   1293.5828    742.1906     2587.591      43.5214 -15.99     1.535     1.440      2.286   0.01318744  19.5178        257
 7.00   0.0000   1346.3284    605.1111     992.6064      43.5214 -68.97     0.936     0.689      2.332   0.01318445  20.5581        258
 3.97   0.0000   1329.8187    655.9049     6271.446      43.5214  67.51     1.921     1.813      2.238   0.01318893  18.5566        259
 4.12   0.0000   1332.9294    107.4837     2099.955      43.5214  -2.81     1.329     1.158      2.051   0.01318146  19.7445        260
 3.50   0.0000   1298.3828    724.9477     354889.1      43.5214 -51.40     2.371     2.297      2.262   0.01319639  14.1748        261
 4.19   0.0000   1304.7047    892.9962     1824.005      43.5214 -75.91     1.297     1.172      2.195   0.01318744  19.8974        262
 4.08   0.0000   1319.2585    264.1429     1812.187      43.5214   6.39     1.181     1.123      2.176   0.01318594  19.9045        263
 4.31   0.0000   1307.5262    669.7034     5542.775      43.5214 -32.49     1.629     1.592      2.179   0.01318296  18.6907        264
 3.65   0.0000   1272.7618    610.0184     22237.19      43.5214 -58.16     4.190     2.580      3.159   0.01319639  17.1823        265
 5.69   0.0000   1299.3568     54.0625      966.152      43.5214 -68.39     0.901     0.697      2.174   0.01319042  20.5874        266
 3.52   0.0000   1291.4148    762.2641     12646.21      43.5214 -23.95     2.297     1.839      1.996   0.01319192  17.7951        267
 3.56   0.0000   1265.4564    807.9594     6638.712      43.5214  -7.96     1.661     1.612      2.144   0.01318893  18.4948        268
 6.36   0.0000   1273.6595    698.0986     756.5368      43.5214  68.67     0.919     0.693      2.499   0.01318146  20.8529        269
 4.97   0.0000   1228.6499   1153.6350     973.9528      43.5214  43.00     0.997     0.872      2.317    0.0131949  20.5787        270
 5.85   0.0000   1262.1962    855.0399     1194.169      43.5214 -88.04     0.907     0.755      2.279   0.01319192  20.3573        271
 5.76   0.0000   1212.7454   1429.5703     3525.477      43.5214  66.31     2.076     1.803      3.356   0.01319639  19.1820        272
 4.06   0.0000   1237.0374   1553.6448     3451.989      43.5214 -72.17     1.471     1.442      2.100   0.01319639  19.2048        273
 6.33   0.0000   1229.7732    599.1249     1996.188      43.5214 -25.96     1.422     1.267      2.517   0.01319042  19.7995        274
 3.50   0.0000   1234.4055    304.8864      5500.46      43.5214   0.76     1.619     1.566      2.165   0.01319042  18.6990        275
 5.14   0.0000   1237.6368     48.3455     1150.066      43.5214  42.97     1.043     0.951      2.080   0.01319341  20.3982        276
 4.28   0.0000   1207.6377    838.9413     3680.014      43.5214  35.87     1.470     1.451      2.150   0.01319341  19.1354        277
 3.50   0.0000   1214.6141    513.0945     29446.65      43.5214  -0.90     1.943     1.918      2.169   0.01318893  16.8774        278
 4.24   0.0000   1200.8662   1442.2368     2599.704      43.5214 -76.41     1.564     1.485      2.221   0.01319192  19.5127        279
 7.93   0.0000   1204.4742   1217.4802      478.176      43.5214  43.31     0.502     0.497      1.971   0.01318445  21.3510        280
 5.08   0.0000   1194.9722    124.1294     3865.221      43.5214 -83.39     1.957     1.669      2.780   0.01319341  19.0821        281
 3.91   0.0000   1201.8915    339.0921      3598.87      43.5214  41.67     1.528     1.455      2.187   0.01317848  19.1596        282
 5.34   0.0000   1130.2582    219.7123      1287.69      43.5214  22.28     1.184     1.117      2.174   0.01318594  20.2755        283
 3.50   0.0000   1138.5420    148.1507     65544.95      43.5214  77.75     2.097     2.062      2.191   0.01319042  16.0087        284
 5.95   0.0000   1181.9745    176.1647     1179.859      43.5214   3.89     0.910     0.759      2.242    0.0131949  20.3704        285
 4.90   0.0000   1180.9506    549.4130     1427.189      43.5214  37.05     1.159     1.067      2.127   0.01319788  20.1638        286
 4.68   0.0000   1153.5942   1353.1537     2055.266      43.5214  23.71     1.498     1.327      2.156   0.01319788  19.7678        287
 3.50   0.0000   1165.1395   1299.8351     109652.7      43.5214 -78.19     2.141     2.108      2.196   0.01319341  15.4500        288
 3.50   0.0000   1129.9851    183.6115     33607.09      43.5214  -6.31     1.968     1.954      2.213   0.01319042  16.7339        289
 3.53   0.0000   1157.8691    236.5205     11375.16      43.5214 -59.07     1.775     1.768      2.139   0.01318296  17.9101        290
 5.31   0.0000   1161.7438    887.7606     1231.229      43.5214 -40.77     1.157     1.096      2.254   0.01319341  20.3242        291
 4.11   0.0000   1151.2296     99.5155     2774.627      43.5214   1.70     1.475     1.409      2.116   0.01319192  19.4420        292
 6.72   0.0000   1131.0312    359.2770     900.6733      43.5214  79.06     0.733     0.682      2.129   0.01319042  20.6636        293
 3.50   0.0000   1079.9672    512.2063     66498.76      43.5214  74.02     2.099     2.081      2.149   0.01319341  15.9930        294
 4.04   0.0000   1095.4258   1526.6967     1794.652      43.5214  64.24     1.332     1.261      2.203   0.01318744  19.9150        295
 7.24   0.0000   1086.1484   1452.8627     717.9903      43.5214  46.36     0.838     0.678      2.243   0.01318744  20.9097        296
 7.41   0.0000   1090.0991    782.8873     53678.15      43.5214  45.01     1.234     0.538      3.743   0.01317848  16.2255        297
 5.92   0.0000   1094.6758   1136.2837     595.7893      43.5214  42.84     0.939     0.754      2.173   0.01318296  21.1123        298
 7.13   0.0000    978.4573    452.7135     1028.768      43.5214 -88.97     0.999     0.961      2.290   0.01318594  20.5192        299
 7.77   0.0000   1088.0132    397.0000     624.0599      43.5214  90.00     0.850     0.289      1.963   0.01319192  21.0619        300
 5.99   0.0000   1065.1993   1563.2179     2405.572      43.5214 -50.91     1.822     1.345      3.138   0.01319042  19.5970        301
 3.50   0.0000    984.8825    558.5286     58475.64      43.5214  86.99     2.062     2.035      2.163   0.01318146  16.1326        302
 3.50   0.0000   1009.8115    813.7941      32907.5      43.5214 -23.06     1.976     1.963      2.148   0.01318296  16.7568        303
 5.37   0.0000    965.2351    416.4796     797.8838      43.5214   9.67     0.991     0.951      2.166   0.01318893  20.7952        304
 5.22   0.0000    980.8171    797.9382      2024.38      43.5214 -22.95     1.473     1.417      2.441   0.01319042  19.7843        305
 3.50   0.0000   1040.2435    633.1321     84476.91      43.5214 -86.88     2.148     2.116      2.195   0.01319042  15.7332        306
 3.50   0.0000   1038.7074    525.4634     16962.36      43.5214 -89.92     1.895     1.851      2.111   0.01318594  17.4763        307
 4.72   0.0000   1030.4277    302.7162     3688.985      43.5214  61.98     2.411     1.679      2.851   0.01319042  19.1327        308
 5.83   0.0000    986.6929    454.0457     2929.771      43.5214  71.21     1.721     1.537      3.001   0.01317997  19.3829        309
 8.75   0.0000   1014.5078    453.4610      654.733      43.5214 -62.89     0.500     0.498      2.032   0.01318594  21.0098        310
 6.43   0.0000    998.0614    233.3179     1014.107      43.5214  83.83     0.736     0.671      2.433   0.01318296  20.5348        311
 3.50   0.0000   1025.7098   1380.0499     42190.06      43.5214  87.42     2.054     1.952      2.155   0.01318594  16.4870        312
 3.80   0.0000   1011.3396    344.7471     4725.082      43.5214 -55.24     1.591     1.561      2.210   0.01318744  18.8640        313
 8.38   0.0000   1011.2415    267.9928     830.7358      43.5214   0.33     0.699     0.428      2.011    0.0131949  20.7513        314
 4.30   0.0000    999.9335   1273.7820     1735.977      43.5214 -27.04     1.275     1.172      2.096   0.01319341  19.9511        315
 4.10   0.0000   1001.6805    542.7173     5064.267      43.5214  12.75     1.658     1.575      2.105   0.01318296  18.7887        316
