#   1 KRON_RADIUS            Kron apertures in units of A or B                         
#   2 MAGERR_APER            RMS error vector for fixed aperture mag.                   [mag]
#   3 Y_IMAGE                Object position along y                                    [pixel]
#   4 X_IMAGE                Object position along x                                    [pixel]
#   5 FLUX_APER              Flux vector within fixed circular aperture(s)              [count]
#   6 THRESHOLD              Detection threshold above background                       [count]
#   7 THETA_IMAGE            Position angle (CCW/x)                                     [deg]
#   8 A_IMAGE                Profile RMS along major axis                               [pixel]
#   9 B_IMAGE                Profile RMS along minor axis                               [pixel]
#  10 FLUX_RADIUS            Fraction-of-light radii                                    [pixel]
#  11 FLUXERR_APER           RMS error vector for aperture flux(es)                     [count]
#  12 MAG_APER               Fixed aperture magnitude vector                            [mag]
#  13 NUMBER                 Running object number                                     
 4.23   0.0000     53.2652     63.6543     60312.23      43.5214   3.17     5.181     4.630      3.122  0.001938237  16.0990          1
 3.95   0.0000     16.5149    985.0804     9660.712      43.5214 -88.61     4.203     1.941      2.416  0.001937578  18.0875          2
 4.06   0.0000     18.0504     91.3141      6779.17      43.5214   0.42     1.768     1.716      1.637  0.001938017  18.4721          3
 3.50   0.0000     14.6167   1445.7477     16082.91      43.5214 -47.82     1.890     1.819      1.598  0.001939553  17.5341          4
 8.12   0.0000     10.2946   1183.6542     384.4174      43.5214  42.42     0.565     0.339      1.428  0.001937578  21.5880          5
 7.36   0.0000      4.2259    145.0241     521.9897      43.5214  89.83     0.957     0.768      2.662  0.001737092  21.2558          6
 6.64   0.0000     17.2495    384.5071     764.4746      43.5214  19.99     0.993     0.952      1.596  0.001937359  20.8416          7
 5.14   0.0000     24.7971    367.2085     1768.182      43.5214  13.81     1.305     1.234      1.441  0.001938237  19.9312          8
 3.50   0.0000     59.7850   1078.4766     64059.12      43.5214  77.02     2.287     2.159      1.787  0.001940211  16.0335          9
 8.57   0.0000     23.7800    383.3999     586.8683      43.5214 -71.85     0.755     0.452      2.030  0.001938895  21.1286         10
 6.41   0.0000     33.9023   1110.1802     906.6725      43.5214  68.24     1.657     0.778      1.905  0.001938017  20.6564         11
 7.88   0.0000     33.3076    326.9492       623.38      43.5214  -6.92     0.747     0.677      1.916  0.001937798  21.0631         12
 5.98   0.0000     37.8655   1521.1591     607.8833      43.5214  46.72     0.834     0.669      1.569  0.001938895  21.0904         13
 7.05   0.0000     38.8750   1170.6508     611.6152      43.5214 -19.52     0.923     0.691      1.584  0.001937578  21.0838         14
 5.87   0.0000     42.4605    915.4996     792.3325      43.5214 -77.10     0.913     0.907      1.578  0.001937359  20.8027         15
 3.50   0.0000     80.1536    537.6561     64470.52      43.5214 -59.56     2.145     2.122      1.684  0.001938676  16.0266         16
 9.02   0.0000     44.6655    440.6699     713.2856      43.5214 -45.19     0.576     0.334      1.582  0.001937798  20.9168         17
 4.26   0.0000     75.2162    128.0142      3515.13      43.5214  -5.75     1.516     1.469      1.655  0.001938895  19.1851         18
 6.64   0.0000     82.2787    421.5101     773.7361      43.5214 -15.66     0.994     0.986      1.619  0.001937359  20.8285         19
 3.50   0.0000    121.8120    789.2006     97300.32      43.5214 -62.81     2.230     2.179      1.671  0.001938895  15.5797         20
 6.02   0.0000     90.7295    376.9918     1942.255      43.5214   4.47     1.628     1.442      2.355  0.001939772  19.8292         21
 4.42   0.0000     96.6151     56.2576     4852.449      43.5214 -38.95     1.639     1.566      1.503  0.001939114  18.8351         22
 6.10   0.0000     98.0585    452.9797     1200.583      43.5214 -14.82     1.454     1.005      1.954  0.001939553  20.3515         23
 7.39   0.0000     91.4945    495.9650     609.6012      43.5214  -1.40     0.788     0.500      1.545  0.001937578  21.0874         24
 3.50   0.0000    162.2989   1468.3301      50362.5      43.5214 -48.48     2.111     2.074      1.682  0.001937798  16.2947         25
 6.85   0.0000    131.2865    418.0175     579.4721      43.5214   5.64     0.729     0.681      1.558  0.001938676  21.1424         26
 3.55   0.0000    170.2996    877.3505     12343.15      43.5214  -8.96     1.882     1.865      1.679  0.001936261  17.8214         27
 8.52   0.0000    151.4999   1280.4825     420.7176      43.5214 -47.88     0.501     0.498      1.676   0.00193648  21.4900         28
 5.51   0.0000    164.9741   1445.6677     1580.171      43.5214  17.35     1.303     1.186      1.679  0.001939114  20.0532         29
 4.82   0.0000    166.8505    104.4303      1193.93      43.5214 -46.35     1.196     1.124      1.427  0.001939553  20.3576         30
 6.42   0.0000    169.3397   1368.8977     591.9376      43.5214  68.06     0.910     0.689      1.677  0.001937359  21.1193         31
 7.68   0.0000    180.3316    574.9897     716.2031      43.5214  53.18     1.039     0.643      1.836  0.001939992  20.9124         32
 7.49   0.0000    186.6387   1354.8976     790.3168      43.5214  75.59     1.045     0.753      1.597  0.001937139  20.8055         33
 5.30   0.0000    192.6023   1350.5554     2071.257      43.5214 -19.15     1.368     1.305      1.697  0.001939992  19.7594         34
 4.77   0.0000    210.7202    827.6749     7256.338      43.5214  -5.78     3.810     2.091      2.662  0.001938017  18.3982         35
 4.14   0.0000    206.7225    549.0807     3764.792      43.5214   3.37     1.545     1.484      1.484  0.001938237  19.1106         36
 4.19   0.0000    212.1664   1306.1005     3693.065      43.5214 -64.54     1.516     1.487      1.695    0.0019367  19.1315         37
 5.52   0.0000    230.1494    562.2775     6952.961      43.5214 -37.31     3.231     3.004      3.996  0.001937578  18.4446         38
 5.76   0.0000    210.8939    684.8484     1080.702      43.5214 -66.39     1.218     1.115      1.481  0.001937359  20.4657         39
 3.50   0.0000    259.7588    997.4791       172267      43.5214 -48.81     2.331     2.263      1.656  0.001938456  14.9595         40
 3.92   0.0000    223.9121   1226.0618     4087.261      43.5214  25.89     1.523     1.479      1.698  0.001937798  19.0214         41
 4.86   0.0000    222.6267    774.9695     1571.522      43.5214  81.57     1.224     1.191      1.470  0.001939114  20.0592         42
 3.50   0.0000    265.9002     67.6173     106443.4      43.5214 -49.31     2.268     2.237      1.671  0.001938017  15.4822         43
 5.52   0.0000    243.9732    112.8913     2400.411      43.5214 -88.19     1.951     1.539      1.748  0.001938237  19.5993         44
 4.81   0.0000    255.4885    613.0098     6671.492      43.5214 -41.01     2.436     2.028      1.856  0.001938895  18.4894         45
 6.52   0.0000    239.3535    838.8231     1046.337      43.5214  -5.84     1.203     1.102      1.678  0.001939334  20.5008         46
 7.18   0.0000    250.5180    107.4840     986.6168      43.5214 -42.78     1.108     0.852      1.681  0.001937578  20.5646         47
 3.50   0.0000    287.5196   1486.4733     29422.85      43.5214 -43.97     2.033     1.992      1.656  0.001937798  16.8783         48
 3.66   0.0000    281.9236   1522.4003     7286.217      43.5214   3.77     1.701     1.668      1.711  0.001939114  18.3937         49
 6.46   0.0000    270.7727   1273.6278     774.1951      43.5214  16.49     1.000     0.849      1.626  0.001939334  20.8279         50
 3.50   0.0000    303.1506    201.7659     21800.84      43.5214 -78.11     1.968     1.942      1.720  0.001939114  17.2038         51
 6.27   0.0000    293.2967   1475.8354     1060.166      43.5214 -33.66     1.250     1.086      1.825   0.00193692  20.4866         52
 4.64   0.0000    302.2875    563.6751     1563.416      43.5214  31.81     1.325     1.283      1.630  0.001937359  20.0648         53
 3.50   0.0000    322.0853    697.3419     15008.38      43.5214   1.78     1.882     1.848      1.675  0.001938017  17.6092         54
 7.64   0.0000    308.7069     85.2985     783.5019      43.5214  45.78     0.969     0.767      1.802  0.001937139  20.8149         55
 6.05   0.0000    321.9905    641.4783     1797.386      43.5214 -64.00     1.799     1.232      2.028  0.001939334  19.9134         56
 5.16   0.0000    327.5369    595.4523     3329.773      43.5214 -52.10     1.728     1.694      1.698  0.001938237  19.2440         57
 6.07   0.0000    329.2517   1546.0168     697.3808      43.5214 -87.78     0.913     0.756      1.721  0.001939553  20.9413         58
 5.83   0.0000    332.2679     93.4347     1036.464      43.5214  20.40     0.992     0.948      1.661  0.001939114  20.5111         59
 4.78   0.0000    350.1319     54.7084     1995.642      43.5214  -8.51     1.366     1.298      1.678  0.001937578  19.7998         60
 3.50   0.0000    368.1670    761.1217      14305.5      43.5214 -26.12     1.940     1.871      1.703  0.001938676  17.6612         61
 4.02   0.0000    361.1491   1500.4037     3798.219      43.5214 -15.08     1.586     1.464      1.775  0.001940211  19.1010         62
 3.50   0.0000    395.2009    231.4691     72625.17      43.5214 -63.05     2.184     2.143      1.675  0.001939772  15.8973         63
 5.78   0.0000    360.5269   1034.0070     1153.474      43.5214  -1.40     1.111     0.957      1.659  0.001939772  20.3950         64
 6.91   0.0000    375.4792    754.0627     1145.104      43.5214  56.22     1.715     0.961      2.253  0.001937578  20.4029         65
 7.68   0.0000    370.3091     71.9499     743.3159      43.5214 -10.89     0.743     0.672      1.755  0.001938237  20.8721         66
 6.47   0.0000    373.4826   1083.8826     836.0784      43.5214 -17.84     1.100     0.990      1.714  0.001937578  20.7444         67
 6.41   0.0002    380.6161      1.4882     6.472413      43.5214 -89.79     1.601     0.500      3.002  0.001481502  26.0223         68
 3.50   0.0000    397.0519   1461.2017     10669.92      43.5214 -44.85     1.804     1.797      1.726  0.001940211  17.9796         69
 3.50   0.0000    398.1799    354.6261     12137.89      43.5214 -13.53     1.890     1.844      1.726  0.001938895  17.8396         70
 8.09   0.0000    375.6552     87.2937     567.6097      43.5214  47.61     0.564     0.339      1.358  0.001937798  21.1649         71
 6.71   0.0000    380.1594    125.8447     641.2276      43.5214  44.65     0.818     0.680      1.834  0.001939334  21.0325         72
 4.22   0.0000    393.8183   1088.7736     3439.798      43.5214 -35.06     1.516     1.449      1.566  0.001939114  19.2087         73
 8.89   0.0000    382.4900     67.5055     460.9881      43.5214 -44.69     0.503     0.497      1.691   0.00193692  21.3908         74
 8.07   0.0000    388.6902   1195.3347     356.7252      43.5214  43.77     0.567     0.338      1.868  0.001938237  21.6692         75
 6.14   0.0000    412.0432      1.7727     49.27248      43.5214  90.00     2.505     0.701      4.536  0.001512473  23.8185         76
 7.90   0.0000    396.8768    626.5975     1326.886      43.5214 -73.71     1.239     0.985      2.362  0.001939114  20.2429         77
 8.16   0.0000    403.6928    526.4366     716.9569      43.5214  81.17     1.023     0.476      1.770  0.001937798  20.9113         78
 7.54   0.0000    407.0518    282.4902     489.3507      43.5214 -88.59     0.787     0.500      1.918  0.001938237  21.3259         79
 3.50   0.0000    437.9478    252.1072     24522.26      43.5214 -87.21     2.006     1.974      1.654  0.001937798  17.0761         80
 3.50   0.0000    461.0704    807.6703     183734.8      43.5214 -68.51     2.341     2.304      1.690    0.0019367  14.8895         81
 5.83   0.0000    420.9021    159.0900      1753.78      43.5214  37.62     1.694     1.421      1.926   0.00193692  19.9401         82
 7.67   0.0000    419.5386   1580.4929     536.1786      43.5214  40.47     0.504     0.495      1.677  0.001937798  21.2267         83
 4.17   0.0000    432.9492   1422.0629     2752.368      43.5214   6.85     1.427     1.396      1.650  0.001938237  19.4507         84
 6.72   0.0000    426.5748   1179.2787     898.6993      43.5214  26.35     1.188     0.957      1.920  0.001938895  20.6660         85
 6.42   0.0000    426.8329    433.0970     69730.69      43.5214  -3.27     2.183     0.735      3.781  0.001937359  15.9414         86
 5.15   0.0000    434.2586    151.1154     1007.349      43.5214 -20.05     1.138     1.034      1.507  0.001938017  20.5420         87
 3.88   0.0000    450.3392     21.3603     7923.458      43.5214 -27.47     1.777     1.769      1.640  0.001939114  18.3027         88
 5.07   0.0000    467.7993    850.4810      8791.95      43.5214  22.59     7.403     2.054      4.940  0.001939114  18.1898         89
 9.05   0.0000    430.6650    719.3185      1090.62      43.5214  45.76     0.572     0.336      1.943  0.001937359  20.4558         90
 4.48   0.0000    440.0043    305.8401      1245.81      43.5214  22.45     1.160     1.136      1.689  0.001939114  20.3114         91
 5.42   0.0000    445.2589    122.3780     1719.038      43.5214 -23.52     1.401     1.309      1.584  0.001939553  19.9618         92
 3.80   0.0000    457.8408     34.5939     9943.848      43.5214 -30.83     1.779     1.767      1.590  0.001939334  18.0561         93
 8.05   0.0000    443.6886    655.3237     765.0509      43.5214  44.36     0.563     0.340      1.893  0.001937139  20.8408         94
 4.32   0.0000    463.6414    468.6490      3804.25      43.5214  70.99     1.619     1.558      1.673  0.001939553  19.0993         95
 6.24   0.0000    452.9206   1533.0249     646.7735      43.5214 -31.03     0.792     0.774      1.398  0.001938895  21.0231         96
 5.22   0.0000    460.9918   1096.1410      1310.05      43.5214  47.71     1.191     1.080      1.785  0.001940211  20.2568         97
 4.60   0.0000    471.3581    254.2742     3230.689      43.5214 -79.51     1.510     1.439      1.615  0.001938456  19.2768         98
 4.03   0.0000    472.1380    734.9207     4482.986      43.5214  75.27     1.566     1.511      1.670  0.001937578  18.9211         99
 7.71   0.0000    461.8358    724.7247     744.5255      43.5214 -20.12     0.949     0.683      1.595  0.001938456  20.8703        100
 3.70   0.0000    477.9271    923.0840     5549.256      43.5214 -28.67     1.679     1.612      1.677  0.001937578  18.6894        101
 4.34   0.0000    477.2791   1276.4363     2351.259      43.5214 -44.53     1.334     0.920      2.451  0.001938456  19.6217        102
 5.84   0.0000    488.9431    839.6031     1325.496      43.5214  87.10     2.059     0.959      1.694  0.001940211  20.2441        103
 4.14   0.0000    484.0388   1070.6680     3009.571      43.5214 -80.82     1.429     1.400      1.750  0.001938895  19.3537        104
 7.10   0.0000    475.9789   1168.4807     492.5678      43.5214  89.68     0.781     0.500      1.663  0.001939114  21.3188        105
 5.40   0.0000    496.2654     82.9187     4375.293      43.5214  66.13     2.311     2.046      2.474  0.001937359  18.9475        106
 6.87   0.0000    478.8629    682.8434     749.1176      43.5214 -46.10     0.819     0.679      1.598  0.001938456  20.8636        107
 5.12   0.0000    495.7248   1186.8407     4341.458      43.5214 -15.71     2.996     1.931      2.848  0.001938456  18.9559        108
 5.26   0.0000    504.0796    762.8668     2121.781      43.5214 -10.71     1.688     1.646      2.056  0.001937359  19.7332        109
 4.77   0.0000    502.0138    863.8067     1696.617      43.5214  64.62     1.201     1.192      1.734  0.001937798  19.9760        110
 4.57   0.0000    515.3623   1461.0657     5149.783      43.5214  23.93     4.115     1.649      2.901  0.001939114  18.7705        111
 6.08   0.0000    498.0054    366.2516     702.1962      43.5214   0.37     0.926     0.749      1.692  0.001940211  20.9339        112
 6.08   0.0000    509.9191    164.8152     1480.507      43.5214  -5.95     1.820     1.073      2.021  0.001939334  20.1240        113
 4.83   0.0000    513.8598   1179.1876     1633.048      43.5214  24.06     1.285     1.178      1.483  0.001939334  20.0175        114
 5.52   0.0000    519.1540    641.9484     1052.458      43.5214  22.36     1.200     1.120      1.686  0.001939772  20.4945        115
 6.45   0.0000    518.1915   1519.1722     580.6447      43.5214  45.74     0.761     0.567      1.798  0.001939114  21.1402        116
 4.09   0.0000    540.2067    999.9378     3755.782      43.5214  61.15     1.534     1.490      1.737  0.001939992  19.1132        117
 6.53   0.0000    536.3547    404.5305     819.7259      43.5214  38.93     1.195     0.786      1.734  0.001938237  20.7658        118
 3.90   0.0000    558.9035   1041.7982      4523.81      43.5214   6.20     1.633     1.563      1.727  0.001938676  18.9112        119
 4.74   0.0000    571.3472     45.9143     3419.703      43.5214  46.17     2.084     1.522      1.824  0.001937798  19.2150        120
 5.98   0.0000    555.8228    778.8107     506.9648      43.5214  44.57     0.756     0.567      1.588  0.001938676  21.2876        121
 3.50   0.0000    580.7163    144.9663     15166.46      43.5214  83.47     1.885     1.868      1.537  0.001938895  17.5978        122
 4.85   0.0000    571.3085   1447.7944     3002.782      43.5214  19.43     2.258     1.637      2.456  0.001938017  19.3562        123
 5.88   0.0000    565.0881    139.5546     910.1595      43.5214 -69.74     1.052     0.977      1.341  0.001938017  20.6522        124
 3.50   0.0000    582.1971    319.2584     13615.55      43.5214   7.31     1.887     1.830      1.720  0.001940211  17.7149        125
 4.29   0.0000    596.7602    782.6867     10323.98      43.5214 -62.08     3.302     3.182      3.349  0.001938676  18.0154        126
 5.97   0.0000    576.2225   1001.8235     972.3696      43.5214  40.80     1.216     1.076      1.602  0.001939114  20.5804        127
 4.64   0.0000    584.5398     76.0209     1351.768      43.5214  -0.84     1.205     1.138      1.552  0.001939553  20.2227        128
 4.19   0.0000   1001.5298   1555.4829     2617.112      43.5214  54.97     1.346     1.330      1.569  0.001937359  19.5054        129
 4.71   0.0000   1597.6036    654.7847     252.6349      43.5214   1.75     1.659     1.434      2.778   0.00166712  22.0438        130
 5.16   0.0000   1594.7568    374.1190     407.9002      43.5214  42.74     1.307     1.027      1.670  0.001873287  21.5236        131
 4.05   0.0000   1584.9181   1108.9316     2837.411      43.5214 -15.59     1.433     1.357      1.643  0.001937798  19.4177        132
 6.78   0.0000   1585.9497   1069.5099     667.1356      43.5214 -88.96     0.783     0.500      1.532  0.001938017  20.9895        133
 3.60   0.0000   1541.8564    135.1745     6057.411      43.5214  54.68     1.663     1.623      1.504  0.001939334  18.5943        134
 8.74   0.0000   1519.3268     85.3294     554.0653      43.5214 -44.88     0.573     0.336      1.470  0.001937139  21.1911        135
 4.79   0.0000   1514.6519    483.6263     915.1115      43.5214 -43.74     1.049     0.951      1.497  0.001939553  20.6463        136
 4.90   0.0000    912.4185   1001.2366     1007.163      43.5214  73.44     0.989     0.957      1.594  0.001939334  20.5422        137
 3.50   0.0000    900.4997    302.8331     10167.84      43.5214 -64.19     1.794     1.787      1.567   0.00193692  18.0319        138
 4.92   0.0000    896.1861    538.5018     2600.506      43.5214   6.05     1.942     1.608      2.031  0.001938237  19.5124        139
 5.31   0.0000    893.7880   1426.2821     741.0758      43.5214 -16.60     0.974     0.854      1.708  0.001939334  20.8753        140
 3.50   0.0000    880.2065   1592.6320     124133.2      43.5214 -83.52     2.300     2.188      1.726  0.001939553  15.3153        141
 6.04   0.0000    888.8303    325.8213     1560.932      43.5214  17.19     1.767     1.100      2.181  0.001938895  20.0665        142
 8.02   0.0000    888.6788    681.3232     590.5072      43.5214  44.90     0.568     0.338      1.526  0.001938237  21.1219        143
 4.51   0.0000    885.7850   1500.2664     1836.426      43.5214  10.00     1.303     1.227      1.553  0.001939772  19.8901        144
 7.04   0.0000    885.0953    339.2578     913.2449      43.5214  -2.69     1.149     0.882      1.770  0.001937359  20.6485        145
 4.70   0.0000    877.6797    961.0908      1234.29      43.5214  27.86     1.126     1.034      1.539  0.001937798  20.3215        146
 6.46   0.0000    876.3213    541.9203     511.1808      43.5214  -7.28     0.737     0.667      1.820  0.001937798  21.2786        147
 4.13   0.0000    869.4717   1103.7170      4873.09      43.5214 -55.22     1.983     1.793      1.718  0.001937359  18.8305        148
 4.96   0.0000    867.9886    939.9118     2090.909      43.5214  41.19     1.806     1.355      2.130  0.001938895  19.7492        149
 6.15   0.0000    869.3575    643.8528     641.3949      43.5214  68.50     0.904     0.687      1.729  0.001939114  21.0322        150
 8.15   0.0000    860.4996   1554.4683     406.3478      43.5214  48.21     0.504     0.495      1.729  0.001938017  21.5278        151
 4.53   0.0000    858.5098   1339.6924     1415.925      43.5214 -89.55     1.308     1.113      1.666  0.001937139  20.1724        152
 9.07   0.0000    855.5103    545.4817     628.5842      43.5214 -46.32     0.502     0.497      1.689  0.001937578  21.0541        153
 4.16   0.0000    844.9837   1063.9657     1217.934      43.5214   1.03     1.169     1.133      1.628  0.001939114  20.3359        154
 4.40   0.0000    843.3248   1106.2646     2162.267      43.5214  40.34     1.667     1.341      1.752  0.001937359  19.7127        155
 4.56   0.0000    836.6466    298.8450     3115.189      43.5214  11.92     1.467     1.396      1.548  0.001939553  19.3163        156
 6.83   0.0000    836.6003   1520.7371      516.613      43.5214  18.11     0.733     0.456      1.721  0.001940211  21.2671        157
 5.73   0.0000    835.6805    819.1954     884.3481      43.5214 -72.93     0.960     0.861      1.517  0.001939114  20.6834        158
 3.50   0.0000    822.9877    654.4249     10580.05      43.5214  74.96     1.838     1.773      1.716  0.001938676  17.9888        159
 7.91   0.0000    819.4906   1398.4888     335.4378      43.5214  46.70     0.500     0.500      1.679  0.001937139  21.7360        160
 3.50   0.0000    803.0379   1378.7590     10069.22      43.5214 -72.46     1.796     1.752      1.758  0.001939553  18.0425        161
 3.50   0.0000    798.4418    695.7374      27322.4      43.5214 -88.12     2.639     1.966      2.436  0.001938676  16.9587        162
 4.17   0.0000    800.7010     41.1932     5168.886      43.5214 -23.53     1.671     1.577      1.478  0.001938237  18.7665        163
 4.28   0.0000    774.2634   1427.3890     5162.257      43.5214  89.63     2.902     1.909      2.538  0.001940211  18.7679        164
 7.20   0.0000    768.0129    140.0102     685.3453      43.5214  44.98     0.806     0.795      1.587  0.001938237  20.9602        165
 4.24   0.0000    742.8162    556.3451     3330.546      43.5214 -57.68     1.449     1.420      1.517  0.001939553  19.2437        166
 4.32   0.0000    738.1102   1158.1116     1320.299      43.5214  47.36     1.221     1.121      1.685   0.00193692  20.2483        167
 5.08   0.0000    736.0913    649.8519     1369.363      43.5214 -38.54     1.206     1.123      1.711  0.001938017  20.2087        168
 3.50   0.0000    726.6004    848.5243     100731.4      43.5214 -72.04     2.212     2.178      1.658  0.001939334  15.5421        169
 3.87   0.0000    727.4650   1178.3309     2327.284      43.5214 -10.14     1.394     1.328      1.541  0.001937798  19.6329        170
 5.23   0.0000    721.4345   1395.1035     935.0132      43.5214  16.01     1.086     0.953      1.728  0.001937359  20.6230        171
 3.96   0.0000    715.8315    808.4100     2917.622      43.5214  51.69     1.425     1.393      1.630  0.001939114  19.3874        172
 3.99   0.0000    708.9626   1163.8940      3117.87      43.5214  20.90     1.464     1.393      1.705  0.001937359  19.3154        173
 4.42   0.0000    704.4229   1339.0634     3093.083      43.5214 -25.11     1.700     1.462      1.458  0.001939553  19.3240        174
 3.68   0.0000    702.8209    952.5522     4646.504      43.5214  -9.41     1.630     1.577      1.497  0.001939334  18.8822        175
 6.02   0.0000    699.1675    582.7174     1298.475      43.5214   5.06     1.844     0.873      2.167  0.001938676  20.2664        176
 5.87   0.0000    691.6353   1213.6743     1431.261      43.5214  87.83     1.432     1.241      2.080  0.001938456  20.1607        177
 6.00   0.0000    686.6937   1213.8435     872.9299      43.5214 -47.21     1.217     0.958      1.359  0.001937139  20.6975        178
 4.18   0.0000    685.6500    644.3535     4456.696      43.5214 -73.12     1.594     1.581      1.537  0.001939553  18.9275        179
 5.68   0.0000    687.6556    130.9231     713.0869      43.5214  76.35     0.983     0.752      1.477  0.001938237  20.9171        180
 7.44   0.0000    668.9944   1221.5293     777.2161      43.5214  -0.05     0.827     0.706      1.815  0.001939553  20.8236        181
 3.50   0.0000    648.2678   1464.4448     96296.66      43.5214 -76.52     2.214     2.143      1.725  0.001938456  15.5910        182
 5.07   0.0000    654.6734    870.9016     1524.668      43.5214  21.01     1.193     1.057      1.533  0.001937359  20.0921        183
 6.84   0.0000    645.7944    653.0030     779.7858      43.5214 -88.71     0.912     0.756      1.413  0.001938237  20.8201        184
 7.26   0.0000    641.1874    276.8223     577.0522      43.5214 -45.77     0.755     0.569      1.847  0.001938456  21.1470        185
 4.14   0.0000    630.8300    806.1274     1414.565      43.5214 -34.12     1.204     1.125      1.437  0.001938895  20.1734        186
 4.30   0.0000    623.4095   1581.5348     2256.219      43.5214  49.39     1.346     1.338      1.607  0.001940211  19.6665        187
 7.18   0.0000    618.1836   1151.1306     895.9124      43.5214 -37.45     0.897     0.874      2.029  0.001939992  20.6693        188
 8.09   0.0000    609.5256    945.4929      527.448      43.5214  42.34     0.503     0.496      1.675  0.001937798  21.2446        189
 3.50   0.0000   1563.6936    304.2686     86196.98      43.5214 -77.52     2.157     2.117      1.655  0.001937798  15.7113        190
 4.14   0.0000   1566.7208     22.0779     4262.477      43.5214  75.11     1.574     1.553      1.496  0.001938017  18.9758        191
 3.94   0.0000   1542.6152    654.7387     4481.104      43.5214  29.79     1.579     1.560      1.554  0.001938895  18.9215        192
 3.50   0.0000   1558.0082    487.7251     86935.51      43.5214 -78.65     2.166     2.125      1.664  0.001939772  15.7020        193
 4.16   0.0000   1570.5596     92.7663     3601.339      43.5214  -2.72     1.453     1.398      1.563  0.001939772  19.1588        194
 4.48   0.0000   1546.1006    863.5362     1828.028      43.5214  60.15     1.564     1.328      1.766  0.001938017  19.8950        195
 4.36   0.0000   1561.3612    861.4875     2297.074      43.5214  19.18     1.352     1.338      1.578  0.001938456  19.6471        196
 4.38   0.0000   1565.7378    784.6730     2770.697      43.5214 -79.11     1.769     1.443      1.732  0.001938017  19.4435        197
 5.18   0.0000   1550.8444   1221.8484     941.5343      43.5214  42.51     1.082     0.925      1.568  0.001939334  20.6154        198
 3.57   0.0000   1552.6281    682.2971     37243.09      43.5214 -26.44     4.582     3.959      3.096  0.001937578  16.6224        199
 7.80   0.0000   1535.9841   1428.9976     744.9391      43.5214 -45.55     0.927     0.527      2.117  0.001938456  20.8697        200
 7.00   0.0000   1532.4937    415.7445      895.184      43.5214 -84.33     1.017     0.979      1.824  0.001937798  20.6702        201
 7.59   0.0000   1519.9943   1100.7047     636.5074      43.5214  89.07     0.749     0.679      1.680  0.001938456  21.0405        202
 4.09   0.0000    928.4031   1322.5200     2232.612      43.5214 -44.27     1.357     1.342      1.587  0.001939334  19.6780        203
 3.50   0.0000   1514.9222    392.7349      13221.7      43.5214  66.54     1.807     1.797      1.629  0.001937578  17.7468        204
 6.00   0.0000   1515.4878   1547.1486     1018.719      43.5214  74.03     1.048     0.871      1.673  0.001937798  20.5299        205
 3.50   0.0000   1507.1836    269.3994     44031.85      43.5214 -82.06     2.049     2.030      1.666  0.001938456  16.4406        206
 5.55   0.0000   1498.4597    844.2532     747.6552      43.5214 -25.00     0.883     0.757      1.601  0.001938237  20.8657        207
 4.56   0.0000   1504.1298    723.3583     1812.444      43.5214  14.84     1.297     1.162      1.713  0.001938895  19.9043        208
 3.97   0.0000    939.1798   1067.2053     4155.292      43.5214 -23.40     1.522     1.452      1.712  0.001938676  19.0035        209
 6.96   0.0000   1488.2819     78.0035     703.3164      43.5214  -1.74     0.735     0.681      1.619  0.001938895  20.9321        210
 3.92   0.0000    912.8765    838.6033     1880.245      43.5214  -0.15     1.305     1.218      1.541  0.001939114  19.8645        211
 5.67   0.0000    950.7991    654.3572     1553.363      43.5214  65.98     1.507     1.354      1.922  0.001939772  20.0718        212
 5.84   0.0000    947.8477    445.1833      911.381      43.5214  47.70     0.889     0.856      1.530  0.001939334  20.6507        213
 5.26   0.0000   1065.7639   1597.2657     534.5668      43.5214 -14.20     0.952     0.861      1.932   0.00169696  21.2300        214
 7.26   0.0000    938.5413    516.3163     1321.905      43.5214  57.72     1.300     0.997      1.981  0.001937798  20.2470        215
 7.66   0.0000   1474.9158    998.3757     1163.309      43.5214 -14.25     1.054     0.754      2.584  0.001938895  20.3858        216
 6.42   0.0000   1482.4310    575.2145     1129.004      43.5214 -30.81     1.204     0.969      2.204  0.001939553  20.4183        217
 5.80   0.0000   1438.6464   1271.3108     997.7872      43.5214 -45.87     0.991     0.878      1.635  0.001937798  20.5524        218
 5.08   0.0000   1072.1349   1219.1719     3618.036      43.5214 -73.97     2.049     1.696      1.834  0.001938895  19.1538        219
 4.97   0.0000   1079.4351    330.1989     1134.792      43.5214   1.47     1.167     0.990      1.534  0.001938456  20.4127        220
 3.95   0.0000   1415.4110   1386.6447      3574.66      43.5214  75.55     1.498     1.406      1.628  0.001939114  19.1669        221
 3.55   0.0000   1107.4796    428.0644     10867.22      43.5214  29.41     1.816     1.783      1.600  0.001937359  17.9597        222
 3.50   0.0000   1081.7991   1148.2404      15027.6      43.5214  77.56     1.859     1.838      1.580  0.001939334  17.6078        223
 5.70   0.0000   1066.6768    569.0727      704.982      43.5214 -72.74     1.032     0.751      1.687  0.001937798  20.9296        224
 6.53   0.0000   1110.7510    479.0507     2431.861      43.5214  19.20     1.749     1.562      2.621  0.001939772  19.5852        225
 3.54   0.0000   1435.3314    224.8159     6420.598      43.5214  21.04     1.687     1.611      1.652  0.001939772  18.5311        226
 6.26   0.0000   1090.9882    468.1736     1524.363      43.5214 -62.75     1.759     1.048      2.043  0.001938895  20.0923        227
 7.39   0.0000   1441.0785   1082.6284     5966.041      43.5214  43.16     2.974     0.680      4.821  0.001938456  18.6108        228
 4.76   0.0000   1411.0619    350.0085     1313.995      43.5214  44.81     1.366     1.125      1.873  0.001940211  20.2535        229
 8.08   0.0000   1453.3318    391.6697     410.4648      43.5214  45.06     0.575     0.334      1.758  0.001937359  21.5168        230
 3.54   0.0000   1439.7888    619.2131     5228.656      43.5214 -62.85     1.575     1.554      1.561  0.001938456  18.7540        231
 3.50   0.0000   1393.4050    114.5455     116476.6      43.5214 -80.89     2.215     2.169      1.665   0.00194043  15.3844        232
 6.42   0.0000   1436.1945   1347.1851     650.1487      43.5214  46.04     0.748     0.567      1.745  0.001938237  21.0175        233
 4.63   0.0000   1120.3417    329.8551     4479.562      43.5214  55.81     2.503     1.644      2.024  0.001938017  18.9219        234
 6.70   0.0000   1431.9259    340.6477     1064.558      43.5214  15.34     1.044     0.753      2.133  0.001938017  20.4821        235
 4.82   0.0000   1129.1801    547.4301     1339.664      43.5214  54.92     1.192     1.121      1.636  0.001939114  20.2325        236
 3.50   0.0000   1408.2377    308.3844     4934.443      43.5214  -7.03     1.547     1.510      1.652  0.001939553  18.8169        237
 5.35   0.0000   1400.5464   1031.5027     1637.662      43.5214  31.11     1.429     1.368      1.719  0.001937139  20.0144        238
 3.50   0.0000   1388.6937   1428.5571     12453.31      43.5214  55.76     1.789     1.763      1.650  0.001937139  17.8118        239
 6.79  12.2507   1412.1804      1.3059   0.00012959      43.5214 -77.74     1.083     0.409      2.569  0.001461848  37.7686        240
 4.72   0.0000   1406.3345    329.8578     1064.286      43.5214  26.69     1.130     1.025      1.642  0.001938017  20.4824        241
 4.65   0.0000   1330.5002    386.9715     1167.926      43.5214   3.29     1.098     0.952      1.565  0.001937578  20.3815        242
 4.79   0.0000   1259.4657    432.5281     2725.697      43.5214  25.38     1.823     1.760      2.204  0.001937578  19.4613        243
 3.68   0.0000   1278.0730   1331.4478     7324.163      43.5214  82.55     1.714     1.699      1.686  0.001938017  18.3881        244
 3.79   0.0000   1390.4578    713.3802      5204.22      43.5214  43.10     1.588     1.550      1.595  0.001939553  18.7591        245
 5.96   0.0000   1388.9021    806.6555      945.691      43.5214  13.85     0.984     0.753      1.533  0.001937139  20.6106        246
 4.34   0.0000   1392.2596   1038.8943     3781.905      43.5214   8.71     1.474     1.451      1.684  0.001938017  19.1057        247
 3.53   0.0000   1218.8743   1195.0033     15243.04      43.5214  54.82     1.997     1.952      1.602  0.001939992  17.5923        248
 6.99   0.0000   1291.8092    546.1708     517.6034      43.5214 -44.88     0.757     0.568      1.342  0.001939114  21.2650        249
 3.56   0.0000   1210.6931   1279.0286     21332.34      43.5214  82.87     5.696     3.445      4.447  0.001938237  17.2274        250
 3.82   0.0000   1292.8365    412.6910       2111.6      43.5214 -22.03     1.326     1.267      1.550  0.001938017  19.7385        251
 8.47   0.0000   1262.3208    216.3072     506.6747      43.5214 -45.74     0.560     0.342      1.708  0.001937798  21.2882        252
 8.25   0.0000   1379.3267    319.3086     660.0865      43.5214 -45.93     0.563     0.340      1.733  0.001937798  21.0010        253
 8.27   0.0000   1352.4868    152.2023     1038.616      43.5214 -89.11     1.011     0.738      2.346  0.001938456  20.5089        254
 3.50   0.0000   1372.5312   1019.0457     13590.41      43.5214 -41.64     1.951     1.869      1.658  0.001938676  17.7169        255
 3.50   0.0000   1320.0488    660.0613     44630.18      43.5214  75.91     2.093     2.039      1.666  0.001938237  16.4259        256
 5.87   0.0000   1293.5828    742.1906      2583.97      43.5214 -15.99     1.535     1.440      1.451  0.001938237  19.5193        257
 7.00   0.0000   1346.3284    605.1111     650.5752      43.5214 -68.97     0.936     0.689      1.437  0.001937798  21.0168        258
 3.97   0.0000   1329.8187    655.9049     6142.481      43.5214  67.51     1.921     1.813      1.786  0.001938456  18.5791        259
 4.12   0.0000   1332.9294    107.4837      1951.35      43.5214  -2.81     1.329     1.158      1.440  0.001937359  19.8242        260
 3.50   0.0000   1298.3828    724.9477     270425.4      43.5214 -51.40     2.371     2.297      1.753  0.001939553  14.4699        261
 4.19   0.0000   1304.7047    892.9962     1667.615      43.5214 -75.91     1.297     1.172      1.671  0.001938237  19.9948        262
 4.08   0.0000   1319.2585    264.1429     1375.554      43.5214   6.39     1.181     1.123      1.649  0.001938017  20.2038        263
 4.31   0.0000   1307.5262    669.7034      5214.59      43.5214 -32.49     1.629     1.592      1.554  0.001937578  18.7569        264
 3.65   0.0000   1272.7618    610.0184     23580.59      43.5214 -58.16     4.190     2.580      2.506  0.001939553  17.1186        265
 5.69   0.0000   1299.3568     54.0625      652.193      43.5214 -68.39     0.901     0.697      1.505  0.001938676  21.0141        266
 3.52   0.0000   1291.4148    762.2641     11079.74      43.5214 -23.95     2.297     1.839      1.775  0.001938895  17.9387        267
 3.56   0.0000   1265.4564    807.9594     6011.517      43.5214  -7.96     1.661     1.612      1.606  0.001938456  18.6025        268
 6.36   0.0000   1273.6595    698.0986     579.6248      43.5214  68.67     0.919     0.693      1.918  0.001937359  21.1421        269
 4.97   0.0000   1228.6499   1153.6350     830.5197      43.5214  43.00     0.997     0.872      1.508  0.001939334  20.7516        270
 5.85   0.0000   1262.1962    855.0399     767.0165      43.5214 -88.04     0.907     0.755      1.660  0.001938895  20.8380        271
 5.76   0.0000   1212.7454   1429.5703     2967.259      43.5214  66.31     2.076     1.803      2.795  0.001939553  19.3691        272
 4.06   0.0000   1237.0374   1553.6448     3593.379      43.5214 -72.17     1.471     1.442      1.760  0.001939553  19.1612        273
 6.33   0.0000   1229.7732    599.1249     1684.671      43.5214 -25.96     1.422     1.267      1.868  0.001938676  19.9837        274
 3.50   0.0000   1234.4055    304.8864     5533.895      43.5214   0.76     1.619     1.566      1.588  0.001938676  18.6924        275
 5.14   0.0000   1237.6368     48.3455     963.1191      43.5214  42.97     1.043     0.951      1.522  0.001939114  20.5908        276
 4.28   0.0000   1207.6377    838.9413     3641.032      43.5214  35.87     1.470     1.451      1.536  0.001939114  19.1469        277
 3.50   0.0000   1214.6141    513.0945     22402.64      43.5214  -0.90     1.943     1.918      1.567  0.001938456  17.1743        278
 4.24   0.0000   1200.8662   1442.2368     1878.287      43.5214 -76.41     1.564     1.485      1.881  0.001938895  19.8656        279
 7.93   0.0000   1204.4742   1217.4802     454.9526      43.5214  43.31     0.502     0.497      1.446  0.001937798  21.4051        280
 5.08   0.0000   1194.9722    124.1294     3456.338      43.5214 -83.39     1.957     1.669      1.917  0.001939114  19.2035        281
 3.91   0.0000   1201.8915    339.0921     3392.912      43.5214  41.67     1.528     1.455      1.511   0.00193692  19.2236        282
 5.34   0.0000   1130.2582    219.7123     1243.663      43.5214  22.28     1.184     1.117      1.664  0.001938017  20.3132        283
 3.50   0.0000   1138.5420    148.1507     45590.95      43.5214  77.75     2.097     2.062      1.623  0.001938676  16.4028        284
 5.95   0.0000   1181.9745    176.1647     718.2767      43.5214   3.89     0.910     0.759      1.424  0.001939334  20.9093        285
 4.90   0.0000   1180.9506    549.4130      1176.76      43.5214  37.05     1.159     1.067      1.634  0.001939772  20.3733        286
 4.68   0.0000   1153.5942   1353.1537      1654.47      43.5214  23.71     1.498     1.327      1.643  0.001939772  20.0034        287
 3.50   0.0000   1165.1395   1299.8351     69481.81      43.5214 -78.19     2.141     2.108      1.683  0.001939114  15.9453        288
 3.50   0.0000   1129.9851    183.6115     25816.64      43.5214  -6.31     1.968     1.954      1.654  0.001938676  17.0203        289
 3.53   0.0000   1157.8691    236.5205     10086.66      43.5214 -59.07     1.775     1.768      1.597  0.001937578  18.0406        290
 5.31   0.0000   1161.7438    887.7606     1628.072      43.5214 -40.77     1.157     1.096      1.538  0.001939114  20.0208        291
 4.11   0.0000   1151.2296     99.5155      3004.56      43.5214   1.70     1.475     1.409      1.640  0.001938895  19.3555        292
 6.72   0.0000   1131.0312    359.2770     584.7031      43.5214  79.06     0.733     0.682      1.581  0.001938676  21.1327        293
 3.50   0.0000   1079.9672    512.2063     50768.63      43.5214  74.02     2.099     2.081      1.662  0.001939114  16.2860        294
 4.04   0.0000   1095.4258   1526.6967     2151.822      43.5214  64.24     1.332     1.261      1.641  0.001938237  19.7180        295
 7.24   0.0000   1086.1484   1452.8627     639.7871      43.5214  46.36     0.838     0.678      1.776  0.001938237  21.0349        296
 7.41   0.0000   1090.0991    782.8873     8754.125      43.5214  45.01     1.234     0.538      3.837   0.00193692  18.1945        297
 5.92   0.0000   1094.6758   1136.2837     636.5765      43.5214  42.84     0.939     0.754      1.427  0.001937578  21.0404        298
 7.13   0.0000    978.4573    452.7135     855.2646      43.5214 -88.97     0.999     0.961      1.529  0.001938017  20.7197        299
 7.77   0.0000   1088.0132    397.0000     639.5987      43.5214  90.00     0.850     0.289      1.801  0.001938895  21.0352        300
 5.99   0.0000   1065.1993   1563.2179     2106.286      43.5214 -50.91     1.822     1.345      2.509  0.001938676  19.7412        301
 3.50   0.0000    984.8825    558.5286     47771.43      43.5214  86.99     2.062     2.035      1.653  0.001937359  16.3521        302
 3.50   0.0000   1009.8115    813.7941     26596.17      43.5214 -23.06     1.976     1.963      1.617  0.001937578  16.9880        303
 5.37   0.0000    965.2351    416.4796     1095.333      43.5214   9.67     0.991     0.951      1.583  0.001938456  20.4511        304
 5.22   0.0000    980.8171    797.9382     1821.974      43.5214 -22.95     1.473     1.417      1.764  0.001938676  19.8986        305
 3.50   0.0000   1040.2435    633.1321     60292.67      43.5214 -86.88     2.148     2.116      1.649  0.001938676  16.0993        306
 3.50   0.0000   1038.7074    525.4634     13949.43      43.5214 -89.92     1.895     1.851      1.531  0.001938017  17.6886        307
 4.72   0.0000   1030.4277    302.7162     3488.128      43.5214  61.98     2.411     1.679      2.327  0.001938676  19.1935        308
 5.83   0.0000    986.6929    454.0457     2530.023      43.5214  71.21     1.721     1.537      1.880  0.001937139  19.5422        309
 8.75   0.0000   1014.5078    453.4610     539.9613      43.5214 -62.89     0.500     0.498      1.726  0.001938017  21.2191        310
 6.43   0.0000    998.0614    233.3179      547.045      43.5214  83.83     0.736     0.671      1.821  0.001937578  21.2049        311
 3.50   0.0000   1025.7098   1380.0499     29953.14      43.5214  87.42     2.054     1.952      1.633  0.001938017  16.8589        312
 3.80   0.0000   1011.3396    344.7471      5127.66      43.5214 -55.24     1.591     1.561      1.652  0.001938237  18.7752        313
 8.38   0.0000   1011.2415    267.9928     694.6429      43.5214   0.33     0.699     0.428      1.670  0.001939334  20.9456        314
 4.30   0.0000    999.9335   1273.7820     1843.886      43.5214 -27.04     1.275     1.172      1.727  0.001939114  19.8857        315
 4.10   0.0000   1001.6805    542.7173     5138.032      43.5214  12.75     1.658     1.575      1.550  0.001937578  18.7730        316
