#   1 KRON_RADIUS            Kron apertures in units of A or B                         
#   2 MAGERR_APER            RMS error vector for fixed aperture mag.                   [mag]
#   3 Y_IMAGE                Object position along y                                    [pixel]
#   4 X_IMAGE                Object position along x                                    [pixel]
#   5 THETA_IMAGE            Position angle (CCW/x)                                     [deg]
#   6 FLUX_APER              Flux vector within fixed circular aperture(s)              [count]
#   7 A_IMAGE                Profile RMS along major axis                               [pixel]
#   8 THRESHOLD              Detection threshold above background                       [count]
#   9 B_IMAGE                Profile RMS along minor axis                               [pixel]
#  10 FLUX_RADIUS            Fraction-of-light radii                                    [pixel]
#  11 FLUXERR_APER           RMS error vector for aperture flux(es)                     [count]
#  12 MAG_APER               Fixed aperture magnitude vector                            [mag]
#  13 NUMBER                 Running object number                                     
 4.20   0.0009     52.3034     61.8495   2.51     146901.5     4.442     65.14034     3.989      9.913     115.5609  15.1324          1
 3.77   0.0051     15.6711    983.4545 -87.99     24595.03     3.861     65.14034     1.647      6.766     115.6526  17.0729          2
 3.62   0.0064     17.0230     89.4899 -26.39     19723.87     1.422     65.14034     1.344      3.137     115.6919  17.3125          3
 3.50   0.0026     13.8104   1444.2446 -29.34     49015.25     1.547     65.14034     1.516      3.078     115.7312  16.3242          4
 9.00   0.0520      3.3280    143.3375 -44.59     2072.385     0.577     65.14034     0.334      2.891     99.13581  19.7588          5
 5.36   0.0455     16.2085    382.9816  89.06     2759.007     0.890     65.14034     0.752      3.160     115.6788  19.4481          6
 4.66   0.0277     23.7973    365.4003 -84.17     4530.537     1.089     65.14034     1.032      3.214     115.7312  18.9096          7
 8.20   0.0599     23.2996    381.3436 -42.82     2094.172     0.566     65.14034     0.338      2.803      115.574  19.7475          8
 3.50   0.0006     58.9551   1076.9459  70.23     215422.4     1.898     65.14034     1.774      3.239      115.705  14.7168          9
 6.03   0.0459     33.4796   1108.6080  64.27      2737.46     1.510     65.14034     0.629      4.085      115.705  19.4566         10
 7.91   0.0619     32.4033    324.8148 -18.96     2027.921     0.755     65.14034     0.449      3.410     115.6788  19.7824         11
 5.58   0.1052     37.0213   1519.9889  21.84     1194.485     0.611     65.14034     0.611      2.706     115.6788  20.3570         12
 6.31   0.0721     38.1393   1169.1509  44.59      1742.83     0.749     65.14034     0.572      3.306     115.6788  19.9469         13
 6.16   0.0780     41.5179    913.9079  -0.91     1611.038     0.771     65.14034     0.500      2.638     115.6526  20.0322         14
 3.50   0.0006     79.0638    535.8656 -71.09     208287.2     1.799     65.14034     1.767      3.205     115.6395  14.7533         15
 3.76   0.0150     74.1700    126.4531 -28.84     8388.309     1.258     65.14034     1.182      3.027     115.7312  18.2408         16
 6.21   0.0500     81.4861    419.7835 -89.81     2514.552     0.968     65.14034     0.724      3.712      115.705  19.5488         17
 6.69   0.0251     89.5848    375.0995 -11.54     5013.294     1.320     65.14034     1.036      5.207     115.6788  18.7997         18
 3.50   0.0004    120.9212    787.5002 -59.71       305713     1.833     65.14034     1.825      3.223      115.574  14.3367         19
 3.94   0.0103     95.6125     54.3898 -38.35     12141.71     1.297     65.14034     1.241      3.149     115.6657  17.8393         20
 6.66   0.0855     90.6038    494.2029 -18.24     1468.827     0.728     65.14034     0.456      2.778     115.6788  20.1326         21
 6.22   0.0386     97.0223    451.4500  -4.42     3252.156     1.053     65.14034     0.780      3.974     115.7312  19.2696         22
 6.76   0.0857    130.4583    416.4763  21.10     1465.727     0.500     65.14034     0.498      2.475     115.6657  20.1349         23
 3.50   0.0007    161.4535   1466.8450 -66.04     174892.9     1.744     65.14034     1.727      3.182      115.705  14.9431         24
 3.50   0.0030    169.3001    875.6627 -39.94     41496.25     1.534     65.14034     1.515      3.077     115.6395  16.5050         25
 4.65   0.0303    164.1470   1444.2490 -65.13     4147.773     1.073     65.14034     0.995      3.294      115.705  19.0055         26
 3.90   0.0444    165.6745    102.5966 -41.51     2833.412     1.017     65.14034     0.920      2.724     115.7704  19.4192         27
 7.35   0.0803    168.4966   1367.4883  45.85      1562.78     0.502     65.14034     0.498      2.741      115.574  20.0653         28
 7.70   0.0465    185.9798   1353.4911 -89.21     2703.315     0.796     65.14034     0.500      3.849     115.6657  19.4703         29
 4.74   0.0239    191.8871   1349.0082   9.23       5261.6     1.093     65.14034     1.083      3.453      115.705  18.7472         30
 4.97   0.0068    209.7816    825.9514  -7.57     18421.17     3.145     65.14034     1.693      7.953     115.7181  17.3867         31
 3.71   0.0145    205.7242    547.4327 -27.80     8678.108     1.268     65.14034     1.220      3.025     115.6788  18.2039         32
 3.65   0.0144    211.4296   1304.5750 -26.27     8704.974     1.248     65.14034     1.242      2.979     115.7181  18.2006         33
 5.99   0.0442    209.9860    683.0103 -88.12     2841.001     1.026     65.14034     0.734      3.488     115.6657  19.4163         34
 5.59   0.0078    229.1618    560.4160 -36.10     16097.67     2.830     65.14034     2.521      9.060     115.7443  17.5331         35
 3.56   0.0127    223.3353   1224.5809 -36.23     9897.648     1.273     65.14034     1.233      3.013     115.7312  18.0612         36
 3.50   0.0002    258.9106    995.8257 -71.98     522814.9     1.918     65.14034     1.899      3.260     115.6788  13.7541         37
 4.31   0.0350    221.5924    773.3193 -14.50     3589.747     1.060     65.14034     0.974      3.012      115.705  19.1623         38
 3.50   0.0003    264.9516     65.7890 -57.20     392176.9     1.875     65.14034     1.852      3.230     115.7574  14.0663         39
 5.57   0.0173    243.0064    111.0418 -88.92     7250.586     1.582     65.14034     1.198      5.076     115.7312  18.3991         40
 6.43   0.0414    238.3742    837.2224 -31.21     3038.723     1.016     65.14034     0.916      4.207     115.7312  19.3433         41
 4.83   0.0072    254.5080    611.2502 -38.55     17480.54     2.022     65.14034     1.655      5.461     115.6526  17.4436         42
 6.33   0.0365    249.4847    105.5596 -21.18     3443.074     0.902     65.14034     0.882      4.490     115.6919  19.2076         43
 3.50   0.0013    286.7240   1485.0078 -63.00      93584.4     1.644     65.14034     1.627      3.176     115.7443  15.6220         44
 6.27   0.0517    269.9772   1271.9922  -1.56     2429.587     0.789     65.14034     0.784      3.387     115.6919  19.5862         45
 3.50   0.0059    281.0651   1520.9044 -20.69     21213.14     1.367     65.14034     1.351      2.999     115.6526  17.2335         46
 3.50   0.0018    302.1579    199.9657 -33.04     70556.55     1.618     65.14034     1.605      3.116     115.7574  15.9287         47
 5.49   0.0257    292.5531   1474.0583  -1.34     4885.525     1.049     65.14034     0.933      4.055     115.6919  18.8277         48
 4.42   0.0320    301.2180    561.9072  18.86     3921.757     1.129     65.14034     1.058      3.215     115.6919  19.0663         49
 3.50   0.0027    321.1726    695.6197 -26.26     47187.93     1.553     65.14034     1.509      3.045      115.705  16.3654         50
 7.87   0.0470    307.7152     83.4339  80.94     2675.156     1.003     65.14034     0.476      4.160      115.705  19.4816         51
 6.17   0.0292    321.0647    639.6444 -67.67     4300.549     1.609     65.14034     0.861      4.798     115.6919  18.9662         52
 4.98   0.0134    326.5730    593.8109   7.14     9383.797     1.495     65.14034     1.367      4.591     115.7181  18.1191         53
 5.80   0.0763    328.6497   1544.8694  10.60     1645.171     0.732     65.14034     0.651      2.785     115.6395  20.0095         54
 4.93   0.0556    331.1288     91.6019 -14.07     2261.623     0.974     65.14034     0.736      2.836     115.7574  19.6639         55
 4.17   0.0260    349.0255     52.9406 -34.32     4840.496     1.109     65.14034     1.089      3.161     115.7443  18.8378         56
 3.50   0.0026    367.2481    759.5090  -9.25     48753.61     1.555     65.14034     1.529      3.080     115.6264  16.3300         57
 3.89   0.0146    360.4133   1498.9653  13.98     8621.109     1.270     65.14034     1.201      3.119     115.7443  18.2111         58
 4.06   0.0470    359.7190   1032.4745   1.63     2670.486     0.960     65.14034     0.930      2.761     115.6395  19.4835         59
 3.50   0.0005    394.2187    229.6441 -68.12       231327     1.801     65.14034     1.777      3.176     115.7312  14.6394         60
 6.64   0.0277    374.3668    752.0930  47.82      4527.11     1.482     65.14034     0.696      4.812     115.6395  18.9104         61
 8.25   0.0670    369.4944     69.5316 -56.01      1875.15     0.501     65.14034     0.498      3.005     115.6526  19.8674         62
 6.81   0.0552    372.6188   1082.2681 -17.95     2277.644     0.948     65.14034     0.637      3.546     115.7443  19.6563         63
 7.60   0.1238    374.3250     85.3358 -44.52     1013.897     0.575     65.14034     0.335      2.353     115.6264  20.5350         64
 5.83   0.0701    379.2894    123.9578  -3.94     1791.445     0.729     65.14034     0.671      2.836     115.6657  19.9170         65
 3.50   0.0037    396.2292   1459.7554 -36.91     33616.86     1.475     65.14034     1.464      3.065     115.7704  16.7336         66
 3.50   0.0032    397.1713    352.8766 -25.80     39118.75     1.525     65.14034     1.501      3.130     115.6919  16.5690         67
 3.66   0.0155    392.8804   1087.1648  -9.50     8116.983     1.239     65.14034     1.206      3.009     115.6919  18.2765         68
 7.81   0.0324    395.9946    624.9952  71.33      3875.46     0.799     65.14034     0.798      4.797     115.6526  19.0792         69
 7.27   0.0892    406.4605    280.4913 -17.59      1407.47     0.500     65.14034     0.498      2.712     115.6395  20.1789         70
 5.30   0.0263    419.8942    157.4371  26.75     4775.929     1.448     65.14034     1.193      4.507     115.6133  18.8524         71
 3.50   0.0016    437.0088    250.3023 -32.19     76346.98     1.624     65.14034     1.615      3.124     115.6526  15.8430         72
 3.50   0.0002    460.3148    806.0232 -65.11     629177.5     1.935     65.14034     1.920      3.271     115.6919  13.5531         73
 7.45   0.0471    425.8697   1178.0779  43.77     2663.562     0.858     65.14034     0.661      4.172     115.6133  19.4863         74
 3.69   0.0202    432.1023   1420.5601 -11.63     6203.122     1.208     65.14034     1.109      2.854     115.6133  18.5685         75
 4.94   0.0492    433.1256    149.3873  -9.79     2553.157     0.981     65.14034     0.856      2.949     115.7704  19.5323         76
 4.38   0.0463    439.0159    303.9682 -20.07      2712.16     0.920     65.14034     0.913      2.619     115.7312  19.4667         77
 5.20   0.0058    466.9002    848.8165  22.61     21638.93     6.820     65.14034     1.769     13.885     115.6657  17.2119         78
 3.54   0.0051    449.4023     19.5231 -30.68     24766.82     1.437     65.14034     1.406      3.075     115.7181  17.0653         79
 5.15   0.0288    444.2394    120.4318 -22.01     4359.355     1.210     65.14034     1.108      3.707     115.7443  18.9514         80
 3.50   0.0045    456.8024     32.7392  -3.30     27693.77     1.443     65.14034     1.422      3.068     115.7835  16.9440         81
 7.16   0.1146    442.5621    653.4972 -10.91     1095.434     0.500     65.14034     0.496      2.566     115.6002  20.4510         82
 5.48   0.0917    452.0169   1531.7256 -85.78     1371.644     0.721     65.14034     0.674      2.620     115.7835  20.2069         83
 3.99   0.0138    462.7450    466.8865  54.88      9071.79     1.308     65.14034     1.243      3.195     115.6395  18.1558         84
 4.66   0.0429    460.2122   1094.6180   6.35     2930.475     0.975     65.14034     0.925      3.039     115.6788  19.3827         85
 3.62   0.0113    471.1317    733.2081  79.83     11151.76     1.283     65.14034     1.279      2.973     115.7704  17.9316         86
 4.08   0.0159    470.3870    252.5030   5.65     7905.039     1.263     65.14034     1.233      3.236     115.6657  18.3052         87
 8.39   0.0570    460.5989    723.2239 -18.39     2205.465     0.756     65.14034     0.451      3.721     115.6919  19.6912         88
 3.50   0.0089    477.0223    921.4086 -70.99     14111.74     1.335     65.14034     1.318      3.017      115.705  17.6760         89
 3.88   0.0238    477.0480   1275.3263 -57.55     5266.625     1.145     65.14034     1.027      2.892     115.6526  18.7462         90
 7.61   0.1114    475.3035   1166.6748  43.83     1127.472     0.561     65.14034     0.342      2.351     115.6395  20.4197         91
 6.22   0.0343    487.6810    837.9964 -83.71     3665.329     1.704     65.14034     0.715      4.877     115.7181  19.1397         92
 3.69   0.0208    483.0464   1069.0927 -24.30     6034.434     1.130     65.14034     1.125      2.889     115.6133  18.5984         93
 6.02   0.0731    477.7341    681.0251  -3.82     1719.388     0.725     65.14034     0.675      3.077     115.7181  19.9616         94
 5.29   0.0115    495.1190     81.1906  45.43     10893.79     2.066     65.14034     1.767      6.307     115.6919  17.9571         95
 5.45   0.0119    494.7936   1185.2228 -14.10     10525.08     2.599     65.14034     1.517      6.594      115.705  17.9944         96
 5.72   0.0194    503.3142    761.2948 -38.41     6466.824     1.466     65.14034     1.337      5.078      115.574  18.5233         97
 4.13   0.0330    501.1669    862.1559 -43.76      3813.15     1.112     65.14034     1.006      2.859     115.7574  19.0968         98
 5.64   0.0805    497.0226    364.6823 -87.03     1560.756     0.730     65.14034     0.667      2.683      115.705  20.0667         99
 4.77   0.0096    514.4293   1459.5134  23.73     13104.83     3.563     65.14034     1.308      7.511      115.705  17.7564        100
 5.66   0.0332    508.9268    163.3875  -3.75     3792.806     1.654     65.14034     0.787      4.445     115.7835  19.1026        101
 4.26   0.0325    512.8962   1177.7278 -61.45     3869.874     1.075     65.14034     0.992      3.092     115.6395  19.0808        102
 5.41   0.0450    518.3445    640.3340 -41.64     2793.466     1.060     65.14034     0.951      3.512     115.6657  19.4346        103
 6.49   0.1122    517.4171   1517.7679 -18.84     1120.366     0.723     65.14034     0.459      2.463     115.7312  20.4266        104
 3.72   0.0147    539.3714    998.3492 -26.35      8551.01     1.257     65.14034     1.218      2.988     115.7443  18.2200        105
 6.75   0.0601    535.1268    402.7053  21.93     2089.184     0.939     65.14034     0.684      3.472     115.6526  19.7501        106
 3.70   0.0110    558.0494   1040.1455  18.85     11449.25     1.313     65.14034     1.296      3.105     115.7181  17.9031        107
 6.44   0.1552    554.9899    777.2524  89.44     809.8476     0.670     65.14034     0.434      2.350     115.7704  20.7790        108
 4.62   0.0149    570.3089     44.1189  51.69     8413.617     1.845     65.14034     1.271      4.429     115.6395  18.2375        109
 3.50   0.0027    579.6545    143.1783 -44.32     46612.31     1.563     65.14034     1.533      3.080     115.7574  16.3787        110
 5.36   0.0155    570.5286   1446.4730  17.88     8092.545     1.856     65.14034     1.391      5.464     115.6002  18.2798        111
 3.50   0.0027    581.2003    317.4489 -12.26     46499.95     1.570     65.14034     1.539      3.073     115.7835  16.3814        112
 5.79   0.0533    563.8646    137.6890 -21.27     2354.591     0.892     65.14034     0.686      2.956     115.6526  19.6202        113
 4.69   0.0053    595.7537    780.8385 -56.47     23811.42     3.023     65.14034     2.605      7.897     115.7312  17.1080        114
 6.19   0.0443    575.3632   1000.3189  45.20     2839.331     1.005     65.14034     0.886      3.953     115.6919  19.4170        115
 4.45   0.0392    583.4443     74.1731 -17.03      3207.33     1.094     65.14034     0.938      2.965     115.7704  19.2846        116
 3.75   0.0094   1000.7644    540.9913  -8.94     13374.81     1.362     65.14034     1.329      3.167     115.7312  17.7343        117
 7.83   0.0849   1599.7003     17.3366  43.09     1114.172     0.564     65.14034     0.340      2.963     87.14998  20.4326        118
 5.25   0.0267   1596.6635    653.0926 -59.61       4241.9     1.485     65.14034     1.346      4.077      104.187  18.9811        119
 5.50   0.0455   1593.6263    372.3974  44.56     2741.414     1.077     65.14034     0.932      3.426     114.8904  19.4551        120
 8.20   0.1360   1592.4907   1383.5098 -45.05     923.1545     0.502     65.14034     0.498      2.890     115.5871  20.6368        121
 7.32   0.2352   1590.3160    565.3229 -44.66     533.9938     0.565     65.14034     0.340      2.133     115.6264  21.2312        122
 6.48   0.1258   1584.9933   1068.0237   1.49     998.4835     0.615     65.14034     0.610      2.506      115.705  20.5516        123
 3.50   0.0077   1540.7362    133.3148 -47.70     16242.96     1.408     65.14034     1.367      3.029     115.6395  17.5233        124
 3.50   0.0009   1506.1389    267.6415 -39.96     146598.2     1.723     65.14034     1.706      3.130      115.705  15.1347        125
 4.58   0.0666   1064.9565   1595.7683  -2.91     1764.474     0.881     65.14034     0.748      2.710     108.1394  19.9335        126
 5.63   0.0259    979.9975    796.2272 -68.28       4859.6     1.224     65.14034     1.180      4.196     115.6919  18.8335        127
 6.39   0.0403    977.0343    451.0101 -40.67      3119.94     0.784     65.14034     0.775      3.749     115.7443  19.3146        128
 5.05   0.0578    964.0334    414.7816   0.25     2174.544     0.891     65.14034     0.748      2.636     115.7312  19.7066        129
 6.12   0.0318    949.9987    652.6572 -89.85     3949.793     1.224     65.14034     0.992      4.240     115.7966  19.0586        130
 5.24   0.0691    946.8032    443.5172  -1.66      1817.82     0.923     65.14034     0.719      2.697      115.705  19.9011        131
 3.69   0.0139    938.3217   1065.6394  41.58     9052.779     1.248     65.14034     1.193      2.925     115.6657  18.1580        132
 7.35   0.0365    937.5718    514.6093  47.45     3441.812     1.032     65.14034     0.878      5.255     115.7181  19.2080        133
 4.11   0.0255    927.3743   1321.0085 -85.38     4922.248     1.159     65.14034     1.128      3.110     115.7181  18.8196        134
 3.57   0.0336    911.8421    836.9899  38.07     3744.308     1.095     65.14034     1.086      2.687     115.7312  19.1166        135
 4.50   0.0668    911.3700    999.6253 -45.17     1881.334     0.962     65.14034     0.860      2.686      115.705  19.8638        136
 3.50   0.0041    899.4661    301.0907 -18.69     30636.67     1.479     65.14034     1.444      3.085     115.6657  16.8344        137
 4.85   0.0172    895.2223    536.8345   2.48     7321.221     1.747     65.14034     1.407      4.631     115.7181  18.3885        138
 5.70   0.0764    893.0107   1424.9458 -31.86     1646.422     0.780     65.14034     0.772      3.054     115.7704  20.0086        139
 5.92   0.0316    887.5701    324.2279  14.78     3976.344     1.646     65.14034     0.935      4.766     115.7181  19.0513        140
 3.50   0.0002    879.3601   1591.1908 -70.96     504343.7     1.908     65.14034     1.875      3.269     115.7312  13.7932        141
 4.08   0.0312    884.8735   1498.7712 -43.20     4027.866     1.104     65.14034     0.995      2.842      115.705  19.0373        142
 7.12   0.0467    884.0042    337.5157   0.76     2689.346     0.817     65.14034     0.703      4.079     115.6919  19.4759        143
 4.64   0.0504    876.5405    959.5004 -84.19     2491.483     0.889     65.14034     0.881      2.823     115.6002  19.5589        144
 6.47   0.0810    875.4860    540.0019  -0.88     1550.415     0.778     65.14034     0.500      2.593     115.6919  20.0739        145
 4.14   0.0094    868.4766   1102.1177 -45.52     13387.12     1.686     65.14034     1.465      4.011     115.6526  17.7333        146
 5.04   0.0249    867.0320    938.2143  29.24     5042.145     1.622     65.14034     1.102      4.533     115.7312  18.7935        147
 5.62   0.0955    868.3191    642.0235   1.45     1315.717     0.733     65.14034     0.661      2.750     115.6919  20.2521        148
 5.07   0.0356    857.5266   1338.7096 -88.38     3529.383     0.975     65.14034     0.694      3.130     115.6395  19.1808        149
 8.56   0.0756    854.5153    543.5096 -43.94     1660.816     0.502     65.14034     0.498      3.011     115.6264  19.9992        150
 3.93   0.0498    843.9196   1062.4259 -64.62     2520.829     0.996     65.14034     0.935      2.713      115.705  19.5461        151
 4.52   0.0224    842.4215   1104.6084  35.51     5604.396     1.423     65.14034     1.112      3.672     115.6919  18.6787        152
 3.98   0.0177    835.5465    297.1019 -52.68     7109.873     1.220     65.14034     1.192      3.079     115.5871  18.4203        153
 6.27   0.1261    835.7402   1519.0046   0.28     997.4705     0.666     65.14034     0.438      2.400     115.7835  20.5527        154
 4.85   0.0777    834.6307    817.5598 -17.74     1618.038     0.921     65.14034     0.798      2.879     115.7574  20.0275        155
 3.50   0.0040    822.0726    652.7797 -15.69     31181.49     1.506     65.14034     1.487      3.146     115.7704  16.8153        156
 7.58   0.2105    818.6843   1397.3020  45.79     596.2257     0.556     65.14034     0.344      2.392      115.574  21.1115        157
 8.36   0.0776    814.5045    876.4985 -44.97     1616.952     0.510     65.14034     0.490      3.058     115.6002  20.0283        158
 0.00  99.0000    808.9929   1543.2617  86.66    -254.6448     0.723     65.14034     0.668      4.340     115.7966  99.0000        159
 3.50   0.0044    802.1609   1377.2968 -81.68      28597.2     1.468     65.14034     1.437      3.073     115.6002  16.9092        160
 3.50   0.0015    797.5929    694.0792 -87.69     82452.43     2.371     65.14034     1.616      4.018      115.705  15.7595        161
 3.82   0.0091    799.6501     39.4609 -16.46     13769.65     1.361     65.14034     1.275      3.190     115.6788  17.7027        162
 4.79   0.0101    773.3688   1425.9453 -89.88     12411.42     2.549     65.14034     1.648      6.300     115.7312  17.8154        163
 7.13   0.0700    766.9608    138.2908 -82.22     1792.965     0.741     65.14034     0.680      3.529     115.6395  19.9161        164
 3.88   0.0168    741.8005    554.6681 -25.34     7473.636     1.249     65.14034     1.190      3.073     115.7574  18.3662        165
 4.30   0.0457    737.2334   1156.5380 -12.72     2752.207     0.960     65.14034     0.922      2.736      115.705  19.4508        166
 4.49   0.0407    735.1122    648.2329  21.14     3089.631     1.029     65.14034     0.963      3.008     115.6919  19.3252        167
 3.50   0.0004    725.6378    846.8517  86.08     308335.8     1.845     65.14034     1.830      3.231     115.7181  14.3274        168
 3.74   0.0244    726.5109   1176.8252 -76.33     5149.193     1.162     65.14034     1.128      2.886     115.6788  18.7707        169
 5.35   0.0738    720.3839   1393.5464  14.98     1704.171     0.949     65.14034     0.801      2.957     115.7443  19.9712        170
 4.00   0.0193    714.9327    806.8177 -19.41     6510.499     1.194     65.14034     1.123      2.972     115.7443  18.5160        171
 3.83   0.0191    708.0512   1162.3833  -2.52      6564.17     1.226     65.14034     1.123      2.979     115.7443  18.5070        172
 4.56   0.0154    703.6281   1337.5835 -22.96     8134.591     1.362     65.14034     1.190      4.066     115.7181  18.2742        173
 3.63   0.0107    701.9589    951.0188 -28.23     11708.79     1.315     65.14034     1.292      3.106     115.7443  17.8787        174
 6.53   0.0392    697.9573    581.1458   7.31     3205.245     1.309     65.14034     0.761      4.619      115.705  19.2853        175
 5.57   0.0324    690.8048   1212.2382  42.91     3874.486     1.087     65.14034     1.036      4.068      115.705  19.0795        176
 5.41   0.0801    686.5112    129.0499 -88.74       1568.8     0.791     65.14034     0.700      2.472     115.6395  20.0611        177
 5.55   0.0387    685.6292   1212.3170 -47.65     3242.765     0.978     65.14034     0.857      3.590      115.705  19.2727        178
 4.05   0.0125    684.6274    642.5974   0.81      10014.1     1.260     65.14034     1.254      3.214     115.6919  18.0485        179
 7.07   0.0626    668.2875   1220.0120  -5.30     2007.948     0.739     65.14034     0.685      3.572     115.7181  19.7931        180
 3.50   0.0004    647.4228   1462.9352 -62.50     299898.8     1.828     65.14034     1.800      3.239     115.7312  14.3576        181
 4.57   0.0447    653.6522    869.3309  48.72      2807.28     1.000     65.14034     0.935      2.804     115.6526  19.4293        182
 5.89   0.0686    644.8383    651.1881  45.66      1832.34     0.800     65.14034     0.677      3.116     115.7312  19.8925        183
 7.10   0.0923    640.3939    274.8174 -18.76     1361.786     0.747     65.14034     0.449      2.912     115.6788  20.2147        184
 4.29   0.0432    629.6943    804.5840 -38.06     2911.457     1.004     65.14034     0.931      2.801     115.6919  19.3897        185
 4.00   0.0245    622.7623   1580.2859 -21.97     5122.748     1.161     65.14034     1.088      2.993     115.6919  18.7762        186
 7.20   0.0498    617.6240   1149.2490  63.36     2524.242     0.705     65.14034     0.646      3.665     115.7574  19.5447        187
 7.22   0.1241    608.6580    943.7079 -47.61     1011.758     0.562     65.14034     0.340      2.223     115.6264  20.5373        188
 3.77   0.0014   1551.6090    680.5820 -25.13     87997.09     4.213     65.14034     3.649      8.760     115.6788  15.6888        189
 4.88   0.0186   1564.8285    782.9484 -80.10      6756.81     1.596     65.14034     1.157      3.933     115.7443  18.4756        190
 4.18   0.0207   1583.9823   1107.3646  -3.87     6060.142     1.234     65.14034     1.119      3.058     115.7443  18.5938        191
 3.50   0.0005   1562.5820    302.4688 -71.97     270221.8     1.813     65.14034     1.787      3.136     115.7574  14.4707        192
 5.21   0.0270   1545.1246    861.9520  58.14     4644.316     1.358     65.14034     1.132      3.768     115.6526  18.8827        193
 4.19   0.0248   1560.2106    859.8414 -44.87     5072.531     1.147     65.14034     1.080      2.968     115.7181  18.7869        194
 3.95   0.0158   1569.4437     90.8909 -54.90     7970.898     1.220     65.14034     1.190      2.935     115.6395  18.2962        195
 3.84   0.0122   1565.5842     20.1956 -31.18     10281.74     1.308     65.14034     1.243      3.126     115.6657  18.0198        196
 5.17   0.0642   1550.0061   1220.5410  -0.01     1958.686     0.996     65.14034     0.776      2.659     115.7704  19.8201        197
 3.50   0.0005   1557.0232    485.9650 -48.73     268156.8     1.811     65.14034     1.794      3.178      115.705  14.4790        198
 7.45   0.0574   1531.5010    414.0070  89.85      2187.35     0.821     65.14034     0.711      4.015     115.6526  19.7002        199
 3.93   0.0106   1541.5602    652.9684  -5.45     11812.87     1.360     65.14034     1.268      3.147     115.7574  17.8691        200
 7.98   0.0826   1519.2098   1099.3802  72.40      1520.77     0.762     65.14034     0.448      3.180     115.6919  20.0948        201
 3.50   0.0034   1513.8955    390.9565 -19.27     37378.27     1.511     65.14034     1.471      3.037     115.6133  16.6185        202
 7.01   0.0835   1065.9607    567.4847 -88.52     1504.184     0.785     65.14034     0.500      2.816     115.6919  20.1067        203
 5.90   0.0698   1514.6218   1545.8690  73.99      1799.62     1.036     65.14034     0.735      3.345     115.7443  19.9120        204
 5.05   0.0711   1513.6230    482.0370 -73.38       1766.3     0.966     65.14034     0.741      2.658      115.705  19.9323        205
 4.35   0.0329   1503.1702    721.7780  46.05     3822.792     1.114     65.14034     1.010      2.894     115.7181  19.0940        206
 5.71   0.1339   1497.6772    842.9538   2.85     938.1104     0.732     65.14034     0.661      2.538     115.6526  20.6194        207
 6.28   0.0966   1487.0623     76.3034  83.96     1299.437     0.736     65.14034     0.672      2.900     115.6264  20.2656        208
 4.69   0.0503   1078.2964    328.4542 -10.28     2495.138     0.957     65.14034     0.931      2.929     115.6264  19.5573        209
 6.66   0.0234   1064.4292   1561.6660 -76.08     5374.683     1.422     65.14034     1.049      5.647      115.705  18.7241        210
 4.96   0.0116   1119.1886    328.0514  59.26     10826.38     2.084     65.14034     1.380      5.264     115.7704  17.9638        211
 6.79   0.0187   1109.6206    477.3038  -8.77     6724.437     1.522     65.14034     1.271      6.554     115.6657  18.4809        212
 8.83   0.0479   1474.3861    996.7784 -17.93     2620.891     0.765     65.14034     0.448      4.214     115.6788  19.5039        213
 4.68   0.0405   1128.1554    545.6889 -28.78     3103.937     1.030     65.14034     0.962      2.970     115.6395  19.3202        214
 3.50   0.0038   1106.4398    426.2938 -20.80     33184.32     1.504     65.14034     1.469      3.091     115.5871  16.7477        215
 7.96   0.0524   1481.7223    573.1321 -54.37      2395.65     1.103     65.14034     0.523      4.130     115.6133  19.6014        216
 0.00  99.0000   1445.2115    729.7859 -43.47    -465.2462     0.745     65.14034     0.559      4.468     115.6788  99.0000        217
 4.11   0.0190   1150.0950     97.6617 -14.31     6599.731     1.208     65.14034     1.115      3.089     115.6395  18.5012        218
 3.50   0.0009   1137.4657    146.3181 -45.28     143659.9     1.731     65.14034     1.714      3.166     115.6002  15.1567        219
 4.07   0.0562   1405.4136    328.2397  77.12      2238.25     0.958     65.14034     0.924      2.608     115.7443  19.6752        220
 5.46   0.0143   1193.9650    122.3893 -79.05     8762.821     1.612     65.14034     1.356      5.001     115.7312  18.1934        221
 5.05   0.0270   1152.7662   1351.5723  16.70     4660.337     1.257     65.14034     1.138      3.665      115.705  18.8790        222
 5.06   0.0424   1129.2538    217.8313   1.09     2962.476     1.162     65.14034     0.911      3.252     115.7312  19.3709        223
 3.50   0.0036   1387.8881   1427.1295  -5.27     34949.25     1.484     65.14034     1.471      3.104     115.6133  16.6914        224
 5.42   0.0193   1258.5282    430.7979  16.40     6499.581     1.601     65.14034     1.442      4.800     115.7574  18.5178        225
 3.52   0.0075   1434.2655    223.0121 -27.77      16667.9     1.369     65.14034     1.318      2.955     115.7574  17.4953        226
 3.50   0.0003   1392.3219    112.7204 -63.33     367000.1     1.860     65.14034     1.830      3.164     115.6526  14.1383        227
 3.78   0.0103   1389.4834    711.6834 -12.46     12166.86     1.319     65.14034     1.246      3.032     115.6264  17.8371        228
 3.50   0.0114   1407.1290    306.5896 -58.16     11074.79     1.333     65.14034     1.280      2.965     115.7704  17.9392        229
 3.51   0.0103   1438.8043    617.5106 -19.09     12174.92     1.300     65.14034     1.296      2.921     115.6657  17.8363        230
 5.29   0.0650   1437.8807   1269.6454  12.90      1933.16     0.970     65.14034     0.743      2.923     115.6526  19.8343        231
 6.12   0.1347   1435.4896   1345.9685   0.52     932.5238     0.777     65.14034     0.500      2.605     115.6657  20.6258        232
 6.83   0.0665   1431.0245    339.0038  34.88     1888.512     0.813     65.14034     0.783      3.450      115.705  19.8597        233
 5.23   0.0409   1410.1804    348.2027  44.59     3069.501     1.284     65.14034     1.027      3.542     115.6919  19.3323        234
 3.97   0.0162   1414.4740   1385.1525 -83.46     7739.152     1.199     65.14034     1.187      2.986     115.6526  18.3283        235
 7.42   0.2174   1261.3177    214.3352 -44.19     577.5809     0.571     65.14034     0.337      2.368     115.6133  21.1460        236
 3.50   0.0037   1290.4095    760.5784 -22.98     33647.27     1.963     65.14034     1.445      3.533     115.6919  16.7326        237
 5.00   0.0742   1387.9564    805.0132 -34.65     1694.215     0.780     65.14034     0.773      2.555     115.7181  19.9776        238
 5.05   0.0269   1399.8220   1029.8907  41.53     4678.175     1.233     65.14034     1.119      3.637     115.6657  18.8748        239
 3.94   0.0144   1391.3380   1037.2936 -43.58     8706.283     1.261     65.14034     1.190      3.057     115.6526  18.2004        240
 3.82   0.0023   1271.7605    608.2715 -56.40     55559.24     3.819     65.14034     2.244      6.827      115.705  16.1881        241
 3.50   0.0030   1371.5881   1017.4000 -29.14     42000.12     1.598     65.14034     1.523      3.125      115.705  16.4919        242
 3.54   0.0063   1277.2020   1329.9390 -72.17     20076.42     1.404     65.14034     1.363      3.050     115.7835  17.2933        243
 4.13   0.0297   1291.6356    411.0921 -19.83     4232.258     1.142     65.14034     1.017      2.870     115.6395  18.9836        244
 7.51   0.1005   1345.1929    603.5857 -70.25     1249.946     0.753     65.14034     0.448      3.064     115.6395  20.3078        245
 7.99   0.1395   1378.3179    317.3241 -44.69     900.5492     0.567     65.14034     0.339      2.640     115.6526  20.6637        246
 3.50   0.0009   1318.9797    658.3566 -51.30     140793.9     1.743     65.14034     1.712      3.161     115.7312  15.1785        247
 4.64   0.0590   1329.3981    385.3568  44.48      2130.94     0.962     65.14034     0.868      2.680     115.7704  19.7286        248
 9.46   0.0444   1351.5060    150.4881 -47.39     2825.304     0.501     65.14034     0.499      3.003     115.6002  19.4223        249
 3.83   0.0070   1328.8938    654.2342 -52.05     17961.04     1.535     65.14034     1.422      3.554     115.6395  17.4142        250
 4.06   0.0315   1331.7502    105.6862 -41.19     3986.061     1.106     65.14034     1.056      2.917     115.6526  19.0486        251
 4.43   0.0345   1303.8361    891.3013  63.38     3641.503     1.076     65.14034     1.003      3.019     115.5871  19.1468        252
 3.95   0.0091   1306.4565    668.0087  -7.10     13855.64     1.365     65.14034     1.285      3.166     115.7966  17.6959        253
 4.46   0.0462   1318.3636    262.3821 -41.33     2720.507     1.016     65.14034     0.927      2.733     115.7443  19.4634        254
 3.50   0.0001   1297.3243    723.2333 -49.66     844872.9     1.993     65.14034     1.943      3.250     115.6788  13.2330        255
 6.91   0.1195   1290.5083    544.4692 -50.07     1051.338     0.502     65.14034     0.497      2.460     115.6395  20.4956        256
 5.66   0.0158   1292.5227    740.7449 -27.93     7933.211     1.224     65.14034     1.210      4.769     115.6657  18.3014        257
 5.54   0.1053   1298.1482     52.1714 -45.81     1194.163     0.804     65.14034     0.675      2.605     115.7443  20.3573        258
 3.50   0.0079   1264.4128    806.2385  -3.53     15893.92     1.367     65.14034     1.337      3.009     115.7443  17.5469        259
 5.64   0.0842   1261.1466    853.8231  46.58     1492.315     0.799     65.14034     0.679      2.666     115.7704  20.1153        260
 3.98   0.0161   1236.2218   1552.2218 -25.35     7806.415     1.235     65.14034     1.181      3.106     115.7312  18.3189        261
 7.66   0.0903   1272.7844    696.4196 -70.82     1390.901     0.740     65.14034     0.455      3.039     115.6919  20.1918        262
 3.50   0.0028   1217.9402   1193.3903  -6.77     45359.49     1.605     65.14034     1.572      3.266     115.7835  16.4083        263
 6.43   0.0285   1228.8069    597.3965 -79.18     4415.695     1.168     65.14034     1.092      4.867     115.6788  18.9375        264
 5.28   0.0693   1227.9424   1152.0444 -26.21     1813.768     0.775     65.14034     0.772      2.635     115.6919  19.9035        265
 4.79   0.0611   1236.5430     46.4796 -30.81     2055.782     0.891     65.14034     0.881      2.792     115.6657  19.7676        266
 3.50   0.0097   1233.3020    303.0944   7.24     12975.36     1.334     65.14034     1.325      2.943      115.574  17.7672        267
 6.25   0.0172   1211.7311   1427.9958  26.63     7291.871     1.666     65.14034     1.557      6.435     115.7574  18.3929        268
 3.83   0.0026   1209.8131   1277.4897  84.44     47924.74     5.416     65.14034     3.142      9.717     115.6919  16.3486        269
 3.50   0.0018   1213.5981    511.3777 -17.48     68882.95     1.606     65.14034     1.570      3.071      115.705  15.9547        270
 3.96   0.0161   1206.7020    837.2943  39.09     7791.866     1.250     65.14034     1.197      3.078      115.574  18.3209        271
 6.28   0.1404   1203.2600   1215.9835   1.00     894.9199     0.661     65.14034     0.439      2.545      115.705  20.6705        272
 3.90   0.0164   1200.7714    337.3943  14.45     7664.759     1.240     65.14034     1.196      3.009     115.7181  18.3388        273
 4.54   0.0242   1199.9950   1440.7178  60.81     5197.873     1.443     65.14034     1.256      3.878      115.705  18.7604        274
 5.16   0.0776   1180.9392    174.5022  -0.38     1619.135     0.785     65.14034     0.700      2.767     115.6264  20.0268        275
 4.85   0.0482   1179.9983    547.6570  -6.45       2610.5     0.956     65.14034     0.937      2.934     115.7966  19.5082        276
 3.50   0.0045   1156.7819    234.6898 -15.67     27704.86     1.474     65.14034     1.429      3.080     115.6919  16.9436        277
 4.56   0.0377   1160.6958    886.1809  12.50     3328.567     1.041     65.14034     0.946      2.980     115.6788  19.2444        278
 6.33   0.0889   1130.0095    357.4835 -89.13     1414.012     0.772     65.14034     0.500      2.669     115.6919  20.1739        279
 3.50   0.0006   1164.2815   1298.2550 -57.81     226115.9     1.791     65.14034     1.772      3.198     115.6133  14.6642        280
 6.07   0.1064   1166.0150   1599.2726  89.52      918.179     0.737     65.14034     0.666      3.391     89.98904  20.6427        281
 3.50   0.0016   1128.9396    181.7825 -32.03     76449.12     1.636     65.14034     1.607      3.127      115.705  15.8416        282
 3.99   0.0306   1094.6251   1525.2061  -7.39     4109.496     1.081     65.14034     1.021      2.787     115.7181  19.0155        283
 3.50   0.0008   1079.0358    510.4872 -24.43     152321.6     1.729     65.14034     1.718      3.163     115.6788  15.0931        284
 6.41   0.0346   1089.9573    466.4429 -63.45     3631.367     1.629     65.14034     0.837      5.177     115.6788  19.1498        285
 3.50   0.0027   1080.8557   1146.7013  -7.45     45720.44     1.538     65.14034     1.516      3.069     115.5609  16.3997        286
 5.31   0.0964   1093.8127   1134.8312 -44.17       1304.5     0.799     65.14034     0.677      2.631     115.7443  20.2614        287
 6.99   0.1372    981.4794   1485.5005 -33.80     915.2184     0.500     65.14034     0.499      2.430     115.5871  20.6462        288
 8.58   0.0932   1085.5018   1451.4797  48.52     1346.735     0.501     65.14034     0.498      3.009     115.5871  20.2268        289
 5.43   0.0129   1071.1219   1217.5728 -73.27     9734.396     1.549     65.14034     1.406      5.125     115.6919  18.0792        290
 3.50   0.0014   1024.9236   1378.5546 -42.49     89726.79     1.629     65.14034     1.615      3.153     115.6657  15.6677        291
 3.50   0.0016   1008.8862    812.1166 -26.98     78593.29     1.620     65.14034     1.606      3.111     115.6264  15.8115        292
 5.93   0.0185    985.6927    452.3828  48.89     6789.787     1.407     65.14034     1.289      5.523      115.705  18.4704        293
 3.50   0.0009    983.9282    556.8718 -30.11     135940.8     1.716     65.14034     1.700      3.171     115.6264  15.2166        294
 3.50   0.0006   1039.2604    631.4094 -45.32     195558.8     1.766     65.14034     1.757      3.179     115.7835  14.8218        295
 6.91   0.1048    997.2210    231.5965 -71.47     1198.996     0.730     65.14034     0.456      2.435     115.6919  20.3530        296
 3.50   0.0030   1037.7264    523.7981  25.63     41349.76     1.523     65.14034     1.513      3.103     115.7574  16.5088        297
 7.87   0.1026   1013.5191    451.4943  43.26     1224.072     0.503     65.14034     0.497      2.943     115.6264  20.3305        298
 4.20   0.0318    998.9316   1272.3479 -65.75      3950.24     1.129     65.14034     1.015      2.991     115.6526  19.0584        299
 4.71   0.0144   1029.2104    300.9460  64.78     8707.745     2.132     65.14034     1.508      5.245     115.7704  18.2002        300
 3.59   0.0105   1010.2874    343.0584  -6.71     11992.31     1.338     65.14034     1.303      3.021     115.6526  17.8527        301
 8.52   0.0881   1010.3059    266.3173 -44.37     1425.126     0.558     65.14034     0.343      2.951     115.6264  20.1654        302
 3.88   0.0231   1000.6243   1554.0305 -74.47     5428.228     1.148     65.14034     1.126      2.917     115.6788  18.7134        303
