#   1 KRON_RADIUS            Kron apertures in units of A or B                         
#   2 MAGERR_APER            RMS error vector for fixed aperture mag.                   [mag]
#   3 Y_IMAGE                Object position along y                                    [pixel]
#   4 X_IMAGE                Object position along x                                    [pixel]
#   5 FLUX_APER              Flux vector within fixed circular aperture(s)              [count]
#   6 THRESHOLD              Detection threshold above background                       [count]
#   7 THETA_IMAGE            Position angle (CCW/x)                                     [deg]
#   8 A_IMAGE                Profile RMS along major axis                               [pixel]
#   9 B_IMAGE                Profile RMS along minor axis                               [pixel]
#  10 FLUX_RADIUS            Fraction-of-light radii                                    [pixel]
#  11 FLUXERR_APER           RMS error vector for aperture flux(es)                     [count]
#  12 MAG_APER               Fixed aperture magnitude vector                            [mag]
#  13 NUMBER                 Running object number                                     
 4.23   0.0000     53.2652     63.6543     84167.04      43.5214   3.17     5.181     4.630      2.992  0.006571121  15.7371          1
 3.95   0.0000     16.5149    985.0804     13846.36      43.5214 -88.61     4.203     1.941      2.744  0.006568888  17.6967          2
 4.06   0.0000     18.0504     91.3141     13912.67      43.5214   0.42     1.768     1.716      2.388  0.006570376  17.6915          3
 3.50   0.0000     14.6167   1445.7477     37993.99      43.5214 -47.82     1.890     1.819      2.414  0.006575583  16.6007          4
 8.12   0.0000     10.2946   1183.6542     535.4176      43.5214  42.42     0.565     0.339      2.444  0.006568888  21.2283          5
 7.36   0.0000      4.2259    145.0241     491.2158      43.5214  89.83     0.957     0.768      3.351  0.005889189  21.3218          6
 6.64   0.0000     17.2495    384.5071     1269.051      43.5214  19.99     0.993     0.952      2.458  0.006568144  20.2913          7
 5.14   0.0000     24.7971    367.2085     2698.791      43.5214  13.81     1.305     1.234      2.319  0.006571121  19.4721          8
 3.50   0.0000     59.7850   1078.4766     113903.5      43.5214  77.02     2.287     2.159      2.544  0.006577813  15.4087          9
 8.57   0.0000     23.7800    383.3999     1694.355      43.5214 -71.85     0.755     0.452      2.539  0.006573352  19.9775         10
 6.41   0.0000     33.9023   1110.1802     1249.727      43.5214  68.24     1.657     0.778      2.453  0.006570376  20.3080         11
 7.88   0.0000     33.3076    326.9492     712.9064      43.5214  -6.92     0.747     0.677      2.357  0.006569632  20.9174         12
 5.98   0.0000     37.8655   1521.1591     740.6852      43.5214  46.72     0.834     0.669      2.437  0.006573352  20.8759         13
 7.05   0.0000     38.8750   1170.6508      781.671      43.5214 -19.52     0.923     0.691      2.475  0.006568888  20.8174         14
 5.87   0.0000     42.4605    915.4996     781.9586      43.5214 -77.10     0.913     0.907      2.335  0.006568144  20.8170         15
 3.50   0.0000     80.1536    537.6561     103354.6      43.5214 -59.56     2.145     2.122      2.554  0.006572608  15.5142         16
 9.02   0.0000     44.6655    440.6699     668.2375      43.5214 -45.19     0.576     0.334      1.904  0.006569632  20.9877         17
 4.26   0.0000     75.2162    128.0142     5815.198      43.5214  -5.75     1.516     1.469      2.287  0.006573352  18.6386         18
 6.64   0.0000     82.2787    421.5101     1041.206      43.5214 -15.66     0.994     0.986      2.478  0.006568144  20.5062         19
 3.50   0.0000    121.8120    789.2006     135869.2      43.5214 -62.81     2.230     2.179      2.586  0.006573352  15.2172         20
 6.02   0.0000     90.7295    376.9918     1954.738      43.5214   4.47     1.628     1.442      2.588  0.006576327  19.8223         21
 4.42   0.0000     96.6151     56.2576     8624.082      43.5214 -38.95     1.639     1.566      2.298  0.006574096  18.2107         22
 6.10   0.0000     98.0585    452.9797     1394.988      43.5214 -14.82     1.454     1.005      2.299  0.006575583  20.1886         23
 7.39   0.0000     91.4945    495.9650     859.5184      43.5214  -1.40     0.788     0.500      2.353  0.006568888  20.7144         24
 3.50   0.0000    162.2989   1468.3301     99526.36      43.5214 -48.48     2.111     2.074      2.534  0.006569632  15.5552         25
 6.85   0.0000    131.2865    418.0175     567.8228      43.5214   5.64     0.729     0.681      2.347  0.006572608  21.1645         26
 3.55   0.0000    170.2996    877.3505     32558.28      43.5214  -8.96     1.882     1.865      2.460  0.006564421  16.7683         27
 8.52   0.0000    151.4999   1280.4825     680.8466      43.5214 -47.88     0.501     0.498      2.185  0.006565166  20.9674         28
 5.51   0.0000    164.9741   1445.6677     2130.291      43.5214  17.35     1.303     1.186      2.427  0.006574096  19.7289         29
 4.82   0.0000    166.8505    104.4303     1984.161      43.5214 -46.35     1.196     1.124      2.464  0.006575583  19.8061         30
 6.42   0.0000    169.3397   1368.8977     539.2993      43.5214  68.06     0.910     0.689      2.325  0.006568144  21.2204         31
 7.68   0.0000    180.3316    574.9897     1118.898      43.5214  53.18     1.039     0.643      2.633   0.00657707  20.4280         32
 7.49   0.0000    186.6387   1354.8976     917.1722      43.5214  75.59     1.045     0.753      2.727  0.006567399  20.6439         33
 5.30   0.0000    192.6023   1350.5554     3087.866      43.5214 -19.15     1.368     1.305      2.490   0.00657707  19.3259         34
 4.77   0.0000    210.7202    827.6749     9382.311      43.5214  -5.78     3.810     2.091      2.586  0.006570376  18.1192         35
 4.14   0.0000    206.7225    549.0807     6203.091      43.5214   3.37     1.545     1.484      2.289  0.006571121  18.5685         36
 4.19   0.0000    212.1664   1306.1005     5844.102      43.5214 -64.54     1.516     1.487      2.200   0.00656591  18.6332         37
 5.52   0.0000    230.1494    562.2775     8000.589      43.5214 -37.31     3.231     3.004      3.469  0.006568888  18.2922         38
 5.76   0.0000    210.8939    684.8484     1384.762      43.5214 -66.39     1.218     1.115      2.352  0.006568144  20.1966         39
 3.50   0.0000    259.7588    997.4791     194768.8      43.5214 -48.81     2.331     2.263      2.547  0.006571865  14.8262         40
 3.92   0.0000    223.9121   1226.0618     7104.439      43.5214  25.89     1.523     1.479      2.239  0.006569632  18.4212         41
 4.86   0.0000    222.6267    774.9695     2256.126      43.5214  81.57     1.224     1.191      2.263  0.006574096  19.6666         42
 3.50   0.0000    265.9002     67.6173     167183.3      43.5214 -49.31     2.268     2.237      2.581  0.006570376  14.9920         43
 5.52   0.0000    243.9732    112.8913     3532.536      43.5214 -88.19     1.951     1.539      2.714  0.006571121  19.1798         44
 4.81   0.0000    255.4885    613.0098     8852.306      43.5214 -41.01     2.436     2.028      2.365  0.006573352  18.1824         45
 6.52   0.0000    239.3535    838.8231      1199.76      43.5214  -5.84     1.203     1.102      2.347  0.006574839  20.3523         46
 7.18   0.0000    250.5180    107.4840     984.1017      43.5214 -42.78     1.108     0.852      2.461  0.006568888  20.5674         47
 3.50   0.0000    287.5196   1486.4733     63533.32      43.5214 -43.97     2.033     1.992      2.505  0.006569632  16.0425         48
 3.66   0.0000    281.9236   1522.4003     16600.57      43.5214   3.77     1.701     1.668      2.398  0.006574096  17.4997         49
 6.46   0.0000    270.7727   1273.6278     1149.678      43.5214  16.49     1.000     0.849      2.409  0.006574839  20.3986         50
 3.50   0.0000    303.1506    201.7659     51138.33      43.5214 -78.11     1.968     1.942      2.468  0.006574096  16.2781         51
 6.27   0.0000    293.2967   1475.8354     1764.357      43.5214 -33.66     1.250     1.086      2.181  0.006566655  19.9335         52
 4.64   0.0000    302.2875    563.6751     2779.962      43.5214  31.81     1.325     1.283      2.390  0.006568144  19.4399         53
 3.50   0.0000    322.0853    697.3419     36947.05      43.5214   1.78     1.882     1.848      2.398  0.006570376  16.6311         54
 7.64   0.0000    308.7069     85.2985       932.75      43.5214  45.78     0.969     0.767      2.372  0.006567399  20.6256         55
 6.05   0.0000    321.9905    641.4783     2035.661      43.5214 -64.00     1.799     1.232      2.840  0.006574839  19.7782         56
 5.16   0.0000    327.5369    595.4523     4989.415      43.5214 -52.10     1.728     1.694      2.403  0.006571121  18.8049         57
 6.07   0.0000    329.2517   1546.0168     1212.882      43.5214 -87.78     0.913     0.756      2.386  0.006575583  20.3405         58
 5.83   0.0000    332.2679     93.4347     1401.598      43.5214  20.40     0.992     0.948      2.267  0.006574096  20.1834         59
 4.78   0.0000    350.1319     54.7084     3170.568      43.5214  -8.51     1.366     1.298      2.399  0.006568888  19.2972         60
 3.50   0.0000    368.1670    761.1217     37940.47      43.5214 -26.12     1.940     1.871      2.358  0.006572608  16.6022         61
 4.02   0.0000    361.1491   1500.4037     6605.967      43.5214 -15.08     1.586     1.464      2.413  0.006577813  18.5002         62
 3.50   0.0000    395.2009    231.4691     113486.8      43.5214 -63.05     2.184     2.143      2.562  0.006576327  15.4126         63
 5.78   0.0000    360.5269   1034.0070     1502.032      43.5214  -1.40     1.111     0.957      2.358  0.006576327  20.1083         64
 6.91   0.0000    375.4792    754.0627     766.8336      43.5214  56.22     1.715     0.961      2.083  0.006568888  20.8382         65
 7.68   0.0000    370.3091     71.9499     694.1352      43.5214 -10.89     0.743     0.672      2.325  0.006571121  20.9464         66
 6.47   0.0000    373.4826   1083.8826     1153.766      43.5214 -17.84     1.100     0.990      2.374  0.006568888  20.3947         67
 6.41   0.0000    380.6161      1.4882      262.098      43.5214 -89.79     1.601     0.500      3.001  0.005022671  22.0038         68
 3.50   0.0000    397.0519   1461.2017     26256.82      43.5214 -44.85     1.804     1.797      2.307  0.006577813  17.0019         69
 3.50   0.0000    398.1799    354.6261     29457.63      43.5214 -13.53     1.890     1.844      2.440  0.006573352  16.8770         70
 8.09   0.0000    375.6552     87.2937     695.8632      43.5214  47.61     0.564     0.339      2.227  0.006569632  20.9437         71
 6.71   0.0000    380.1594    125.8447     1037.231      43.5214  44.65     0.818     0.680      2.398  0.006574839  20.5103         72
 4.22   0.0000    393.8183   1088.7736      6287.72      43.5214 -35.06     1.516     1.449      2.394  0.006574096  18.5538         73
 8.89   0.0000    382.4900     67.5055     834.4193      43.5214 -44.69     0.503     0.497      2.137  0.006566655  20.7465         74
 8.07   0.0000    388.6902   1195.3347     632.9774      43.5214  43.77     0.567     0.338      2.631  0.006571121  21.0465         75
 6.14   0.0000    412.0432      1.7727     435.3546      43.5214  90.00     2.505     0.701      4.361  0.005127673  21.4529         76
 7.90   0.0000    396.8768    626.5975     1669.079      43.5214 -73.71     1.239     0.985      2.746  0.006574096  19.9938         77
 8.16   0.0000    403.6928    526.4366     898.1588      43.5214  81.17     1.023     0.476      2.522  0.006569632  20.6666         78
 7.54   0.0000    407.0518    282.4902     851.5068      43.5214 -88.59     0.787     0.500      2.194  0.006571121  20.7245         79
 3.50   0.0000    437.9478    252.1072     54712.62      43.5214 -87.21     2.006     1.974      2.488  0.006569632  16.2048         80
 3.50   0.0000    461.0704    807.6703       221318      43.5214 -68.51     2.341     2.304      2.526   0.00656591  14.6875         81
 5.83   0.0000    420.9021    159.0900     2221.969      43.5214  37.62     1.694     1.421      2.384  0.006566655  19.6832         82
 7.67   0.0000    419.5386   1580.4929     718.0947      43.5214  40.47     0.504     0.495      2.570  0.006569632  20.9095         83
 4.17   0.0000    432.9492   1422.0629     4206.291      43.5214   6.85     1.427     1.396      2.195  0.006571121  18.9903         84
 6.72   0.0000    426.5748   1179.2787     1404.004      43.5214  26.35     1.188     0.957      2.685  0.006573352  20.1816         85
 6.42   0.0000    426.8329    433.0970     83276.84      43.5214  -3.27     2.183     0.735      4.432  0.006568144  15.7487         86
 5.15   0.0000    434.2586    151.1154     1939.771      43.5214 -20.05     1.138     1.034      2.129  0.006570376  19.8306         87
 3.88   0.0000    450.3392     21.3603     18355.52      43.5214 -27.47     1.777     1.769      2.409  0.006574096  17.3906         88
 5.07   0.0000    467.7993    850.4810     11310.27      43.5214  22.59     7.403     2.054      4.306  0.006574096  17.9163         89
 9.05   0.0000    430.6650    719.3185     1034.063      43.5214  45.76     0.572     0.336      2.153  0.006568144  20.5136         90
 4.48   0.0000    440.0043    305.8401     2028.002      43.5214  22.45     1.160     1.136      2.308  0.006574096  19.7823         91
 5.42   0.0000    445.2589    122.3780     2244.571      43.5214 -23.52     1.401     1.309      2.410  0.006575583  19.6722         92
 3.80   0.0000    457.8408     34.5939      20803.6      43.5214 -30.83     1.779     1.767      2.503  0.006574839  17.2547         93
 8.05   0.0000    443.6886    655.3237     597.2247      43.5214  44.36     0.563     0.340      2.194  0.006567399  21.1097         94
 4.32   0.0000    463.6414    468.6490     6277.996      43.5214  70.99     1.619     1.558      2.520  0.006575583  18.5554         95
 6.24   0.0000    452.9206   1533.0249     1071.751      43.5214 -31.03     0.792     0.774      2.365  0.006573352  20.4748         96
 5.22   0.0000    460.9918   1096.1410     1911.839      43.5214  47.71     1.191     1.080      2.462  0.006577813  19.8464         97
 4.60   0.0000    471.3581    254.2742     5425.125      43.5214 -79.51     1.510     1.439      2.395  0.006571865  18.7140         98
 4.03   0.0000    472.1380    734.9207     8294.206      43.5214  75.27     1.566     1.511      2.254  0.006568888  18.2531         99
 7.71   0.0000    461.8358    724.7247     1049.389      43.5214 -20.12     0.949     0.683      2.505  0.006571865  20.4977        100
 3.70   0.0000    477.9271    923.0840     10286.29      43.5214 -28.67     1.679     1.612      2.232  0.006568888  18.0194        101
 4.34   0.0000    477.2791   1276.4363     3555.952      43.5214 -44.53     1.334     0.920      3.107  0.006571865  19.1726        102
 5.84   0.0000    488.9431    839.6031     1449.637      43.5214  87.10     2.059     0.959      2.755  0.006577813  20.1469        103
 4.14   0.0000    484.0388   1070.6680     4451.288      43.5214 -80.82     1.429     1.400      2.381  0.006573352  18.9288        104
 7.10   0.0000    475.9789   1168.4807     774.3225      43.5214  89.68     0.781     0.500      2.260  0.006574096  20.8277        105
 5.40   0.0000    496.2654     82.9187     5195.135      43.5214  66.13     2.311     2.046      2.664  0.006568144  18.7610        106
 6.87   0.0000    478.8629    682.8434     858.6686      43.5214 -46.10     0.819     0.679      2.293  0.006571865  20.7154        107
 5.12   0.0000    495.7248   1186.8407      5060.53      43.5214 -15.71     2.996     1.931      2.970  0.006571865  18.7895        108
 5.26   0.0000    504.0796    762.8668     3367.115      43.5214 -10.71     1.688     1.646      2.487  0.006568144  19.2319        109
 4.77   0.0000    502.0138    863.8067     2341.344      43.5214  64.62     1.201     1.192      2.349  0.006569632  19.6263        110
 4.57   0.0000    515.3623   1461.0657     7320.625      43.5214  23.93     4.115     1.649      2.684  0.006574096  18.3886        111
 6.08   0.0000    498.0054    366.2516     1000.186      43.5214   0.37     0.926     0.749      2.558  0.006577813  20.5498        112
 6.08   0.0000    509.9191    164.8152     2268.823      43.5214  -5.95     1.820     1.073      3.006  0.006574839  19.6605        113
 4.83   0.0000    513.8598   1179.1876     2578.109      43.5214  24.06     1.285     1.178      2.339  0.006574839  19.5217        114
 5.52   0.0000    519.1540    641.9484     1731.139      43.5214  22.36     1.200     1.120      2.365  0.006576327  19.9542        115
 6.45   0.0000    518.1915   1519.1722     885.0298      43.5214  45.74     0.761     0.567      2.383  0.006574096  20.6826        116
 4.09   0.0000    540.2067    999.9378     6384.119      43.5214  61.15     1.534     1.490      2.251   0.00657707  18.5372        117
 6.53   0.0000    536.3547    404.5305     1077.236      43.5214  38.93     1.195     0.786      2.322  0.006571121  20.4692        118
 3.90   0.0000    558.9035   1041.7982     8535.063      43.5214   6.20     1.633     1.563      2.389  0.006572608  18.2220        119
 4.74   0.0000    571.3472     45.9143     4777.898      43.5214  46.17     2.084     1.522      2.296  0.006569632  18.8519        120
 5.98   0.0000    555.8228    778.8107      707.001      43.5214  44.57     0.756     0.567      2.388  0.006572608  20.9264        121
 3.50   0.0000    580.7163    144.9663     37243.34      43.5214  83.47     1.885     1.868      2.421  0.006573352  16.6224        122
 4.85   0.0000    571.3085   1447.7944     4030.555      43.5214  19.43     2.258     1.637      2.154  0.006570376  19.0366        123
 5.88   0.0000    565.0881    139.5546     1356.119      43.5214 -69.74     1.052     0.977      2.336  0.006570376  20.2193        124
 3.50   0.0000    582.1971    319.2584     35801.42      43.5214   7.31     1.887     1.830      2.377  0.006577813  16.6652        125
 4.29   0.0000    596.7602    782.6867     13027.61      43.5214 -62.08     3.302     3.182      3.242  0.006572608  17.7628        126
 5.97   0.0000    576.2225   1001.8235     1400.458      43.5214  40.80     1.216     1.076      2.372  0.006574096  20.1843        127
 4.64   0.0000    584.5398     76.0209     2139.657      43.5214  -0.84     1.205     1.138      2.344  0.006575583  19.7241        128
 4.19   0.0000   1001.5298   1555.4829     4347.799      43.5214  54.97     1.346     1.330      2.443  0.006568144  18.9543        129
 4.71   0.0000   1597.6036    654.7847     1497.682      43.5214   1.75     1.659     1.434      3.000  0.005651965  20.1115        130
 5.16   0.0000   1594.7568    374.1190     1755.718      43.5214  42.74     1.307     1.027      2.062  0.006350923  19.9389        131
 4.05   0.0000   1584.9181   1108.9316     7332.427      43.5214 -15.59     1.433     1.357      2.267  0.006569632  18.3869        132
 6.78   0.0000   1585.9497   1069.5099     2224.667      43.5214 -88.96     0.783     0.500      2.523  0.006570376  19.6818        133
 3.60   0.0000   1541.8564    135.1745     14911.87      43.5214  54.68     1.663     1.623      2.245  0.006574839  17.6162        134
 8.74   0.0000   1519.3268     85.3294     1543.571      43.5214 -44.88     0.573     0.336      2.035  0.006567399  20.0787        135
 4.79   0.0000   1514.6519    483.6263     3366.443      43.5214 -43.74     1.049     0.951      2.477  0.006575583  19.2321        136
 4.90   0.0000    912.4185   1001.2366     2087.726      43.5214  73.44     0.989     0.957      2.148  0.006574839  19.7508        137
 3.50   0.0000    900.4997    302.8331     24594.84      43.5214 -64.19     1.794     1.787      2.406  0.006566655  17.0729        138
 4.92   0.0000    896.1861    538.5018     4614.516      43.5214   6.05     1.942     1.608      2.196  0.006571121  18.8897        139
 5.31   0.0000    893.7880   1426.2821     1441.955      43.5214 -16.60     0.974     0.854      2.158  0.006574839  20.1526        140
 3.50   0.0000    880.2065   1592.6320     137187.3      43.5214 -83.52     2.300     2.188      1.922  0.006575583  15.2067        141
 6.04   0.0000    888.8303    325.8213     2579.075      43.5214  17.19     1.767     1.100      2.107  0.006573352  19.5213        142
 8.02   0.0000    888.6788    681.3232      787.564      43.5214  44.90     0.568     0.338      2.153  0.006571121  20.8093        143
 4.51   0.0000    885.7850   1500.2664     3228.444      43.5214  10.00     1.303     1.227      2.265  0.006576327  19.2775        144
 7.04   0.0000    885.0953    339.2578      1527.51      43.5214  -2.69     1.149     0.882      2.316  0.006568144  20.0900        145
 4.70   0.0000    877.6797    961.0908     2132.858      43.5214  27.86     1.126     1.034      2.264  0.006569632  19.7276        146
 6.46   0.0000    876.3213    541.9203     812.2896      43.5214  -7.28     0.737     0.667      2.349  0.006569632  20.7757        147
 4.13   0.0000    869.4717   1103.7170      8042.82      43.5214 -55.22     1.983     1.793      2.347  0.006568144  18.2865        148
 4.96   0.0000    867.9886    939.9118     3140.746      43.5214  41.19     1.806     1.355      2.234  0.006573352  19.3074        149
 6.15   0.0000    869.3575    643.8528      1239.82      43.5214  68.50     0.904     0.687      2.384  0.006574096  20.3166        150
 8.15   0.0000    860.4996   1554.4683     702.1677      43.5214  48.21     0.504     0.495      2.380  0.006570376  20.9339        151
 4.53   0.0000    858.5098   1339.6924     2364.114      43.5214 -89.55     1.308     1.113      2.358  0.006567399  19.6158        152
 9.07   0.0000    855.5103    545.4817     977.5102      43.5214 -46.32     0.502     0.497      2.296  0.006568888  20.5747        153
 4.16   0.0000    844.9837   1063.9657     1930.186      43.5214   1.03     1.169     1.133      2.270  0.006574096  19.8360        154
 4.40   0.0000    843.3248   1106.2646      3647.01      43.5214  40.34     1.667     1.341      2.336  0.006568144  19.1452        155
 4.56   0.0000    836.6466    298.8450     5525.798      43.5214  11.92     1.467     1.396      2.417  0.006575583  18.6940        156
 6.83   0.0000    836.6003   1520.7371     808.8514      43.5214  18.11     0.733     0.456      2.391  0.006577813  20.7803        157
 5.73   0.0000    835.6805    819.1954     1372.212      43.5214 -72.93     0.960     0.861      2.211  0.006574096  20.2064        158
 3.50   0.0000    822.9877    654.4249     24073.16      43.5214  74.96     1.838     1.773      2.401  0.006572608  17.0962        159
 7.91   0.0000    819.4906   1398.4888     697.2211      43.5214  46.70     0.500     0.500      2.540  0.006567399  20.9416        160
 3.50   0.0000    803.0379   1378.7590     22039.13      43.5214 -72.46     1.796     1.752      2.327  0.006575583  17.1920        161
 3.50   0.0000    798.4418    695.7374      60139.5      43.5214 -88.12     2.639     1.966      2.768  0.006572608  16.1021        162
 4.17   0.0000    800.7010     41.1932     10567.91      43.5214 -23.53     1.671     1.577      2.327  0.006571121  17.9900        163
 4.28   0.0000    774.2634   1427.3890     6675.328      43.5214  89.63     2.902     1.909      2.888  0.006577813  18.4888        164
 7.20   0.0000    768.0129    140.0102     1218.912      43.5214  44.98     0.806     0.795      2.474  0.006571121  20.3351        165
 4.24   0.0000    742.8162    556.3451     5582.943      43.5214 -57.68     1.449     1.420      2.396  0.006575583  18.6828        166
 4.32   0.0000    738.1102   1158.1116     1919.763      43.5214  47.36     1.221     1.121      2.231  0.006566655  19.8419        167
 5.08   0.0000    736.0913    649.8519     2201.598      43.5214 -38.54     1.206     1.123      2.246  0.006570376  19.6932        168
 3.50   0.0000    726.6004    848.5243     137014.4      43.5214 -72.04     2.212     2.178      2.535  0.006574839  15.2081        169
 3.87   0.0000    727.4650   1178.3309     3831.326      43.5214 -10.14     1.394     1.328      2.331  0.006569632  19.0916        170
 5.23   0.0000    721.4345   1395.1035     1619.182      43.5214  16.01     1.086     0.953      2.169  0.006568144  20.0268        171
 3.96   0.0000    715.8315    808.4100     4965.585      43.5214  51.69     1.425     1.393      2.396  0.006574096  18.8101        172
 3.99   0.0000    708.9626   1163.8940     4790.769      43.5214  20.90     1.464     1.393      2.300  0.006568144  18.8490        173
 4.42   0.0000    704.4229   1339.0634     4688.043      43.5214 -25.11     1.700     1.462      2.266  0.006575583  18.8725        174
 3.68   0.0000    702.8209    952.5522     8615.931      43.5214  -9.41     1.630     1.577      2.455  0.006574839  18.2117        175
 6.02   0.0000    699.1675    582.7174     2034.196      43.5214   5.06     1.844     0.873      2.323  0.006572608  19.7790        176
 5.87   0.0000    691.6353   1213.6743     2917.982      43.5214  87.83     1.432     1.241      2.897  0.006571865  19.3873        177
 6.00   0.0000    686.6937   1213.8435     1507.304      43.5214 -47.21     1.217     0.958      2.267  0.006567399  20.1045        178
 4.18   0.0000    685.6500    644.3535     7195.558      43.5214 -73.12     1.594     1.581      2.375  0.006575583  18.4073        179
 5.68   0.0000    687.6556    130.9231     1080.884      43.5214  76.35     0.983     0.752      2.403  0.006571121  20.4656        180
 7.44   0.0000    668.9944   1221.5293      988.893      43.5214  -0.05     0.827     0.706      2.418  0.006575583  20.5621        181
 3.50   0.0000    648.2678   1464.4448     133523.6      43.5214 -76.52     2.214     2.143      2.531  0.006571865  15.2361        182
 5.07   0.0000    654.6734    870.9016     2191.584      43.5214  21.01     1.193     1.057      2.349  0.006568144  19.6981        183
 6.84   0.0000    645.7944    653.0030     1406.302      43.5214 -88.71     0.912     0.756      2.292  0.006571121  20.1798        184
 7.26   0.0000    641.1874    276.8223     744.2034      43.5214 -45.77     0.755     0.569      2.441  0.006571865  20.8708        185
 4.14   0.0000    630.8300    806.1274     2311.329      43.5214 -34.12     1.204     1.125      2.393  0.006573352  19.6403        186
 4.30   0.0000    623.4095   1581.5348     3915.906      43.5214  49.39     1.346     1.338      2.388  0.006577813  19.0679        187
 7.18   0.0000    618.1836   1151.1306     1470.375      43.5214 -37.45     0.897     0.874      2.329   0.00657707  20.1314        188
 8.09   0.0000    609.5256    945.4929     885.7026      43.5214  42.34     0.503     0.496      2.403  0.006569632  20.6818        189
 3.50   0.0000   1563.6936    304.2686     135213.1      43.5214 -77.52     2.157     2.117      2.537  0.006569632  15.2225        190
 4.14   0.0000   1566.7208     22.0779     9439.171      43.5214  75.11     1.574     1.553      2.235  0.006570376  18.1127        191
 3.94   0.0000   1542.6152    654.7387     10692.43      43.5214  29.79     1.579     1.560      2.444  0.006573352  17.9773        192
 3.50   0.0000   1558.0082    487.7251     128086.4      43.5214 -78.65     2.166     2.125      2.550  0.006576327  15.2812        193
 4.16   0.0000   1570.5596     92.7663     7898.111      43.5214  -2.72     1.453     1.398      2.409  0.006576327  18.3062        194
 4.48   0.0000   1546.1006    863.5362     4603.091      43.5214  60.15     1.564     1.328      2.357  0.006570376  18.8924        195
 4.36   0.0000   1561.3612    861.4875     5717.964      43.5214  19.18     1.352     1.338      2.341  0.006571865  18.6569        196
 4.38   0.0000   1565.7378    784.6730     5721.991      43.5214 -79.11     1.769     1.443      2.405  0.006570376  18.6561        197
 5.18   0.0000   1550.8444   1221.8484     2788.948      43.5214  42.51     1.082     0.925      2.403  0.006574839  19.4364        198
 3.57   0.0000   1552.6281    682.2971     52311.27      43.5214 -26.44     4.582     3.959      2.827  0.006568888  16.2535        199
 7.80   0.0000   1535.9841   1428.9976     1994.331      43.5214 -45.55     0.927     0.527      2.658  0.006571865  19.8005        200
 7.00   0.0000   1532.4937    415.7445     2666.105      43.5214 -84.33     1.017     0.979      2.448  0.006569632  19.4853        201
 7.59   0.0000   1519.9943   1100.7047     2374.745      43.5214  89.07     0.749     0.679      2.681  0.006571865  19.6110        202
 4.09   0.0000    928.4031   1322.5200     3987.225      43.5214 -44.27     1.357     1.342      2.401  0.006574839  19.0483        203
 3.50   0.0000   1514.9222    392.7349     31137.19      43.5214  66.54     1.807     1.797      2.390  0.006568888  16.8168        204
 6.00   0.0000   1515.4878   1547.1486     2531.629      43.5214  74.03     1.048     0.871      2.238  0.006569632  19.5415        205
 3.50   0.0000   1507.1836    269.3994     88933.59      43.5214 -82.06     2.049     2.030      2.545  0.006571865  15.6773        206
 5.55   0.0000   1498.4597    844.2532     2480.695      43.5214 -25.00     0.883     0.757      2.545  0.006571121  19.5636        207
 4.56   0.0000   1504.1298    723.3583      4296.71      43.5214  14.84     1.297     1.162      2.392  0.006573352  18.9672        208
 3.97   0.0000    939.1798   1067.2053     7020.112      43.5214 -23.40     1.522     1.452      2.190  0.006572608  18.4341        209
 6.96   0.0000   1488.2819     78.0035     2452.482      43.5214  -1.74     0.735     0.681      2.479  0.006573352  19.5760        210
 3.92   0.0000    912.8765    838.6033     3232.705      43.5214  -0.15     1.305     1.218      2.490  0.006574096  19.2761        211
 5.67   0.0000    950.7991    654.3572     3042.492      43.5214  65.98     1.507     1.354      2.400  0.006576327  19.3419        212
 5.84   0.0000    947.8477    445.1833     1564.214      43.5214  47.70     0.889     0.856      2.332  0.006574839  20.0643        213
 5.26   0.0000   1065.7639   1597.2657     371.6087      43.5214 -14.20     0.952     0.861      1.033  0.005753131  21.6248        214
 7.26   0.0000    938.5413    516.3163     2277.992      43.5214  57.72     1.300     0.997      2.383  0.006569632  19.6561        215
 7.66   0.0000   1474.9158    998.3757     3479.436      43.5214 -14.25     1.054     0.754      2.714  0.006573352  19.1962        216
 6.42   0.0000   1482.4310    575.2145     3106.782      43.5214 -30.81     1.204     0.969      2.563  0.006575583  19.3192        217
 5.80   0.0000   1438.6464   1271.3108      2834.99      43.5214 -45.87     0.991     0.878      2.318  0.006569632  19.4186        218
 5.08   0.0000   1072.1349   1219.1719     5707.467      43.5214 -73.97     2.049     1.696      2.242  0.006573352  18.6589        219
 4.97   0.0000   1079.4351    330.1989     2248.208      43.5214   1.47     1.167     0.990      2.116  0.006571865  19.6704        220
 3.95   0.0000   1415.4110   1386.6447     7657.089      43.5214  75.55     1.498     1.406      2.387  0.006574096  18.3398        221
 3.55   0.0000   1107.4796    428.0644     26900.42      43.5214  29.41     1.816     1.783      2.308  0.006568144  16.9756        222
 3.50   0.0000   1081.7991   1148.2404     36337.34      43.5214  77.56     1.859     1.838      2.332  0.006574839  16.6491        223
 5.70   0.0000   1066.6768    569.0727     1598.035      43.5214 -72.74     1.032     0.751      2.431  0.006569632  20.0410        224
 6.53   0.0000   1110.7510    479.0507         4848      43.5214  19.20     1.749     1.562      2.719  0.006576327  18.8361        225
 3.54   0.0000   1435.3314    224.8159     14753.67      43.5214  21.04     1.687     1.611      2.358  0.006576327  17.6277        226
 6.26   0.0000   1090.9882    468.1736     2820.202      43.5214 -62.75     1.759     1.048      2.924  0.006573352  19.4243        227
 7.39   0.0009   1441.0785   1082.6284     8.194775      43.5214  43.16     2.974     0.680      4.830  0.006571865  25.7662        228
 4.76   0.0000   1411.0619    350.0085     3706.395      43.5214  44.81     1.366     1.125      2.347  0.006577813  19.1276        229
 8.08   0.0000   1453.3318    391.6697     1267.276      43.5214  45.06     0.575     0.334      2.560  0.006568144  20.2928        230
 3.54   0.0000   1439.7888    619.2131     11508.42      43.5214 -62.85     1.575     1.554      2.267  0.006571865  17.8975        231
 3.50   0.0000   1393.4050    114.5455     153193.2      43.5214 -80.89     2.215     2.169      2.546  0.006578556  15.0869        232
 6.42   0.0000   1436.1945   1347.1851     1747.727      43.5214  46.04     0.748     0.567      2.620  0.006571121  19.9438        233
 4.63   0.0000   1120.3417    329.8551     7254.792      43.5214  55.81     2.503     1.644      2.373  0.006570376  18.3984        234
 6.70   0.0000   1431.9259    340.6477      2426.78      43.5214  15.34     1.044     0.753      2.817  0.006570376  19.5874        235
 4.82   0.0000   1129.1801    547.4301     2533.152      43.5214  54.92     1.192     1.121      2.358  0.006574096  19.5408        236
 3.50   0.0000   1408.2377    308.3844     10908.83      43.5214  -7.03     1.547     1.510      2.309  0.006575583  17.9556        237
 5.35   0.0000   1400.5464   1031.5027     4568.537      43.5214  31.11     1.429     1.368      2.425  0.006567399  18.9006        238
 3.50   0.0000   1388.6937   1428.5571      29109.1      43.5214  55.76     1.789     1.763      2.411  0.006567399  16.8899        239
 6.79   0.0001   1412.1804      1.3059     39.36183      43.5214 -77.74     1.083     0.409      2.531  0.004956039  24.0623        240
 4.72   0.0000   1406.3345    329.8578     3384.907      43.5214  26.69     1.130     1.025      2.330  0.006570376  19.2261        241
 4.65   0.0000   1330.5002    386.9715     2725.344      43.5214   3.29     1.098     0.952      2.234  0.006568888  19.4614        242
 4.79   0.0000   1259.4657    432.5281      5808.76      43.5214  25.38     1.823     1.760      2.413  0.006568888  18.6398        243
 3.68   0.0000   1278.0730   1331.4478     16454.29      43.5214  82.55     1.714     1.699      2.378  0.006570376  17.5093        244
 3.79   0.0000   1390.4578    713.3802     11576.63      43.5214  43.10     1.588     1.550      2.349  0.006575583  17.8910        245
 5.96   0.0000   1388.9021    806.6555     2829.183      43.5214  13.85     0.984     0.753      2.454  0.006567399  19.4208        246
 4.34   0.0000   1392.2596   1038.8943     8705.229      43.5214   8.71     1.474     1.451      2.288  0.006570376  18.2005        247
 3.53   0.0000   1218.8743   1195.0033     36640.09      43.5214  54.82     1.997     1.952      2.236   0.00657707  16.6401        248
 6.99   0.0000   1291.8092    546.1708     1729.437      43.5214 -44.88     0.757     0.568      2.047  0.006574096  19.9552        249
 3.56   0.0000   1210.6931   1279.0286     29215.26      43.5214  82.87     5.696     3.445      3.970  0.006571121  16.8860        250
 3.82   0.0000   1292.8365    412.6910     4846.234      43.5214 -22.03     1.326     1.267      2.518  0.006570376  18.8365        251
 8.47   0.0000   1262.3208    216.3072     1548.744      43.5214 -45.74     0.560     0.342      2.134  0.006569632  20.0751        252
 8.25   0.0000   1379.3267    319.3086     1577.672      43.5214 -45.93     0.563     0.340      2.108  0.006569632  20.0550        253
 8.27   0.0000   1352.4868    152.2023      2489.54      43.5214 -89.11     1.011     0.738      2.492  0.006571865  19.5597        254
 3.50   0.0000   1372.5312   1019.0457      33855.6      43.5214 -41.64     1.951     1.869      2.338  0.006572608  16.7259        255
 3.50   0.0000   1320.0488    660.0613     83030.39      43.5214  75.91     2.093     2.039      2.467  0.006571121  15.7519        256
 5.87   0.0000   1293.5828    742.1906     4759.655      43.5214 -15.99     1.535     1.440      2.582  0.006571121  18.8561        257
 7.00   0.0000   1346.3284    605.1111     2267.613      43.5214 -68.97     0.936     0.689      2.557  0.006569632  19.6611        258
 3.97   0.0000   1329.8187    655.9049     11750.46      43.5214  67.51     1.921     1.813      2.378  0.006571865  17.8749        259
 4.12   0.0000   1332.9294    107.4837     4396.879      43.5214  -2.81     1.329     1.158      2.384  0.006568144  18.9421        260
 3.50   0.0000   1298.3828    724.9477     296808.4      43.5214 -51.40     2.371     2.297      2.614  0.006575583  14.3688        261
 4.19   0.0000   1304.7047    892.9962     3898.187      43.5214 -75.91     1.297     1.172      2.306  0.006571121  19.0728        262
 4.08   0.0000   1319.2585    264.1429     3928.666      43.5214   6.39     1.181     1.123      2.229  0.006570376  19.0644        263
 4.31   0.0000   1307.5262    669.7034     11091.23      43.5214 -32.49     1.629     1.592      2.446  0.006568888  17.9375        264
 3.65   0.0000   1272.7618    610.0184     33542.92      43.5214 -58.16     4.190     2.580      2.756  0.006575583  16.7360        265
 5.69   0.0000   1299.3568     54.0625     2224.566      43.5214 -68.39     0.901     0.697      2.187  0.006572608  19.6819        266
 3.52   0.0000   1291.4148    762.2641     25721.92      43.5214 -23.95     2.297     1.839      2.135  0.006573352  17.0242        267
 3.56   0.0000   1265.4564    807.9594     12966.39      43.5214  -7.96     1.661     1.612      2.292  0.006571865  17.7680        268
 6.36   0.0000   1273.6595    698.0986     1789.627      43.5214  68.67     0.919     0.693      2.464  0.006568144  19.9181        269
 4.97   0.0000   1228.6499   1153.6350     1991.744      43.5214  43.00     0.997     0.872      2.529  0.006574839  19.8019        270
 5.85   0.0000   1262.1962    855.0399     2565.287      43.5214 -88.04     0.907     0.755      2.409  0.006573352  19.5272        271
 5.76   0.0000   1212.7454   1429.5703     4823.851      43.5214  66.31     2.076     1.803      2.752  0.006575583  18.8415        272
 4.06   0.0000   1237.0374   1553.6448     6850.754      43.5214 -72.17     1.471     1.442      2.358  0.006575583  18.4607        273
 6.33   0.0000   1229.7732    599.1249     3384.539      43.5214 -25.96     1.422     1.267      2.331  0.006572608  19.2262        274
 3.50   0.0000   1234.4055    304.8864     10791.95      43.5214   0.76     1.619     1.566      2.308  0.006572608  17.9672        275
 5.14   0.0000   1237.6368     48.3455     2332.457      43.5214  42.97     1.043     0.951      2.273  0.006574096  19.6305        276
 4.28   0.0000   1207.6377    838.9413      7145.25      43.5214  35.87     1.470     1.451      2.309  0.006574096  18.4150        277
 3.50   0.0000   1214.6141    513.0945     53955.32      43.5214  -0.90     1.943     1.918      2.375  0.006571865  16.2199        278
 4.24   0.0000   1200.8662   1442.2368     4480.905      43.5214 -76.41     1.564     1.485      2.356  0.006573352  18.9216        279
 7.93   0.0000   1204.4742   1217.4802     1008.143      43.5214  43.31     0.502     0.497      2.366  0.006569632  20.5412        280
 5.08   0.0000   1194.9722    124.1294     5741.048      43.5214 -83.39     1.957     1.669      2.488  0.006574096  18.6525        281
 3.91   0.0000   1201.8915    339.0921     6965.494      43.5214  41.67     1.528     1.455      2.282  0.006566655  18.4426        282
 5.34   0.0000   1130.2582    219.7123     2610.027      43.5214  22.28     1.184     1.117      2.314  0.006570376  19.5084        283
 3.50   0.0000   1138.5420    148.1507     85549.59      43.5214  77.75     2.097     2.062      2.505  0.006572608  15.7195        284
 5.95   0.0000   1181.9745    176.1647     2440.598      43.5214   3.89     0.910     0.759      2.330   0.00657484  19.5813        285
 4.90   0.0000   1180.9506    549.4130     2816.345      43.5214  37.05     1.159     1.067      2.467  0.006576327  19.4258        286
 4.68   0.0000   1153.5942   1353.1537     3717.055      43.5214  23.71     1.498     1.327      2.290  0.006576327  19.1245        287
 3.50   0.0000   1165.1395   1299.8351     113655.4      43.5214 -78.19     2.141     2.108      2.510  0.006574096  15.4110        288
 3.50   0.0000   1129.9851    183.6115     57906.42      43.5214  -6.31     1.968     1.954      2.500  0.006572608  16.1432        289
 3.53   0.0000   1157.8691    236.5205     21767.04      43.5214 -59.07     1.775     1.768      2.421  0.006568888  17.2055        290
 5.31   0.0000   1161.7438    887.7606     2534.091      43.5214 -40.77     1.157     1.096      2.418  0.006574096  19.5404        291
 4.11   0.0000   1151.2296     99.5155     5536.831      43.5214   1.70     1.475     1.409      2.351  0.006573352  18.6918        292
 6.72   0.0000   1131.0312    359.2770     2008.456      43.5214  79.06     0.733     0.682      2.303  0.006572608  19.7928        293
 3.50   0.0000   1079.9672    512.2063     85917.62      43.5214  74.02     2.099     2.081      2.546  0.006574096  15.7148        294
 4.04   0.0000   1095.4258   1526.6967     3709.231      43.5214  64.24     1.332     1.261      2.439  0.006571121  19.1268        295
 7.24   0.0000   1086.1484   1452.8627     1330.774      43.5214  46.36     0.838     0.678      2.432  0.006571121  20.2397        296
 7.41   0.0000   1090.0991    782.8873     74515.07      43.5214  45.01     1.234     0.538      3.876  0.006566655  15.8694        297
 5.92   0.0000   1094.6758   1136.2837     1130.002      43.5214  42.84     0.939     0.754      2.316  0.006568888  20.4173        298
 7.13   0.0000    978.4573    452.7135     1756.786      43.5214 -88.97     0.999     0.961      2.308  0.006570376  19.9382        299
 7.77   0.0000   1088.0132    397.0000     1187.726      43.5214  90.00     0.850     0.289      2.215  0.006573352  20.3632        300
 5.99   0.0000   1065.1993   1563.2179     3378.272      43.5214 -50.91     1.822     1.345      2.828  0.006572608  19.2283        301
 3.50   0.0000    984.8825    558.5286     77919.06      43.5214  86.99     2.062     2.035      2.513  0.006568144  15.8209        302
 3.50   0.0000   1009.8115    813.7941     58022.71      43.5214 -23.06     1.976     1.963      2.438  0.006568888  16.1410        303
 5.37   0.0000    965.2351    416.4796     1653.044      43.5214   9.67     0.991     0.951      2.385  0.006571865  20.0043        304
 5.22   0.0000    980.8171    797.9382     3305.597      43.5214 -22.95     1.473     1.417      2.416  0.006572608  19.2519        305
 3.50   0.0000   1040.2435    633.1321     99168.82      43.5214 -86.88     2.148     2.116      2.522  0.006572608  15.5591        306
 3.50   0.0000   1038.7074    525.4634     32445.49      43.5214 -89.92     1.895     1.851      2.409  0.006570376  16.7721        307
 4.72   0.0000   1030.4277    302.7162     5517.562      43.5214  61.98     2.411     1.679      2.548  0.006572608  18.6956        308
 5.83   0.0000    986.6929    454.0457     4249.724      43.5214  71.21     1.721     1.537      2.742  0.006567399  18.9791        309
 8.75   0.0000   1014.5078    453.4610     1370.398      43.5214 -62.89     0.500     0.498      2.247  0.006570376  20.2079        310
 6.43   0.0000    998.0614    233.3179     2131.986      43.5214  83.83     0.736     0.671      2.680  0.006568888  19.7280        311
 3.50   0.0000   1025.7098   1380.0499     63182.83      43.5214  87.42     2.054     1.952      2.414  0.006570376  16.0485        312
 3.80   0.0000   1011.3396    344.7471     9213.168      43.5214 -55.24     1.591     1.561      2.401  0.006571121  18.1390        313
 8.38   0.0000   1011.2415    267.9928     1497.726      43.5214   0.33     0.699     0.428      2.085  0.006574839  20.1114        314
 4.30   0.0000    999.9335   1273.7820     3429.979      43.5214 -27.04     1.275     1.172      2.349  0.006574096  19.2118        315
 4.10   0.0000   1001.6805    542.7173      9759.86      43.5214  12.75     1.658     1.575      2.398  0.006568888  18.0764        316
