#   1 KRON_RADIUS            Kron apertures in units of A or B                         
#   2 MAGERR_APER            RMS error vector for fixed aperture mag.                   [mag]
#   3 Y_IMAGE                Object position along y                                    [pixel]
#   4 X_IMAGE                Object position along x                                    [pixel]
#   5 THETA_IMAGE            Position angle (CCW/x)                                     [deg]
#   6 FLUX_APER              Flux vector within fixed circular aperture(s)              [count]
#   7 A_IMAGE                Profile RMS along major axis                               [pixel]
#   8 THRESHOLD              Detection threshold above background                       [count]
#   9 B_IMAGE                Profile RMS along minor axis                               [pixel]
#  10 FLUX_RADIUS            Fraction-of-light radii                                    [pixel]
#  11 FLUXERR_APER           RMS error vector for aperture flux(es)                     [count]
#  12 MAG_APER               Fixed aperture magnitude vector                            [mag]
#  13 NUMBER                 Running object number                                     
 3.77   0.0010     52.3656     61.8381  -4.11      32286.2     5.767           25     5.156     10.494     28.97865  16.7775          1
 3.50   0.0060     15.7502    983.4642 -87.95      5200.36     4.430           25     1.919      7.040     28.96881  18.7599          2
 3.50   0.0065     17.0166     89.5020 -27.30      4805.62     1.584           25     1.535      3.180     28.96553  18.8456          3
 3.50   0.0026     13.8130   1444.2402 -50.19     11944.38     1.667           25     1.653      3.259     28.97865  17.8571          4
 4.41   0.0555     16.2316    382.9453 -68.30       566.62     1.179           25     1.108      3.620     28.98192  21.1668          5
 6.18   0.1078     12.9454    839.5240 -53.69       291.66     1.159           25     0.755      4.581     28.96225  21.8878          6
 6.27   0.1975      5.8499   1467.8611 -42.10       152.04     0.830           25     0.681      3.553     27.65692  22.5951          7
 4.92   0.0646      3.4645    143.1826 -89.94       420.18     1.495           25     1.267      4.510     25.00903  21.4914          8
 6.83   0.1599      3.8580    183.6363 -19.12       173.34     0.927           25     0.685      4.376     25.52039  22.4528          9
 3.50   0.1626      9.2221   1182.3053  14.57       193.46     0.946           25     0.830      2.244     28.96881  22.3335         10
 7.11   0.3364      1.5458    302.4866  39.07        71.76     0.504           25     0.494      2.727     22.22561  23.4103         11
 3.50   0.0007     58.9477   1076.9407  75.51     47404.66     2.045           25     1.922      3.573     28.96553  16.3604         12
 3.88   0.0308     23.8041    365.4746  73.25      1022.98     1.319           25     1.260      3.185     28.99175  20.5253         13
 5.46   0.1822     17.0724   1213.4948  89.94       172.62     0.771           25     0.500      2.832     28.95897  22.4573         14
 7.67   0.4603     14.5140   1561.4911 -11.76         68.3     0.500           25     0.500      3.000     28.94584  23.4639         15
 4.90   0.0778     23.0687    381.3569  68.74       404.62     1.192           25     1.060      3.871     28.97209  21.5324         16
 3.84   0.0558     32.9996   1108.4679  65.17        564.1     1.995           25     1.108      4.050     28.98848  21.1716         17
 5.84   0.1240     22.8925    696.8405 -45.60        253.5     0.813           25     0.665      3.681     28.94584  22.0401         18
 4.81   0.0740     32.3472    325.0265 -20.34       425.66     1.271           25     1.126      3.951      28.9852  21.4773         19
 3.50   0.1141     37.1702   1519.9764 -87.99        275.7     1.004           25     0.908      2.853     28.97537  21.9489         20
 3.50   0.0986     37.9992   1169.0452  15.42        319.3     1.136           25     1.112      2.880     28.99175  21.7895         21
 6.78   0.1760     33.7591     14.6046  71.89       178.88     0.734           25     0.455      2.798     28.98192  22.4186         22
 5.40   0.0906     43.4825    438.4967 -73.85       346.78     1.314           25     1.121      4.215     28.94584  21.6999         23
 3.50   0.0007     79.0643    535.8630 -57.44     46274.52     1.925           25     1.904      3.491     28.96553  16.3866         24
 4.38   0.0922     41.5828    913.7358 -33.51        341.4     1.061           25     0.919      2.888     28.98192  21.7168         25
 5.75   0.2600     38.6411   1224.6516 -43.67       121.02     0.867           25     0.523      3.203     28.97537  22.8429         26
 5.56   0.1285     49.4918   1433.8137 -65.21       244.92     0.954           25     0.923      3.379     28.97209  22.0774         27
 5.18   0.1215     49.4587    263.5749 -66.18       259.18     1.195           25     0.955      3.905      28.9852  22.0160         28
 7.80   0.4109     42.3415    226.6744  45.68        76.54     0.577           25     0.333      2.168     28.96225  23.3403         29
 7.05   0.9349     41.6549    999.6901 -46.62        33.64     0.572           25     0.336      2.502     28.95897  24.2329         30
 8.16   0.1963     46.6941    664.6706 -43.78       160.18     0.563           25     0.340      2.917     28.95897  22.5385         31
 6.12   0.1848     64.8561   1146.4165  14.61       170.28     1.051           25     0.890      4.158     28.98192  22.4721         32
 3.50   0.0154     74.1151    126.4486 -21.43      2039.34     1.427           25     1.348      3.144     28.96553  19.7763         33
 6.35   1.7940     65.5015   1514.5056 -45.72        17.52     0.501           25     0.499      2.559     28.94256  24.9412         34
 8.49   0.4276     66.5318   1414.4746 -44.06        73.52     0.505           25     0.494      3.028     28.94913  23.3840         35
 6.53   0.3676     70.9779   1320.5319 -89.11        85.62     0.789           25     0.499      2.914      28.9852  23.2186         36
 4.15   0.0616     81.3945    419.8273  85.88       510.64     1.391           25     1.173      3.761     28.97537  21.2797         37
 3.50   0.0005    120.9218    787.4944 -42.80      66572.6     1.968           25     1.946      3.528     28.95241  15.9918         38
 4.45   0.0329     89.6612    375.3125  -8.91          955     2.201           25     1.789      5.856     28.95897  20.6000         39
 6.18   0.2582     78.6917   1031.9766  -2.38       121.84     0.736           25     0.670      3.338     28.96553  22.8355         40
 3.56   0.0106     95.6111     54.3885  -6.13      2969.18     1.499           25     1.459      3.221     28.96225  19.3684         41
 7.29   0.1417     82.9674    930.9600  44.16       222.14     0.895           25     0.533      4.542      28.9852  22.1834         42
 5.73   0.1104     87.5743    757.3250  46.61       284.92     1.080           25     0.936      4.493     28.97209  21.9132         43
 6.11   0.1781     87.1081   1358.1217 -47.31       176.54     0.830           25     0.673      3.468     28.95569  22.4329         44
 6.78   0.1793     90.7097   1043.9907  53.54       175.46     1.023           25     0.635      4.006     28.96553  22.4396         45
 4.26   0.0968     90.5881    494.1471 -16.01        325.2     1.006           25     0.941      2.859     28.98848  21.7696         46
 9.28   0.1417     86.4881    862.0151 -32.06       222.12     0.798           25     0.313      3.410     28.97537  22.1835         47
 7.82   0.1781     87.6720    810.6771 -45.24       176.56     0.570           25     0.337      2.712     28.95897  22.4328         48
 4.33   0.0499     97.0989    451.1919 -14.65       630.14     1.886           25     1.112      4.219     28.96225  21.0514         49
 7.09   0.2717     94.3153    387.6701  44.29       115.74     0.568           25     0.338      2.295     28.95241  22.8913         50
 8.24   0.2037    101.5233    517.4830  44.00       154.38     0.503           25     0.496      3.019     28.96225  22.5785         51
 4.85   0.1810    107.1691    861.1779 -44.69       173.82     0.793           25     0.684      2.699     28.97537  22.4497         52
 6.49   0.1497    114.3650    414.1011  78.71       209.96     0.993           25     0.745      3.591     28.94584  22.2447         53
 7.57   0.8976    109.7253   1513.3552  40.66        35.04     0.559           25     0.340      2.604     28.96225  24.1886         54
 3.86   0.1584    116.2039    989.3252  17.90       198.72     0.959           25     0.862      2.805     28.99175  22.3044         55
 3.92   0.1881    116.6458    152.3968 -48.96       167.36     0.987           25     0.861      2.695     28.99175  22.4909         56
 4.90   0.0986    116.3229     65.0629   2.91       318.92     1.238           25     0.962      3.838     28.95897  21.7908         57
 5.23   0.1315    125.3040    492.6458   3.72       239.08     1.313           25     0.899      3.693     28.94584  22.1036         58
 3.50   0.0008    161.4527   1466.8275 -62.60     39200.26     1.887           25     1.855      3.482      28.9852  16.5668         59
 4.88   0.0980    130.2532    416.4069  19.77       321.34     0.953           25     0.914      3.106     28.99831  21.7826         60
 5.93   0.1773    128.2914    884.0579   6.49       177.36     0.731           25     0.675      3.232     28.95569  22.4279         61
 5.03   0.2981    127.2593   1476.9744   1.55       105.58     0.661           25     0.438      2.010      28.9852  22.9910         62
 7.12   0.0958    142.3000    885.0659  72.53        328.2     1.010           25     0.747      5.078     28.96553  21.7597         63
 3.50   0.0031    169.2886    875.6515 -60.73      10074.3     1.717           25     1.674      3.331     28.95897  18.0420         64
 3.50   0.1750    150.5815   1278.7736  82.35       179.82     0.961           25     0.925      2.639     28.97865  22.4129         65
 4.49   0.2213    154.5294     80.6534 -67.71       142.12     0.937           25     0.808      2.810     28.96225  22.6684         66
 4.01   0.0339    164.1869   1444.2914  47.23       927.04     1.315           25     1.220      3.331     28.97209  20.6323         67
 5.87   0.4582    155.0629   1578.6616 -89.90        68.66     0.730           25     0.649      2.080     28.96881  23.4582         68
 3.50   0.0477    165.7468    102.6053 -27.35       660.62     1.257           25     1.163      2.815     28.99831  21.0001         69
 5.28   0.1518    165.0033    574.9867  75.43        207.2     1.228           25     0.718      3.484     28.96553  22.2590         70
 4.67   0.0953    168.4867   1367.4685  20.67       330.02     1.009           25     0.988      3.009     28.94913  21.7536         71
 5.84   0.1146    167.9813    649.5107   1.35       274.48     1.038           25     0.782      3.852     28.97209  21.9537         72
 4.73   0.0681    179.2377    573.5081  32.97        461.6     1.568           25     1.257      4.595     28.95569  21.3893         73
 5.49   0.0570    185.8672   1353.5756 -50.21       552.58     1.474           25     1.273      5.146     28.97865  21.1940         74
 3.93   0.0270    191.7892   1349.0759 -17.92      1165.44     1.315           25     1.260      3.435     28.99175  20.3838         75
 3.73   0.0081    209.8528    826.1118  -7.48      3881.92     4.622           25     2.153      8.002     28.95241  19.0774         76
 4.16   0.0100    229.0615    560.6190 -23.24      3148.58     3.757           25     3.430      8.763     28.97865  19.3047         77
 3.50   0.0150    205.7428    547.4331 -50.08      2092.22     1.413           25     1.388      2.995     28.98192  19.7485         78
 6.65   0.1825    195.0215    447.7135 -85.09        172.4     0.732           25     0.676      2.953     28.97209  22.4587         79
 3.50   0.0147    211.4102   1304.6077 -40.53       2141.7     1.411           25     1.380      3.077     28.96225  19.7231         80
 4.33   0.0544    209.9548    683.0822 -80.09       578.16     1.518           25     1.217      3.771     28.96225  21.1449         81
 6.95   0.1945    204.8301    182.1670 -44.93        161.8     0.758           25     0.571      3.130      28.9852  22.5276         82
 3.78   0.1608    208.1468   1224.1273 -14.49       195.56     0.861           25     0.844      2.526     28.96225  22.3218         83
 3.50   0.0003    258.9254    995.8104 -43.31       110160     2.092           25     2.025      3.539     28.99175  15.4449         84
 7.67   0.1141    204.5729    935.2369 -19.75       275.72     0.733           25     0.455      3.605     28.97537  21.9488         85
 3.50   0.0128    223.2786   1224.6028  20.19      2465.68     1.411           25     1.403      3.107     28.98192  19.5702         86
 6.28   0.0950    216.9193    739.7366 -46.49       331.02     1.323           25     1.013      5.122     28.95569  21.7504         87
 3.50   0.0374    221.6176    773.3508 -32.33        840.7     1.262           25     1.233      2.996     28.97865  20.7384         88
 7.43   0.1410    216.1229    881.6307 -66.69       223.08     1.120           25     0.572      5.124     28.97209  22.1788         89
 3.50   0.0004    264.9534     65.7731 -32.20     83840.66     2.028           25     1.996      3.501     28.98848  15.7414         90
 4.32   0.0215    243.0270    111.0771 -85.87      1462.98     2.181           25     1.625      5.349     28.97209  20.1369         91
 6.77   0.0865    229.2600    546.3682 -62.66        363.9     1.147           25     0.927      5.459     28.97865  21.6475         92
 4.17   0.0082    254.5277    611.2526 -44.96      3831.72     2.599           25     2.118      5.884     28.96225  19.0915         93
 4.56   0.0510    238.4033    837.2197  -0.07       617.36     1.538           25     1.343      4.333     28.97209  21.0737         94
 7.00   2.0470    232.2851   1551.6707  42.41        15.36     0.554           25     0.344      1.680     28.95241  25.0840         95
 6.05   0.2784    238.8988   1477.2656 -62.39       113.02     1.007           25     0.650      3.335     28.96881  22.9171         96
 5.07   0.0513    249.5192    105.7907 -39.60       613.32     1.353           25     1.158      4.483     28.97209  21.0808         97
 6.74   0.2152    247.9741   1412.9532  34.10       146.32     0.809           25     0.777      3.913     28.98848  22.6367         98
 6.52   0.2104    250.1559   1549.1664 -46.24       149.62     0.825           25     0.674      3.951     28.98848  22.6125         99
 8.32   0.2433    248.6070    149.8001  18.07       129.28     0.742           25     0.453      3.548     28.96225  22.7712        100
 3.50   0.0014    286.7198   1484.9985 -34.86     21914.94     1.803           25     1.773      3.420     28.98192  17.1981        101
 3.50   0.0059    281.0606   1520.9103  78.86      5341.14     1.578           25     1.503      3.240     28.96225  18.7309        102
 7.88   0.1475    264.4987    722.9905 -89.56       213.18     0.852           25     0.694      5.114     28.96225  22.2281        103
 6.08   0.1246    264.5280    122.1684 -89.38       252.46     0.938           25     0.736      3.900     28.97537  22.0445        104
 4.61   0.0583    269.9497   1272.2324   9.29       539.58     1.380           25     1.179      4.474     28.98192  21.2199        105
 7.75   0.4554    270.3510   1248.7195  48.76        69.06     0.560           25     0.340      2.320     28.96225  23.4519        106
 3.50   0.0019    302.1461    199.9575  -1.01     16732.84     1.754           25     1.748      3.338     28.97537  17.4911        107
 8.12   0.3077    278.4984    555.4962 -45.05       102.18     0.503           25     0.497      3.020     28.95241  23.0266        108
 4.55   0.0311    292.5302   1474.2421 -21.60      1012.74     1.506           25     1.241      4.282     28.97537  20.5363        109
 5.27   0.1377    291.4895    246.7583 -31.60       228.38     1.130           25     0.933      3.745     28.96553  22.1534        110
 3.50   0.0356    301.2911    561.8903  -3.92       882.54     1.383           25     1.345      3.168     28.94584  20.6857        111
 5.62   0.0613    307.7112     83.4766  74.73       513.14     1.692           25     1.285      5.676     28.94913  21.2744        112
 3.50   0.0028    321.1615    695.6137 -47.99     11303.12     1.682           25     1.667      3.262      28.9852  17.9170        113
 3.98   0.0367    320.8418    639.7523 -62.45        856.8     2.244           25     1.508      5.179      28.9852  20.7178        114
 4.25   0.0154    326.5584    593.7395  -1.29      2048.42     1.915           25     1.868      4.832     28.97537  19.7715        115
 7.56   0.1159    310.0077    315.3219  87.28       271.52     0.749           25     0.679      4.495     28.98192  21.9655        116
 5.25   0.1563    315.9547    225.1773  -9.26        201.4     1.107           25     0.728      3.316     28.98192  22.2899        117
 3.71   0.0632    331.2021     91.6054 -20.61       497.84     1.213           25     1.064      2.790     28.96881  21.3073        118
 4.22   0.0815    328.4932   1544.6573   0.89       385.94     1.102           25     0.968      3.057     28.95569  21.5837        119
 3.62   0.0274    349.0294     52.9462 -35.30      1147.22     1.319           25     1.295      3.138      28.9852  20.4009        120
 3.50   0.0027    367.2354    759.4962 -26.09      11771.4     1.732           25     1.685      3.320     28.94913  17.8729        121
 5.45   0.1162    347.3217     40.6653 -50.68       270.66     0.987           25     0.848      3.457     28.95241  21.9689        122
 3.50   0.0146    360.3835   1498.9019 -13.41      2161.02     1.548           25     1.385      3.216     28.96553  19.7134        123
 3.50   0.0006    394.2159    229.6349 -70.43     50462.38     1.952           25     1.907      3.481      28.9852  16.2926        124
 3.50   0.0582    359.7347   1032.5051  38.29        540.2     1.217           25     1.170      2.713     28.96553  21.2186        125
 4.74   0.0432    374.2932    752.1290  51.98       728.62     2.168           25     1.272      5.597     28.95897  20.8937        126
 4.80   0.0931    369.4625     69.8472 -56.93       337.96     1.299           25     1.090      3.779     28.96553  21.7278        127
 3.74   0.0689    372.4083   1082.3356 -32.85       456.78     1.433           25     1.350      3.775     28.99503  21.4007        128
 6.16   0.1370    368.3817    208.3981 -49.89       229.66     1.080           25     0.933      4.172     28.96881  22.1473        129
 3.99   0.1730    374.3221     85.4926 -20.10       181.82     0.963           25     0.937      2.968     28.95569  22.4009        130
 3.50   0.0038    396.2272   1459.7446 -45.85      8198.18     1.624           25     1.598      3.217      28.9852  18.2657        131
 4.45   0.0927    379.1256    123.9208  61.23       339.36     1.113           25     1.110      3.398     28.96225  21.7233        132
 3.50   0.0033    397.1835    352.8708 -58.84      9467.24     1.677           25     1.629      3.235     28.99175  18.1094        133
 5.17   0.1073    381.4269     65.5967  24.25       293.16     1.219           25     0.932      3.585     28.97209  21.8822        134
 3.50   0.0159    392.8812   1087.1532  12.39      1977.78     1.405           25     1.374      2.938     28.96225  19.8096        135
 5.14   0.0442    395.6750    625.1777 -87.51       711.88     1.901           25     1.613      5.986     28.98192  20.9190        136
 7.24   0.1066    381.7726      9.7077   6.31       295.08     0.910           25     0.766      5.250     28.96553  21.8752        137
 4.10   0.1699    388.2085   1193.8507 -68.22       185.34     0.938           25     0.836      2.696     28.99175  22.3801        138
 5.53   0.1881    388.9485    259.0594 -52.23       167.24     0.785           25     0.765      3.402     28.96553  22.4916        139
 6.06   0.0654    402.5840    524.8780  69.21       481.54     1.851           25     1.097      5.382     28.98192  21.3434        140
 5.84   0.2191    390.9066     93.6741 -22.09       143.54     0.924           25     0.686      3.830     28.95569  22.6576        141
 6.27  99.0000    389.5344   1166.5160 -36.27       -46.62     0.501           25     0.498      1.340     28.95241  99.0000        142
 7.01   0.3789    391.6848    682.3162  44.95        82.98     0.562           25     0.341      2.324     28.94913  23.2526        143
 4.24   0.1283    406.2444    280.4964 -16.87       245.08     0.962           25     0.920      2.746     28.94913  22.0767        144
 3.50   0.0002    460.3213    806.0107 -46.26       131875     2.106           25     2.042      3.528     28.98192  15.2496        145
 4.58   0.1145    412.6144   1560.6858 -64.13       274.92     1.537           25     0.822      3.621     28.97537  21.9520        146
 3.50   0.0017    436.9956    250.2900  56.83     18150.64     1.797           25     1.784      3.390     28.96225  17.4028        147
 4.69   0.0325    419.8044    157.4340  37.44       967.72     1.859           25     1.574      4.656     28.97865  20.5856        148
 6.25   0.0464    420.4099    132.9167 -23.24       678.46     2.382           25     1.586      8.369     28.97209  20.9712        149
 6.17   0.1003    414.2697    557.6743  73.25        313.4     1.262           25     1.094      5.034     28.94913  21.8098        150
 5.30   0.1324    417.7565   1202.9871 -88.95       237.74     1.063           25     0.957      3.934     28.97865  22.1097        151
 4.88   0.1530    418.9438   1579.2106 -55.51       205.72     0.956           25     0.867      3.030     28.98848  22.2668        152
 4.22   0.0584    425.7952   1177.7819  35.72       538.86     1.653           25     1.304      4.528     28.96881  21.2213        153
 3.58   0.1425    418.4176    773.0535 -17.29       220.94     1.167           25     0.954      2.734      28.9852  22.1893        154
 6.96   0.0607    429.8715    717.5161  66.89       517.78     1.757           25     1.402      7.490     28.95241  21.2646        155
 4.72   0.3394    419.8337   1090.8477  44.64        92.74     0.737           25     0.567      2.001     28.98192  23.1318        156
 3.81   0.1860    423.4600   1062.4460  -6.26       169.12     0.905           25     0.876      2.664     28.97209  22.4795        157
 3.50   0.0204    432.1028   1420.5724  -8.19      1540.46     1.389           25     1.301      3.029     28.95897  20.0809        158
 4.30   0.1631    425.3427    298.3037  50.64       192.74     0.955           25     0.848      2.614     28.94913  22.3376        159
 4.28   0.0072    467.0042    848.9381  22.51      4365.12     8.370           25     2.166     14.062     28.99503  18.9500        160
 3.50   0.0051    449.3257     19.5274  89.05       6136.1     1.664           25     1.583      3.234     28.94913  18.5803        161
 7.08   0.0019    426.6717    431.8233  -4.01     16419.66     1.845           25     0.645      4.645      28.9852  17.5116        162
 3.86   0.0589    433.0565    149.3928   0.63       534.22     1.251           25     1.126      2.935     28.99831  21.2307        163
 6.16   1.3336    425.5312   1007.4691 -44.93        23.58     0.503           25     0.495      2.105     28.95569  24.6186        164
 5.45   0.1744    432.6343    404.8666 -67.50       180.48     0.884           25     0.681      2.804     28.98192  22.4089        165
 3.50   0.0494    439.0594    303.9707 -84.52       637.14     1.189           25     1.152      2.712      28.9852  21.0394        166
 4.90   0.3039    432.9586    351.7667   0.24       103.58     0.878           25     0.745      2.683     28.98848  23.0118        167
 4.52   0.0322    444.1693    120.4328 -23.43       977.88     1.640           25     1.460      4.341      28.9852  20.5743        168
 3.50   0.0045    456.8178     32.7492 -13.24      6975.86     1.621           25     1.612      3.234     28.98192  18.4410        169
 4.74   0.1157    442.8110    653.4979   4.23       271.84     0.955           25     0.916      2.933     28.95897  21.9642        170
 5.49   0.1306    442.7400    172.5344 -14.40       240.92     0.969           25     0.938      3.804     28.96553  22.0953        171
 5.34   0.4200    441.2756    957.9990  -3.07     74.93999     0.736           25     0.668      2.829      28.9852  23.3632        172
 5.84   0.1847    444.6807   1503.8907 -66.53       170.28     0.881           25     0.692      3.234     28.95897  22.4721        173
 3.50   0.0860    452.0424   1531.8308  50.93       365.94     1.087           25     1.045      2.689     28.98848  21.6415        174
 3.53   0.0143    462.7248    466.8766  54.53       2201.8     1.528           25     1.420      3.166     28.95897  19.6931        175
 4.58   0.2052    453.5055   1222.7900 -80.84       153.26     1.005           25     0.942      3.133     28.96553  22.5864        176
 3.50   0.0488    460.1031   1094.6326  27.13        643.8     1.360           25     1.147      2.943     28.95241  21.0281        177
 7.32   1.4456    450.7377   1129.9933  -0.37        21.78     0.680           25     0.440      2.730     28.99175  24.7049        178
 3.68   0.0169    470.5123    252.6244  50.51      1859.64     1.664           25     1.413      3.347     28.97209  19.8764        179
 3.50   0.0113    471.1100    733.2299 -28.65      2789.04     1.470           25     1.438      3.134     28.96553  19.4364        180
 4.94   0.0727    460.6171    723.3906  -3.05       432.62     1.697           25     1.108      4.122     28.96553  21.4597        181
 4.79   0.1143    466.0485   1196.8596  64.88       275.26     1.193           25     0.977      3.665     28.96881  21.9506        182
 3.50   0.0089    477.0088    921.4022 -48.00      3541.58     1.493           25     1.454      3.076     28.96553  19.1770        183
 5.79   0.1485    472.4925   1131.0585  85.53        211.8     1.659           25     0.712      4.616     28.95241  22.2352        184
 3.94   0.0464    488.1000    838.0156 -88.39       678.52     2.892           25     1.117      4.926     28.96553  20.9711        185
 5.73   0.2401    464.9706    559.9498  58.03        131.1     0.790           25     0.774      3.112      28.9852  22.7560        186
 7.57   0.1807    464.8344    127.1186  41.21        174.1     0.830           25     0.672      4.543     28.97209  22.4480        187
 3.50   0.0246    477.0140   1275.3693 -57.85      1279.64     1.328           25     1.228      2.963      28.9852  20.2823        188
 4.42   0.0142    495.3752     81.0658 -83.31      2223.72     2.692           25     2.476      6.450     28.97865  19.6823        189
 4.01   0.1835    475.1675   1166.7126 -61.43       171.52     1.021           25     0.867      2.621     28.97537  22.4642        190
 4.11   0.0151    495.0201   1185.2123 -22.44      2083.74     3.378           25     2.256      7.007     28.96881  19.7529        191
 7.96   0.0874    487.6410    422.9437 -43.87       359.92     1.438           25     0.744      6.921     28.96881  21.6595        192
 6.24   0.1971    471.9751    780.0502  45.27       159.72     0.795           25     0.769      3.229     28.99175  22.5416        193
 3.50   0.0207    483.0327   1069.1105 -26.42      1519.88     1.334           25     1.295      3.040     28.96553  20.0955        194
 3.85   0.0846    477.9255    681.0380 -57.38       372.04     1.126           25     1.091      3.000     28.97209  21.6235        195
 7.17   0.1527    480.0004   1517.9857 -44.97       206.06     0.820           25     0.777      3.789     28.96881  22.2650        196
 6.51   0.2840    485.2421    827.3867  72.23       110.82     0.737           25     0.454      2.736     28.97865  22.9385        197
 4.28   0.0246    503.2693    761.2949  -2.52      1280.78     2.092           25     1.899      5.292     28.96225  20.2813        198
 3.55   0.0113    514.5264   1459.5746  24.92       2780.8     4.620           25     1.709      7.278     28.97864  19.4396        199
 3.50   0.0361    501.1653    862.1982 -68.30       871.74     1.260           25     1.239      2.969     28.97209  20.6990        200
 3.93   0.0946    497.1030    364.7048  39.03       332.34     1.115           25     1.009      2.836     28.94584  21.7460        201
 5.27   0.1901    492.0516    573.0049 -38.24       165.64     0.786           25     0.768      3.247     28.99503  22.5021        202
 5.66   0.1899    494.6029   1419.7804  15.87       165.66     0.927           25     0.635      3.420     28.97209  22.5020        203
 8.41   0.0211    524.8232    527.8972  51.21      1489.42     2.400           25     0.992      9.311     28.96225  20.1175        204
 5.22   0.3977    501.8875    441.1881  46.80        79.14     0.810           25     0.677      2.408     28.97865  23.3040        205
 5.47   0.1522    509.2064    451.7516  41.34       206.84     1.114           25     1.009      3.788     28.98848  22.2609        206
 4.78   0.0409    509.0068    162.6792  -5.94       769.66     2.318           25     1.137      4.407     28.97537  20.8343        207
 3.50   0.3223    504.1267   1567.7828  50.06         97.7     0.794           25     0.675      2.144     28.99503  23.0753        208
 3.69   0.0363    512.8627   1177.7903 -17.94       866.92     1.269           25     1.218      3.110     28.99503  20.7051        209
 8.24   0.1504    504.5149    324.5055  43.77       208.94     0.502           25     0.498      3.013     28.94256  22.2499        210
 7.12   0.2266    508.4908    306.9737   0.51       138.82     0.785           25     0.500      3.597     28.96553  22.6939        211
 4.19   0.0531    518.2950    640.2903 -36.71       592.22     1.394           25     1.256      3.550     28.94584  21.1188        212
 4.99   0.1157    519.8651    852.2338  66.63       271.92     1.133           25     1.030      3.742     28.97537  21.9639        213
 4.40   0.1429    517.4777   1517.8848   0.04       220.08     1.046           25     0.934      2.636     28.95569  22.1935        214
 8.77   0.0272    517.8887    510.9940   3.40       1157.8     2.971           25     0.544      7.547     28.96881  20.3909        215
 3.50   0.0156    539.3477    998.3590   2.64      2019.22     1.412           25     1.384      3.023     28.97537  19.7870        216
 3.93   0.0715    535.1251    402.7598  21.84       440.24     1.596           25     1.194      3.888     28.97209  21.4408        217
 7.99   0.1854    527.9743    163.0000  90.00       169.66     0.852           25     0.289      3.597     28.96881  22.4761        218
 4.60   0.3388    530.9355   1565.0040   9.01        92.92     0.774           25     0.765      2.813     28.99175  23.1297        219
 4.67   0.1173    543.0765    932.5807 -68.48       268.28     1.732           25     0.811      4.064      28.9852  21.9785        220
 3.50   0.0110    558.0293   1040.1958  -5.64       2855.8     1.549           25     1.459      3.258     28.97537  19.4107        221
 5.39   0.4404    545.0844    849.4919  -0.94         71.4     0.802           25     0.700      2.595     28.95241  23.4158        222
 3.50   0.1361    555.0635    777.2687  27.21       231.12     1.028           25     0.953      2.630     28.96225  22.1404        223
 3.65   0.0065    595.7348    781.1718 -63.27      4819.04     3.830           25     3.549      8.029     28.97537  18.8426        224
 3.50   0.0190    570.7157   1446.9326  22.27      1655.12     2.993           25     1.845      5.631     28.95897  20.0029        225
 3.98   0.0176    570.2687     44.1231  49.99      1781.28     2.224           25     1.535      4.418     28.94913  19.9232        226
 3.50   0.0028    581.1951    317.4497  29.54     11279.32     1.747           25     1.702      3.325     28.99503  17.9193        227
 6.12   0.8885    553.9739    804.0167  88.84        35.42     0.623           25     0.605      3.165     28.97865  24.1769        228
 8.01   0.3086    552.5358    964.5056 -38.96       101.94     0.502           25     0.496      2.524     28.96553  23.0291        229
 4.58   0.0741    563.7872    137.7444  32.23       424.72     1.188           25     1.150      3.081      28.9852  21.4797        230
 6.53   0.1885    558.3522   1067.7384  70.11        166.9     1.009           25     0.586      3.299     28.96553  22.4939        231
 3.50   0.0028    579.6493    143.1600 -43.45     11315.28     1.687           25     1.667      3.271     28.97865  17.9158        232
 3.96   0.2405    562.0146    904.2037   4.79        130.8     0.877           25     0.747      2.315     28.96553  22.7585        233
 4.83   0.2979    562.0154    838.9894 -52.41       105.62     0.807           25     0.770      2.963     28.96881  22.9906        234
 6.45   0.4261    563.1900   1168.8391 -43.80        73.86     0.754           25     0.567      3.045     28.97865  23.3790        235
 3.95   0.0554    575.2686   1000.1991  28.86       567.84     1.520           25     1.458      4.016     28.98848  21.1644        236
 6.02   0.2836    566.0034    630.5092  -1.39        110.9     0.792           25     0.695      2.820     28.96225  22.9377        237
 8.19   0.1652    566.4948   1114.5162  54.52       190.22     0.500           25     0.499      2.718     28.93928  22.3519        238
 5.87   0.2211    569.1263    112.1452 -45.97       142.24     0.838           25     0.672      3.472     28.96225  22.6674        239
 5.26   0.2176    577.7077    843.5986  24.44       144.58     1.475           25     0.762      3.657     28.96553  22.6497        240
 7.03   0.1498    577.4185    738.3541  47.92        210.1     1.015           25     0.884      4.548     28.98192  22.2439        241
 3.50   0.0445    583.4576     74.2711 -27.96       706.12     1.268           25     1.210      2.909     28.96553  20.9278        242
 7.36   0.1880    578.2991    677.7164  44.07       167.18     0.967           25     0.776      3.678     28.93928  22.4920        243
 7.57   0.6417    577.6680    694.7030 -46.88        49.02     0.560           25     0.341      1.941     28.96553  23.8241        244
 4.79   0.1484    584.4865   1171.3466  68.69       211.88     0.959           25     0.955      3.519     28.95569  22.2348        245
 7.02   0.3376    582.9680   1099.4989 -88.09        93.12     0.792           25     0.500      3.076     28.94913  23.1274        246
 6.04   0.7264    581.5252   1485.4666  46.11        43.28     0.505           25     0.493      2.058     28.94913  23.9593        247
 4.82   0.1734    587.6062   1137.7240  42.86       181.54     0.953           25     0.858      2.448     28.98848  22.4026        248
 7.49   0.3757    583.5229    209.5023  37.69        83.68     0.501           25     0.499      2.801     28.95241  23.2434        249
 3.98   0.1152    997.2316    231.6387  84.02       273.22     1.040           25     0.962      2.942      28.9852  21.9587        250
 5.66   0.4532   1598.8354    709.3201  17.50        55.56     0.941           25     0.671      3.192     23.18373  23.6881        251
 4.11   0.0341   1596.7023    653.1345 -14.31       829.14     2.011           25     1.862      4.439      26.0363  20.7534        252
 5.80   0.0889   1599.3304     17.0655   6.89       273.56     1.583           25     0.655      4.254     22.40016  21.9574        253
 3.99   0.0570   1593.4718    372.3271  59.30       549.48     1.523           25     1.258      3.491     28.81757  21.2001        254
 5.86   0.3110    909.0859   1573.9731 -32.13       101.18     0.798           25     0.778      2.817     28.97209  23.0373        255
 5.62   0.1586    907.3624    657.8864 -14.76       198.42     1.056           25     0.961      3.449     28.97209  22.3060        256
 5.93   0.1472    907.9376      3.3812 -16.27        183.7     1.031           25     0.741      3.504     24.89863  22.3897        257
 4.74   0.5038    903.0575    733.5118   2.25        62.42     0.791           25     0.689      2.369     28.95897  23.5617        258
 3.50   0.0041    899.4453    301.1092 -79.29      7665.36     1.630           25     1.603      3.233     28.95569  18.3387        259
 4.24   0.0210    895.2208    536.9806   6.17       1501.3     2.238           25     1.768      4.923     28.97537  20.1088        260
 6.33   0.4507    898.4979    378.4744 -46.75        69.76     0.505           25     0.494      2.390     28.95241  23.4410        261
 4.07   0.1933    896.1499    985.7686 -78.87       162.86     1.155           25     0.969      3.089      28.9852  22.5205        262
 7.14   0.2322    894.4000   1569.8065 -19.17       135.44     0.741           25     0.450      2.235     28.96225  22.7206        263
 4.05   0.0973    893.0034   1424.8406  -4.02       323.58     1.175           25     1.081      3.107     28.97865  21.7750        264
 3.50   0.0003    879.3679   1591.1768 -65.43     105780.9     2.050           25     1.979      3.552     28.97209  15.4890        265
 4.85   0.0396    887.5698    324.3025  15.33       793.52     2.155           25     1.546      4.971     28.95569  20.8011        266
 4.66   0.1387    887.7139    679.6675 -31.59       226.72     1.207           25     0.985      3.135     28.95241  22.1613        267
 3.71   0.0310    884.8433   1498.7693 -28.53      1014.22     1.263           25     1.203      2.997     28.98848  20.5347        268
 5.89   0.0619    883.9937    337.4917  14.13       508.58     1.674           25     1.162      5.480     28.96553  21.2841        269
 6.44   0.1413    878.6037    670.2805 -33.92        222.8     1.220           25     0.885      3.825     28.97865  22.1802        270
 3.50   0.0562    876.6116    959.5165 -75.63       559.54     1.188           25     1.159      2.906     28.97865  21.1804        271
 4.74   0.1012    875.3988    540.0956 -18.70       310.96     1.104           25     0.941      3.026     28.97209  21.8182        272
 3.61   0.0103    868.4432   1102.0897 -52.52      3048.82     1.978           25     1.764      4.190     28.96553  19.3397        273
 3.50   0.0298    866.7821    938.0223  43.14      1054.24     2.341           25     1.464      4.449     28.97209  20.4927        274
 4.03   0.1470    868.4462    642.1702   1.65       214.22     1.108           25     0.971      2.938     28.98848  22.2228        275
 4.61   0.2384    865.6735    453.2921 -43.90       131.92     1.023           25     0.859      3.323     28.96225  22.7492        276
 4.40   0.3193    863.9810   1477.9620  41.14        98.58     0.784           25     0.771      2.770      28.9852  23.0655        277
 6.33   0.2163    863.4897    353.4914   4.48       145.32     0.907           25     0.900      3.991     28.94913  22.6442        278
 4.68   0.2125    859.5967   1552.9791  88.22       148.04     0.982           25     0.777      2.712     28.97209  22.6241        279
 3.83   0.0419    857.4876   1338.7616 -82.33        751.3     1.339           25     1.031      3.174     28.96881  20.8605        280
 5.43   0.0955    854.6078    543.6538 -85.84       329.88     1.306           25     1.094      4.209     28.99831  21.7541        281
 8.00   0.3122    854.4573   1346.4805  34.07       100.76     0.501           25     0.497      3.005     28.96225  23.0418        282
 7.29   0.0877    845.6961    360.3315 -13.21       358.54     1.533           25     1.183      6.959     28.96225  21.6637        283
 3.54   0.0258    842.4099   1104.7104  29.74      1217.44     1.740           25     1.381      3.693     28.97209  20.3364        284
 3.50   0.0544    843.9447   1062.4344 -12.26       578.26     1.214           25     1.148      2.944     28.97865  21.1447        285
 3.67   0.0188    835.5275    297.0648 -62.06      1671.08     1.404           25     1.343      3.078     28.95241  19.9925        286
 5.08   0.2136    836.8608    990.4802 -11.26       147.24     1.028           25     0.873      2.786     28.95897  22.6299        287
 3.55   0.1518    835.6268   1519.0900 -19.16       207.28     0.992           25     0.927      2.605     28.96881  22.2586        288
 3.53   0.0911    834.6511    817.5978 -14.49       345.78     1.140           25     1.039      2.786     28.99503  21.7030        289
 3.50   0.0041    822.0486    652.7755 -40.96      7672.64     1.650           25     1.642      3.257     28.98848  18.3376        290
 5.17   0.3304    821.0284    328.9836 -51.85     95.25999     0.788           25     0.765      2.384     28.97865  23.1027        291
 3.50   0.2007    818.7283   1397.2321 -46.31       156.82     0.961           25     0.847      2.408     28.97537  22.5615        292
 5.15   0.4045    817.8800    777.8314 -48.61        77.78     0.840           25     0.663      3.271     28.97209  23.3228        293
 4.26   0.1512    817.8155    701.3275 -20.64        208.3     0.960           25     0.914      2.417     28.99503  22.2533        294
 5.01   0.1208    814.5070    876.6308 -58.49       260.38     1.463           25     0.894      3.461     28.96225  22.0110        295
 3.50  99.0000    808.9119   1543.2889  72.88    -2.199999     1.086           25     0.914      2.731     28.94584  99.0000        296
 5.54   0.6606    808.5829    842.7518  18.17        47.64     0.713           25     0.463      2.045     28.97865  23.8551        297
 3.50   0.0045    802.1667   1377.2756 -63.74      6973.88     1.649           25     1.576      3.242     28.96881  18.4413        298
 3.50   0.0016    797.5811    694.0720 -87.91     19300.22     2.495           25     1.754      4.199     28.99175  17.3361        299
 3.50   0.0094    799.6505     39.3665 -22.80      3347.14     1.666           25     1.449      3.186     28.98192  19.2383        300
 7.36   0.3515    800.6880   1595.3070  45.29        84.96     0.556           25     0.343      2.749     27.50192  23.2270        301
 6.03   0.1292    793.2582    294.0250 -66.59        243.6     1.173           25     1.055      4.284      28.9852  22.0833        302
 4.85   0.4831    785.2255   1347.6593  61.89        65.16     0.809           25     0.601      2.476      28.9852  23.5150        303
 3.50   0.0124    773.3425   1425.9152 -89.76      2527.06     3.452           25     2.118      6.241     28.95569  19.5435        304
 4.88   0.0955    766.9306    138.3648 -19.84       329.62     1.320           25     1.193      3.750     28.97865  21.7550        305
 4.61   0.4313    766.3534    928.7696 -73.50           73     0.988           25     0.871      2.995     28.98848  23.3917        306
 4.35   0.1861    763.2698    565.8460  45.86       169.04     0.876           25     0.849      2.999     28.96881  22.4800        307
 4.47   0.1449    756.6685   1339.7045 -45.10       217.12     1.526           25     0.855      3.766     28.96225  22.2083        308
 8.81   0.2576    757.4788    104.4729 -45.62       122.08     0.506           25     0.493      3.036     28.96225  22.8334        309
 5.64   0.0640    753.8141    194.1191  75.68        491.5     1.668           25     1.595      5.526     28.98192  21.3212        310
 5.09   0.5530    751.6815   1078.8489 -67.05        56.88     0.901           25     0.674      2.658     28.96225  23.6626        311
 7.63   0.0688    743.6953    839.3754 -42.13       457.42     1.166           25     1.085      6.998     28.96553  21.3992        312
 3.50   0.0174    741.7999    554.6925 -20.55      1809.66     1.429           25     1.401      3.109     28.96553  19.9060        313
 3.50   0.0508    737.1581   1156.5890 -27.41       619.98     1.215           25     1.175      2.864     28.97865  21.0691        314
 6.88   1.2588    738.4052   1271.2267  18.82           25     0.739           25     0.453      2.987     28.97865  24.5551        315
 3.88   0.0473    735.0988    648.1861 -28.40       664.46     1.236           25     1.140      2.995     28.96553  20.9938        316
 3.50   0.0005    725.6367    846.8282   8.09     66581.88     1.996           25     1.970      3.555     28.97865  15.9916        317
 3.50   0.0253    726.5267   1176.8077 -19.03      1244.88     1.345           25     1.276      2.896     28.98192  20.3122        318
 8.21   0.2296    728.9957    751.5101 -89.92       136.98     0.799           25     0.500      3.327     28.96225  22.7084        319
 5.34  99.0000    727.8087   1542.4133 -70.41    -5.660005     0.728           25     0.454      2.231     28.96225  99.0000        320
 3.59   0.0758    720.4454   1393.5422  18.35          415     1.348           25     1.077      3.168     28.97209  21.5049        321
 8.35   0.2123    721.4725    260.5168 -43.13        148.1     0.503           25     0.496      3.019     28.95241  22.6236        322
 3.50   0.0197    714.9188    806.8574 -17.41       1593.3     1.377           25     1.335      2.999     28.96225  20.0443        323
 3.50   0.0197    708.0578   1162.3623   0.33      1600.84     1.370           25     1.330      3.065     28.97865  20.0391        324
 7.71   0.1987    709.1875    193.1935  45.49       158.22     0.764           25     0.569      3.580     28.95569  22.5518        325
 3.78   0.0177    703.7951   1337.5586 -20.26      1782.54     1.801           25     1.523      4.242      28.9852  19.9224        326
 3.50   0.0104    701.9553    951.0063 -42.48      3026.36     1.553           25     1.443      3.231      28.9852  19.3477        327
 6.91   0.6429    700.5187    649.5245  45.63        48.92     0.505           25     0.494      1.948     28.96225  23.8263        328
 4.64   0.0493    698.0004    580.9234   8.03       638.82     2.284           25     1.152      5.020     28.97865  21.0366        329
 7.19   0.2536    695.4855    275.0860  -1.35       123.98     0.773           25     0.500      3.263     28.95241  22.8166        330
 3.71   0.0440    690.8048   1212.2382  44.32       714.38     1.548           25     1.379      3.423     28.97537  20.9152        331
 4.17   0.0512    685.6292   1212.3170 -39.28        614.9     1.258           25     1.058      3.269     28.97537  21.0780        332
 4.30   0.0901    686.5704    129.2008  -8.88       349.22     1.096           25     1.030      3.022     28.96225  21.6923        333
 3.52   0.0128    684.5384    642.6415 -84.45       2450.4     1.616           25     1.447      3.236     28.97209  19.5769        334
 8.03   0.3356    676.4891    199.5104  44.78        93.66     0.501           25     0.499      3.003     28.94584  23.1211        335
 7.14   0.6594    674.7531   1163.0059   0.29        47.74     0.685           25     0.431      2.617     28.98848  23.8528        336
 5.82   0.1313    671.9800    229.6126 -11.33        239.6     0.979           25     0.961      4.273     28.96881  22.1013        337
 5.57   0.0705    668.3409   1219.9712 -70.90       446.58     1.340           25     1.182      4.662      28.9852  21.4253        338
 4.26   0.3183    665.8835   1178.6530  11.77     98.77999     0.950           25     0.745      2.757     28.95569  23.0633        339
 7.50   0.5198    665.5051   1068.5013  44.94        60.48     0.505           25     0.494      2.310     28.94584  23.5960        340
 3.50   0.0005    647.4293   1462.9327 -70.59     65139.06     1.946           25     1.909      3.533     28.97865  16.0154        341
 3.72   0.0468    653.6917    869.2630  74.16       672.84     1.239           25     1.190      2.965     28.96553  20.9802        342
 4.63   0.0764    644.7474    651.3193  51.41       411.66     1.101           25     1.066      3.557     28.95569  21.5137        343
 4.83   0.1477    640.3434    274.9605  -7.46       213.04     1.171           25     0.974      3.305     28.97537  22.2288        344
 3.50   0.0414    629.7487    804.5778   5.00       759.58     1.254           25     1.197      2.948     28.98848  20.8486        345
 7.77   0.5923    630.4081    853.7961 -18.78        53.12     0.751           25     0.452      3.427     28.97209  23.7369        346
 7.08   1.1689    628.4722    940.5145 -41.98         26.9     0.502           25     0.497      2.790     28.95241  24.4756        347
 3.50   0.0252    622.7011   1580.3177  49.75         1248     1.321           25     1.312      3.077     28.94256  20.3095        348
 4.72   0.0627    617.3707   1150.1875 -13.40       502.34     1.960           25     1.193      4.879     28.98192  21.2975        349
 7.38   0.1932    618.4493     93.3292 -33.52       162.74     0.988           25     0.686      4.792     28.95897  22.5213        350
 7.64   0.6302    615.4998    117.4616 -74.20         49.9     0.500           25     0.498      2.594     28.95897  23.8047        351
 6.35   0.3223    610.7074    994.0096  -3.64        97.62     0.749           25     0.679      3.348     28.96881  23.0762        352
 6.91  99.0000    610.3042    961.6640  43.40    -9.180001     0.565           25     0.339      1.654     28.96225  99.0000        353
 3.66   0.1379    608.5586    943.8754  26.72       228.22     1.010           25     0.931      2.652     28.96881  22.1541        354
 6.65   0.4767    606.5120   1009.5204 -48.06        65.96     0.501           25     0.498      2.444     28.95569  23.5018        355
 7.64   1.1859   1550.4803    350.5271  45.95        26.52     0.505           25     0.494      2.777     28.95897  24.4911        356
 8.65   0.2853    598.4924    666.5140 -45.30       110.18     0.506           25     0.493      3.039     28.94913  22.9447        357
 6.73   0.3356    592.9932    881.0345  43.18        93.78     0.800           25     0.788      3.344     28.97865  23.1197        358
 5.36   0.1918   1592.4144   1383.2700 -15.98       164.12     1.198           25     0.926      3.740     28.99175  22.5121        359
 3.72   1.0062   1561.7380   1564.7104 -46.14        31.26     0.922           25     0.752      2.156     28.96225  24.3125        360
 5.59   0.1683   1584.8809   1068.1311  39.68        186.9     1.115           25     1.010      3.399     28.96225  22.3710        361
 5.37   0.1509   1522.7218    377.1894  58.52       208.62     1.423           25     0.793      3.088      28.9852  22.2516        362
 3.50   0.1078   1535.1891   1427.3427 -50.78       291.98     2.044           25     0.942      3.719     28.98848  21.8866        363
 4.92   0.2993   1590.3356    565.3453  39.61        105.1     0.970           25     0.851      2.553     28.96225  22.9960        364
 3.71   0.0694    911.2531    999.6954 -23.48       453.28     1.153           25     1.085      2.687     28.95897  21.4091        365
 3.50   0.0347    911.7423    837.0168  17.34        908.1     1.285           25     1.216      2.786     28.97865  20.6547        366
 3.50   0.0809   1514.6006   1545.8663  72.70       388.98     1.525           25     1.140      3.407     28.99175  21.5752        367
 4.17   0.2029   1580.3745   1412.9325  34.91       155.14     1.257           25     1.000      3.365     28.98192  22.5732        368
 5.86   0.2010   1527.5155    731.5428  47.38       156.48     1.125           25     0.849      3.449     28.95569  22.5639        369
 3.59   0.0170   1569.3876     90.9186 -53.66      1851.32     1.441           25     1.368      3.019     28.98192  19.8813        370
 3.76   0.0212   1583.9315   1107.3550  12.90      1482.12     1.405           25     1.363      3.145     28.96881  20.1228        371
 4.29   0.0313   1545.0386    861.8808  54.15      1005.54     1.763           25     1.527      4.156     28.96553  20.5440        372
 3.58   0.0109   1541.5220    652.9828 -62.99      2899.56     1.492           25     1.479      3.183     28.98192  19.3942        373
 3.50   0.0005   1557.0219    485.9576 -55.36     58712.08     1.948           25     1.916      3.448      28.9852  16.1282        374
 3.70   1.0193   1574.2651   1489.9102 -79.37     30.85999     0.947           25     0.750      2.507     28.96553  24.3265        375
 3.69   0.0127   1565.5607     20.2036 -43.75       2476.9     1.446           25     1.426      3.138     28.97537  19.5652        376
 6.08   0.0865   1562.0154    384.6225 -65.54        363.6     1.333           25     0.865      5.172     28.96881  21.6484        377
 3.50   0.0005   1562.5835    302.4617 -55.01     59098.16     1.935           25     1.904      3.475     28.97209  16.1211        378
 6.29  99.0000   1570.4812   1336.9929   1.21    -34.44001     0.777           25     0.499      2.274     28.97537  99.0000        379
 3.90   0.0217   1564.7999    782.9744 -74.98      1447.48     2.107           25     1.524      4.107     28.96881  20.1485        380
 4.00  99.0000   1551.1445   1512.1693  44.22       -15.46     0.747           25     0.568      2.154      28.9852  99.0000        381
 3.50   0.0077   1540.7150    133.3156 -60.59      4100.76     1.541           25     1.512      3.091     28.94584  19.0178        382
 4.36   0.0626   1549.9768   1220.6022   7.01        502.7     1.213           25     1.118      3.211     28.97537  21.2967        383
 3.58   0.0274   1560.2474    859.8215 -43.99      1149.32     1.348           25     1.294      3.039     28.98192  20.3989        384
 3.50   0.0017   1551.5745    680.5765 -24.65     18917.76     4.830           25     4.082      8.829     28.98192  17.3578        385
 4.96  99.0000   1537.6702    261.8769 -68.69        -18.8     0.886           25     0.689      2.191     28.95241  99.0000        386
 7.88   0.3499   1553.2987   1231.3453 -42.70        89.84     0.567           25     0.338      2.850     28.94584  23.1663        387
 5.61   0.2852   1534.7047    918.0706 -10.97       110.26     0.727           25     0.663      2.560     28.95569  22.9440        388
 7.74   0.1412   1533.4845    974.0283 -62.62       222.84     1.060           25     0.657      4.755     28.97209  22.1800        389
 8.35   0.2522   1538.0134    504.4654 -88.96       124.82     0.807           25     0.499      3.226     28.98848  22.8093        390
 3.76   0.0376   1503.1592    721.7394 -78.01       836.06     1.300           25     1.280      2.920     28.97865  20.7444        391
 4.80   0.0655   1531.6218    414.0755  10.09       480.44     1.560           25     1.341      4.319     28.97865  21.3459        392
 5.02   0.2659   1521.5660     12.5948  37.45       118.34     0.972           25     0.870      2.370     28.97865  22.8672        393
 5.53   1.9994   1497.0098   1231.4792 -89.27        15.74     0.778           25     0.500      1.907     28.97865  25.0575        394
 5.09   0.2015   1518.1111     83.3417 -65.31       156.08     1.147           25     1.036      3.078     28.95897  22.5666        395
 5.67   0.1172   1519.2120   1099.3176 -88.46       268.48     1.549           25     1.045      3.582     28.98192  21.9777        396
 5.76   0.3627   1526.1066    877.3820 -21.44        86.74     0.904           25     0.681      2.655     28.97209  23.2045        397
 3.50   0.0009   1506.1300    267.6239 -53.50     33658.76     1.857           25     1.839      3.416     28.98192  16.7323        398
 6.48   8.9426   1501.1704   1412.1464  47.35     3.520001     0.754           25     0.571      3.501      28.9852  26.6836        399
 7.24   0.2726    916.6699   1111.6492 -44.19       115.38     0.583           25     0.330      3.018     28.96225  22.8947        400
 3.50   0.0034   1513.8696    390.9695 -28.30      9184.14     1.653           25     1.645      3.237     28.97537  18.1424        401
 6.33   0.9496   1496.5107    671.5501  68.94        33.12     0.500           25     0.497      2.483     28.95897  24.2498        402
 6.13   0.1862    913.7955   1117.9650  89.84       169.02     0.909           25     0.759      2.864     28.97865  22.4802        403
 4.01   0.0717   1513.6278    481.9716 -66.07       438.86     1.166           25     1.121      2.871     28.98192  21.4442        404
 3.62   0.1253   1497.6539    842.8762 -23.08       251.12     1.083           25     0.990      2.723     28.96225  22.0503        405
 6.13   0.3296   1503.3531   1310.4663  16.49        95.46     0.938           25     0.817      2.715     28.96881  23.1004        406
 5.43   0.0483    937.3623    514.6446  59.14        652.2     1.931           25     1.402      5.772      28.9852  21.0140        407
 5.51   0.2440   1476.0063    197.0533   0.59       129.06     1.018           25     0.729      3.386     29.00158  22.7730        408
 7.13  25.3653   1495.4739    928.5216 -44.56     1.239999     0.506           25     0.492      2.702     28.96225  27.8164        409
 6.36   0.2000   1502.9595   1095.0165 -41.47       157.38     0.793           25     0.772      3.017      28.9852  22.5576        410
 3.70   0.0739    946.8018    443.5114 -10.81       425.92     1.260           25     1.071      2.847     28.96881  21.4767        411
 7.68   0.4673    918.6908   1343.3204  44.39         67.3     0.561           25     0.341      2.417     28.95897  23.4800        412
 3.50   0.3003    931.4678   1116.4857   3.76       104.72     0.907           25     0.890      2.669     28.95241  22.9999        413
 3.74   0.0574   1481.3601    573.6433 -44.00       548.26     2.130           25     1.338      4.621      28.9852  21.2025        414
 6.65   0.2085    925.0899    664.8290  47.37       150.88     0.825           25     0.664      3.683     28.96553  22.6034        415
 4.49   0.1267   1487.1832     76.2658  28.20       248.52     1.246           25     1.125      2.903      28.9852  22.0616        416
 6.73   0.8084    952.4832   1502.9939   0.94     38.91999     0.778           25     0.500      3.254     28.97209  24.0746        417
 5.33   0.0586   1474.0706    996.7557 -15.34       536.94     2.365           25     1.101      5.906     28.96553  21.2252        418
 6.90   0.5575    924.3528    309.3077 -47.02         56.4     0.574           25     0.334      2.045     28.95241  23.6718        419
 9.05   0.2936   1477.4849   1022.4782  45.65       107.08     0.505           25     0.494      3.030     28.95241  22.9757        420
 3.50   0.0838   1431.1808    339.1158  21.39       375.56     1.771           25     1.214      3.777     28.97865  21.6133        421
 4.25   0.0705    964.0634    414.7780 -20.00       446.36     1.154           25     1.125      3.060      28.9852  21.4258        422
 8.41   8.7868    949.3171    825.3550 -43.42     3.579998     0.579           25     0.332      2.536     28.96553  26.6653        423
 7.34   0.6500    958.5072    891.5318 -57.35        48.38     0.501           25     0.498      2.496     28.95569  23.8383        424
 3.50   0.0259    927.3716   1321.0503 -44.22      1217.06     1.369           25     1.315      3.084      28.9852  20.3367        425
 8.90   0.3033   1410.6099    365.6008 -68.79       103.72     1.072           25     0.321      4.777     28.96553  23.0103        426
 4.19   0.0377    949.7249    652.6889  88.42       833.22     1.952           25     1.462      4.711     28.94913  20.7481        427
 3.50   0.0139    938.2878   1065.6573  74.01       2255.6     1.431           25     1.383      3.150     28.95897  19.6668        428
 5.44   1.1221   1456.9949    610.2800  87.17        28.04     0.739           25     0.672      2.425     28.97209  24.4306        429
 5.84   0.2290    940.4291    724.3670  44.87       137.44     1.027           25     0.884      3.153     28.97865  22.7047        430
 6.45   2.8448    976.3963   1279.2194  18.26        11.06     0.737           25     0.454      2.547     28.97209  25.4406        431
 7.57   1.8389    954.3213   1027.6919  45.71         17.1     0.561           25     0.341      2.208     28.95569  24.9675        432
 6.59   0.0037   1440.8312   1081.2878  45.57     8603.341     4.028           25     1.419      9.107     28.96881  18.2133        433
 5.25   0.1705    981.3622   1485.5789 -43.34       184.56     0.964           25     0.854      3.233     28.98192  22.3847        434
 3.50   0.6033   1452.4899    389.8003 -66.94        52.14     0.945           25     0.927      2.558     28.96553  23.7571        435
 5.57   0.3843   1027.1073    462.1880 -47.15        81.86     0.806           25     0.667      2.268     28.96553  23.2673        436
 6.77   0.1022    972.9857    546.9538 -17.77       307.94     0.790           25     0.782      4.488     28.97865  21.8288        437
 3.50   0.0074   1434.2510    223.0160 -46.78       4229.2     1.518           25     1.487      3.138      28.9852  18.9844        438
 4.36   0.0296    979.8970    796.3403 -56.67      1061.56     1.728           25     1.564      4.391     28.95241  20.4851        439
 4.47   0.1482   1445.3281    729.7343   3.53        212.2     1.035           25     0.950      3.346     28.95569  22.2331        440
 3.84   0.0644   1405.3000    328.1622 -84.26       488.44     1.220           25     1.132      2.747     28.94584  21.3280        441
 7.94   0.3412    983.5096    952.4819 -45.47        92.16     0.507           25     0.493      2.648     28.95897  23.1386        442
 5.40   1.1913   1448.3313     86.1749 -68.16     26.41999     0.891           25     0.684      2.575     28.98192  24.4952        443
 4.51   0.0819   1437.7814   1269.7209  37.09       384.42     1.171           25     1.133      2.875      28.9852  21.5880        444
 3.84   0.0134   1119.2284    328.0840  57.85         2340     2.792           25     1.753      5.537     28.97209  19.6270        445
 3.55   0.2141   1435.4414   1345.9382   2.19       146.94     1.048           25     0.935      2.437     28.97209  22.6321        446
 5.35   0.2486   1437.6959    645.8911   7.62       126.44     1.135           25     0.877      3.153     28.94584  22.7953        447
 3.50   0.0101   1438.7836    617.5071  -4.26       3103.6     1.460           25     1.417      3.044     28.97537  19.3203        448
 5.33   0.2525   1128.8336    503.1409  44.77       124.64     0.809           25     0.680      2.637     28.97865  22.8109        449
 4.33   0.1021   1272.8525    696.4070 -22.77       308.38     1.324           25     1.119      3.459     28.99831  21.8273        450
 5.64   0.3652   1027.2592    350.3917 -20.86     86.21999     0.964           25     0.594      2.166     28.99503  23.2110        451
 7.02   1.1868   1124.4945    274.5286  49.23         26.5     0.502           25     0.497      1.857     28.95897  24.4919        452
 5.01   0.0576    977.1620    451.1199 -76.12       545.82     1.347           25     1.151      4.074     28.96881  21.2074        453
 5.83   1.2284   1126.8915    836.1245  46.41     25.59999     0.841           25     0.670      3.116     28.95569  24.5294        454
 3.50   0.0004   1392.3209    112.7096 -60.32     78256.24     1.989           25     1.948      3.469     28.95569  15.8162        455
 5.65   0.1916   1402.7693   1361.5898  13.15       164.32     0.956           25     0.941      3.071      28.9852  22.5108        456
 8.22  99.0000   1422.6824   1595.3485  43.67   -0.8000006     0.577           25     0.333      2.355      27.4639  99.0000        457
 8.51   0.2099   1128.5022    872.4724  70.37       149.82     0.500           25     0.499      3.001     28.95569  22.6111        458
 7.47   1.5460   1419.3876    427.8067 -18.74        20.34     0.761           25     0.445      3.026     28.95569  24.7791        459
 3.50   0.0010   1137.4629    146.3137 -65.78     32630.36     1.872           25     1.855      3.442     28.95569  16.7659        460
 3.64   0.0165   1414.4452   1385.1593 -77.94      1904.62     1.389           25     1.358      3.079      28.9852  19.8505        461
 3.50   0.0110   1407.1079    306.5768 -57.65      2853.02     1.473           25     1.412      2.988     28.96553  19.4117        462
 3.85   0.0498   1410.1370    348.2293  47.50       632.26     1.704           25     1.337      3.590     28.97537  21.0478        463
 3.50   0.0036   1387.8843   1427.1151 -42.27      8720.08     1.627           25     1.610      3.257     28.94913  18.1987        464
 3.50   0.0010   1318.9795    658.3513 -51.83     31754.48     1.867           25     1.837      3.445     28.98192  16.7955        465
 5.96   0.7111   1305.8440    572.6506 -19.87        44.26     0.923           25     0.675      2.136     28.98192  23.9350        466
 3.50   0.0031   1371.5431   1017.4425 -35.96      10261.4     1.844           25     1.698      3.406     28.96881  18.0220        467
 4.14   0.0951   1387.9163    805.0239 -17.20       330.86     1.106           25     1.094      2.848     28.97537  21.7509        468
 5.75   0.6014   1387.8052   1583.8373 -41.79        52.32     0.811           25     0.665      2.491     28.97537  23.7533        469
 4.37   0.0318   1399.7484   1029.9731  35.66        990.2     1.571           25     1.396      4.219      28.9852  20.5607        470
 3.50   0.0104   1389.4093    711.6742  61.01      3017.96     1.534           25     1.468      3.128     28.98848  19.3507        471
 3.57   0.0154   1391.3361   1037.2961 -38.86       2043.3     1.442           25     1.415      3.098     28.96225  19.7742        472
 3.50   0.0062   1277.2167   1329.9503 -88.20       5040.5     1.568           25     1.535      3.240     28.98192  18.7938        473
 6.47   0.1950   1392.0364   1532.6101   0.68        161.4     1.020           25     0.785      3.716     28.97865  22.5302        474
 5.91   0.1135   1384.6724   1273.8531  78.25       277.16     1.016           25     0.747      3.886     28.96225  21.9432        475
 8.83   0.4341   1384.5093   1383.5004  41.64         72.4     0.500           25     0.500      3.002     28.93928  23.4007        476
 6.48   0.1762   1305.5121    842.8745  13.71        178.4     1.074           25     0.970      4.792     28.95241  22.4215        477
 7.37   1.5338   1369.6818    705.2957  46.33         20.5     0.554           25     0.344      2.023     28.95241  24.7706        478
 4.88   0.4713   1345.9719    192.7731   0.40        66.78     0.903           25     0.749      2.700     28.98192  23.4884        479
 4.11   0.1951   1378.3208    317.2925 -13.39       161.18     1.088           25     0.960      2.872     28.95897  22.5317        480
 5.40   0.3281   1361.8470    389.3581 -14.68        95.92     1.054           25     0.727      2.868     28.98192  23.0952        481
 4.54   0.3198   1367.3254    147.8780  53.16        98.36     0.998           25     0.825      3.157     28.96553  23.0680        482
 3.50   0.0480   1318.3370    262.3694 -37.88       655.56     1.280           25     1.184      2.812     28.97865  21.0085        483
 5.45   0.0624   1351.3975    150.3783  78.48       503.98     1.935           25     1.440      5.250     28.97209  21.2940        484
 3.50   0.0689   1329.4015    385.2875  20.28       456.44     1.217           25     1.172      2.903     28.97209  21.4015        485
 3.71   0.1370   1345.2412    603.6646 -67.92       229.72     1.354           25     1.065      3.439     28.97537  22.1470        486
 7.13   1.2140   1351.5321    473.5340 -45.99         25.9     0.501           25     0.497      2.661     28.95241  24.5168        487
 3.61   0.0345   1331.7163    105.7077 -17.12       912.28     1.313           25     1.240      2.932     28.95569  20.6497        488
 3.50   0.0091   1306.4722    668.0397 -42.74      3461.48     1.561           25     1.506      3.256     28.97537  19.2018        489
 3.50   0.0074   1328.8700    654.2535   3.86      4240.68     1.667           25     1.624      3.511     28.96225  18.9814        490
 4.78   0.1560   1290.5552    544.2146 -19.52       201.74     1.009           25     0.925      3.100     28.97865  22.2880        491
 3.50   0.0002   1297.3068    723.3258 -20.11     174364.5     2.569           25     2.084      3.595     28.95569  14.9464        492
 6.65   0.1592   1324.2008    632.0477  12.67       197.84     1.218           25     0.651      4.523     28.99503  22.3092        493
 3.90   0.0367   1303.7844    891.3276 -50.07        858.7     1.282           25     1.254      2.978     28.99503  20.7154        494
 7.32   0.7609   1302.4843     40.5543  59.18        41.34     0.501           25     0.496      2.878     28.96553  24.0091        495
 5.35   0.5358   1282.1034   1567.6960 -75.79        58.66     0.725           25     0.664      2.367     28.94256  23.6291        496
 4.39   0.1168   1298.2344     52.2682 -40.63        269.4     1.100           25     1.066      3.198     28.97865  21.9740        497
 3.50   0.0340   1291.6096    411.0975 -20.13       924.04     1.350           25     1.232      2.853     28.96225  20.6358        498
 4.58   0.0979   1261.1510    853.7941 -51.72       321.54     1.163           25     1.074      3.221     28.99503  21.7819        499
 3.50   0.0039   1290.3988    760.5972 -26.64       8096.8     2.181           25     1.654      3.712     28.98192  18.2792        500
 3.50   0.0080   1264.4102    806.2888  -2.02      3955.14     1.508           25     1.497      3.112     28.97209  19.0571        501
 3.50   0.0026   1271.8014    608.2728 -57.85     12138.38     4.463           25     2.548      6.917     28.98848  17.8396        502
 3.50   0.0032   1209.7850   1277.4983  81.55     9746.521     6.002           25     3.576     10.015     28.96553  18.0779        503
 7.27   0.3296   1155.5150    349.9638  -1.96        95.46     0.782           25     0.499      2.755     28.97209  23.1004        504
 4.04   0.2496   1276.7361    341.9587  89.47       126.08     0.883           25     0.745      2.561     28.97537  22.7984        505
 3.66   0.0165   1206.7316    837.2612 -14.96      1907.14     1.415           25     1.399      3.086     28.96225  19.8490        506
 3.88   0.0243   1258.4160    430.7781   0.30      1297.32     2.067           25     1.998      4.971     28.96881  20.2674        507
 3.50   0.1964   1261.2987    214.4610  -7.60       160.16     0.965           25     0.934      2.312     28.95897  22.5386        508
 3.50   0.0029   1217.9849   1193.4705  59.35     11016.94     1.914           25     1.829      3.571     28.99503  17.9448        509
 3.74   0.0729   1236.6903     46.4942  12.62        431.3     1.173           25     1.092      2.804     28.94913  21.4631        510
 5.63   0.0350   1228.8633    597.4689 -32.56       898.14     1.748           25     1.636      5.682     28.96553  20.6666        511
 4.39   0.0225   1211.9121   1427.8794  69.21       1397.8     2.582           25     2.167      6.693     28.95241  20.1864        512
 3.50   0.0099   1233.3027    303.1225 -36.25      3191.46     1.472           25     1.459      3.056     28.95241  19.2900        513
 7.11   1.1377   1172.4825    206.5125 -43.56        27.64     0.501           25     0.498      2.413     28.95569  24.4462        514
 3.56   0.0164   1236.1771   1552.1875 -48.84      1922.04     1.441           25     1.352      3.178     28.97209  19.8406        515
 5.99   0.2151   1242.9928    612.1877   2.24       146.16     0.894           25     0.744      3.565     28.95569  22.6379        516
 4.51   0.0172   1193.9963    122.4217 -71.91      1824.26     2.227           25     1.840      5.417     28.97209  19.8973        517
 5.83   0.1112   1237.0295    855.9278  73.69       282.96     1.172           25     1.153      4.474     28.97537  21.9207        518
 4.43   0.0740   1227.8544   1152.1260 -44.07       425.14     1.137           25     1.075      3.385     28.96225  21.4787        519
 3.50   0.0019   1213.5891    511.3575 -21.22     16595.84     1.756           25     1.722      3.287     28.97865  17.5000        520
 7.34  99.0000   1222.3035    828.6625  43.30    -9.440001     0.566           25     0.339      2.334     28.95897  99.0000        521
 5.13   0.2286   1171.7573    231.0094 -85.08        137.7     0.909           25     0.746      3.155     28.98192  22.7027        522
 5.24   0.1632   1220.3372   1429.9242  73.25       192.76     1.274           25     1.069      3.663     28.95897  22.3375        523
 4.81   0.1658   1203.3542   1215.9109  81.93       189.66     0.973           25     0.845      2.885     28.95897  22.3551        524
 6.62  99.0000   1195.7742   1332.0226   0.96    -8.820003     0.691           25     0.418      2.446     28.98192  99.0000        525
 3.50   0.0165   1200.7493    337.4133  66.45      1911.02     1.404           25     1.400      3.041     28.98848  19.8468        526
 5.33   0.1327   1209.7607    827.6060  29.35       237.24     1.047           25     0.807      3.509     28.97865  22.1120        527
 4.03   0.0536   1179.9944    547.8141   1.30       586.44     1.213           25     1.157      3.035     28.95897  21.1294        528
 4.63   0.1009   1209.5675   1414.1831  15.76       312.08     1.198           25     0.943      3.973     28.98192  21.8143        529
 8.67   0.3924   1176.3215     16.3410 -44.14        80.16     0.575           25     0.334      3.079     28.96553  23.2901        530
 3.50   0.0247   1200.0382   1440.7582  67.54      1274.44     1.786           25     1.594      4.193     28.99175  20.2867        531
 3.50   0.0960   1180.7412    174.5659 -16.48       327.74     1.129           25     1.064      2.533     28.98192  21.7612        532
 4.94   0.5385   1184.0728    312.2089  -5.46        58.46     0.882           25     0.741      3.265     28.98848  23.6329        533
 8.47   0.5051   1179.4666   1402.5000 -42.39        62.28     0.506           25     0.493      3.033     28.96553  23.5641        534
 3.79   0.0193   1150.1085     97.7642 -19.21      1632.76     1.397           25     1.352      3.216     28.95897  20.0177        535
 3.88   0.0511   1129.1823    217.8823  -8.95       615.82     1.511           25     1.231      3.179     28.97865  21.0764        536
 3.50   0.0006   1164.2880   1298.2457 -66.57     50517.14     1.922           25     1.880      3.481     28.95897  16.2914        537
 4.74   0.1836   1176.0353   1597.4540  -2.43       148.52     0.991           25     0.774      2.624     25.11138  22.6205        538
 3.96   0.0326   1152.6783   1351.5414  56.22       966.34     1.585           25     1.541      3.818     28.96553  20.5872        539
 4.23   0.0414   1160.7585    886.2136  15.39       759.92     1.249           25     1.172      3.445     28.97865  20.8481        540
 4.56   0.1260   1166.0389   1598.8734  88.25       199.38     1.197           25     0.942      3.604      23.1263  22.3008        541
 3.50   0.0046   1156.7683    234.6826 -32.68      6870.14     1.622           25     1.599      3.205     28.97209  18.4576        542
 6.81   0.2043   1157.1354    184.1379 -46.27       153.94     0.849           25     0.677      3.572     28.96225  22.5816        543
 5.22   0.1185   1155.0981    565.7803 -81.63        265.5     1.247           25     0.919      3.554     28.95897  21.9898        544
 5.48   0.2159   1146.8527    110.7027 -22.17       145.58     0.883           25     0.684      2.412     28.94584  22.6422        545
 3.50   0.0017   1128.9263    181.7753 -55.46      18030.7     1.777           25     1.732      3.327     28.97865  17.4100        546
 6.42   0.1500   1073.6285    350.7908  28.79       209.76     1.109           25     0.897      3.563     28.97865  22.2457        547
 4.05   0.0421   1128.1890    545.7462 -40.72       747.96     1.251           25     1.189      3.248     28.99175  20.8653        548
 6.69   2.6086   1129.4607   1143.4618 -44.58        12.06     0.501           25     0.496      2.373     28.96881  25.3466        549
 4.43   0.1367   1130.0223    357.5392 -42.79       230.26     1.030           25     1.003      2.861      28.9852  22.1445        550
 4.23 224.7689   1105.8722   1265.8270 -46.31    0.1399982     0.799           25     0.674      1.803     28.97537  30.1847        551
 8.14   0.2280   1028.0111    178.7182  87.98          138     0.748           25     0.680      3.337     28.97865  22.7003        552
 4.82  99.0000   1026.8101    605.8358 -44.10    -4.580001     0.871           25     0.841      2.797     28.97865  99.0000        553
 6.77   0.2569   1115.3961   1168.6317 -30.28       122.52     1.105           25     0.740      3.828     28.98192  22.8295        554
 6.74   0.2951   1107.9915   1122.0051  89.83        106.6     0.623           25     0.611      2.412     28.96881  22.9806        555
 5.43   0.0237   1110.1667    477.8314  30.36      1330.94     3.002           25     1.979      8.077      28.9852  20.2396        556
 3.50   0.0038   1106.4496    426.3223 -10.02       8204.5     1.654           25     1.641      3.260     28.95569  18.2649        557
 3.50   0.0775   1064.9115   1595.7524 -49.92       379.42     1.137           25     1.109      2.753      27.0632  21.6022        558
 7.47   0.0021   1088.4707    781.3342  49.66     14816.16     1.292           25     0.498      4.141     28.95569  17.6232        559
 5.67   0.1327   1062.9246    290.3387 -15.23       237.12     1.014           25     0.742      3.274     28.96553  22.1126        560
 4.62   0.1013   1065.8292    567.3412 -61.86        310.7     1.297           25     1.030      3.571      28.9852  21.8191        561
 3.50   0.0316   1094.6127   1525.2114 -18.99       996.26     1.304           25     1.225      2.865     28.96881  20.5541        562
 5.00   0.0408   1089.9391    466.5366 -58.07        771.8     2.613           25     1.233      5.387     28.96553  20.8312        563
 6.50   0.0658   1091.8363    427.4894  24.08       478.06     1.826           25     1.293      7.692     28.96553  21.3513        564
 3.50   0.1092   1093.6808   1134.7931 -22.24       288.04     1.078           25     0.992      2.461     28.97537  21.9014        565
 3.50   0.0009   1079.0300    510.4799 -37.68     34616.92     1.880           25     1.863      3.458     28.97209  16.7018        566
 3.50   0.0007   1039.2594    631.4073 -47.61      43823.1     1.893           25     1.873      3.458     28.99503  16.4457        567
 3.50   0.0028   1080.8483   1146.6909 -24.35      11128.7     1.677           25     1.666      3.276     28.95569  17.9339        568
 5.20   0.1132   1087.3164    395.1666  57.95       277.86     1.234           25     0.955      3.461     28.97537  21.9404        569
 3.95   0.0565   1078.2657    328.4388 -25.72       556.84     1.219           25     1.190      2.934     28.97537  21.1857        570
 4.20   0.1247   1085.4874   1451.3422  70.17       252.16     1.400           25     1.115      3.331     28.96225  22.0458        571
 7.72   0.0810   1066.6331   1472.0443  47.06       388.72     1.378           25     0.913      6.738     28.98848  21.5759        572
 5.67   0.2542   1078.0466    920.9127 -72.75       123.72     0.780           25     0.776      2.659     28.96225  22.8189        573
 3.50   0.4128   1018.5951   1153.3916 -37.83     76.21999     0.969           25     0.861      2.437     28.96881  23.3448        574
 5.17   0.1775    992.0784    498.0102 -32.96       177.32     0.783           25     0.775      3.143     28.98192  22.4281        575
 6.16   0.2754   1077.0077    466.9885   0.40        114.2     0.620           25     0.610      2.824     28.96225  22.9058        576
 4.21   0.0154   1071.2057   1217.5162 -68.65      2044.94     2.239           25     1.930      5.245     28.97209  19.7733        577
 4.76   0.0294   1064.2319   1561.6675 -68.85      1068.86     2.501           25     1.627      5.944     28.97865  20.4777        578
 3.50   0.0031   1037.6990    523.7823  88.97     10178.26     1.696           25     1.681      3.292     28.96553  18.0308        579
 6.06   0.2482   1051.8007    398.9987 -88.71       126.82     0.927           25     0.749      3.186     28.98192  22.7920        580
 7.31   0.8809   1028.6842    945.6791 -44.74         35.7     0.564           25     0.340      2.332     28.95897  24.1683        581
 5.45   0.2721   1042.1552    808.1166 -41.56       115.62     0.810           25     0.670      2.529     28.96553  22.8924        582
 8.33   0.6319   1047.4857    206.5130  44.74        49.76     0.502           25     0.498      2.836     28.95241  23.8078        583
 4.35   0.1506   1051.3973    235.9645  16.35       208.94     1.202           25     0.946      3.460     28.97865  22.2499        584
 7.86   2.2023   1032.5078    491.5200 -50.77        14.28     0.501           25     0.499      2.860     28.95897  25.1632        585
 7.64  99.0000   1046.7662   1157.0314   1.40    -7.080006     0.691           25     0.423      2.409      28.9852  99.0000        586
 6.06   0.2330   1036.1702    240.3378 -20.06       135.04     0.898           25     0.679      3.517     28.97865  22.7238        587
 6.17   0.1165   1039.5272    465.5916  20.18        270.3     1.125           25     1.003      3.740      28.9852  21.9704        588
 5.13  99.0000   1028.5894   1033.7855  19.51    -4.260003     0.735           25     0.452      2.788     28.96881  99.0000        589
 5.26   0.2827   1041.7097   1094.2051  37.41       111.24     1.048           25     0.688      3.053     28.96225  22.9343        590
 3.93   0.0177   1029.2343    300.9294  68.86      1774.04     2.735           25     1.854      5.239     28.97537  19.9276        591
 5.12   0.2914   1016.3457    199.5304  20.23       107.94     0.959           25     0.826      3.176     28.96225  22.9670        592
 5.04   0.0898   1020.2978   1267.2831  48.45       349.98     2.139           25     0.808      3.853     28.94584  21.6899        593
 4.74   0.0224    985.6621    452.4799  64.48      1402.76     2.100           25     1.781      5.916     28.95569  20.1825        594
 3.50   0.0015   1024.8750   1378.5491 -86.83     21073.02     1.855           25     1.738      3.413     28.95569  17.2407        595
 3.50   0.0017   1008.8733    812.1113  37.36      18405.2     1.770           25     1.759      3.368     28.95241  17.3876        596
 4.25   0.1755   1013.5488    451.3266   9.02       179.14     1.153           25     0.984      2.587     28.95569  22.4170        597
 3.50   0.0107   1010.2905    343.0790 -29.81      2934.38     1.491           25     1.453      3.124     28.95569  19.3812        598
 5.33   0.7581    991.3466    344.4591 -20.15         41.5     0.933           25     0.811      2.078     28.96881  24.0049        599
 3.50   0.0010    983.9279    556.8673 -87.44     30841.14     1.840           25     1.832      3.448     28.95241  16.8272        600
 5.77   0.0994   1010.0002    266.0417  37.06        316.7     1.152           25     1.136      4.872     28.98192  21.7984        601
 3.50   0.0096   1000.7599    541.0183  23.68      3283.04     1.539           25     1.501      3.212      28.9852  19.2593        602
 3.50   0.8178   1003.1661   1236.6719  23.68        38.48     0.918           25     0.672      2.377     28.97537  24.0869        603
 3.50   0.0233   1000.5397   1554.0548  -5.84      1350.88     1.339           25     1.272      2.895     28.96553  20.2235        604
 3.50   0.0334    998.8932   1272.4302 -42.66        942.6     1.338           25     1.237      2.925     28.96225  20.6142        605
