#   1 KRON_RADIUS            Kron apertures in units of A or B                         
#   2 MAGERR_APER            RMS error vector for fixed aperture mag.                   [mag]
#   3 Y_IMAGE                Object position along y                                    [pixel]
#   4 X_IMAGE                Object position along x                                    [pixel]
#   5 FLUX_APER              Flux vector within fixed circular aperture(s)              [count]
#   6 THRESHOLD              Detection threshold above background                       [count]
#   7 THETA_IMAGE            Position angle (CCW/x)                                     [deg]
#   8 A_IMAGE                Profile RMS along major axis                               [pixel]
#   9 B_IMAGE                Profile RMS along minor axis                               [pixel]
#  10 FLUX_RADIUS            Fraction-of-light radii                                    [pixel]
#  11 FLUXERR_APER           RMS error vector for aperture flux(es)                     [count]
#  12 MAG_APER               Fixed aperture magnitude vector                            [mag]
#  13 NUMBER                 Running object number                                     
 4.23   0.0000     53.2652     63.6543     77594.23      43.5214   3.17     5.181     4.630      3.691  0.008422156  15.8254          1
 3.95   0.0000     16.5149    985.0804     12976.31      43.5214 -88.61     4.203     1.941      3.149  0.008419294  17.7671          2
 4.06   0.0000     18.0504     91.3141     10599.26      43.5214   0.42     1.768     1.716      2.247  0.008421202  17.9868          3
 3.50   0.0000     14.6167   1445.7477     27527.14      43.5214 -47.82     1.890     1.819      2.330  0.008427875  16.9506          4
 8.12   0.0000     10.2946   1183.6542     464.9178      43.5214  42.42     0.565     0.339      2.270  0.008419294  21.3816          5
 7.36   0.0000      4.2259    145.0241     485.0882      43.5214  89.83     0.957     0.768      3.213  0.007548129  21.3354          6
 6.64   0.0000     17.2495    384.5071     1291.801      43.5214  19.99     0.993     0.952      2.443   0.00841834  20.2720          7
 5.14   0.0000     24.7971    367.2085     2041.799      43.5214  13.81     1.305     1.234      2.203  0.008422156  19.7750          8
 3.50   0.0000     59.7850   1078.4766     108649.3      43.5214  77.02     2.287     2.159      2.436  0.008430733  15.4599          9
 8.57   0.0000     23.7800    383.3999     1525.181      43.5214 -71.85     0.755     0.452      2.428  0.008425016  20.0917         10
 6.41   0.0000     33.9023   1110.1802     1254.288      43.5214  68.24     1.657     0.778      2.447  0.008421202  20.3040         11
 7.88   0.0000     33.3076    326.9492     864.1745      43.5214  -6.92     0.747     0.677      2.544  0.008420249  20.7085         12
 5.98   0.0000     37.8655   1521.1591     695.8246      43.5214  46.72     0.834     0.669      2.478  0.008425016  20.9438         13
 7.05   0.0000     38.8750   1170.6508     764.8304      43.5214 -19.52     0.923     0.691      2.384  0.008419294  20.8411         14
 5.87   0.0000     42.4605    915.4996     803.6002      43.5214 -77.10     0.913     0.907      2.213   0.00841834  20.7874         15
 3.50   0.0000     80.1536    537.6561     107016.8      43.5214 -59.56     2.145     2.122      2.313  0.008424062  15.4764         16
 9.02   0.0000     44.6655    440.6699     748.4398      43.5214 -45.19     0.576     0.334      2.218  0.008420249  20.8646         17
 4.26   0.0000     75.2162    128.0142      4368.65      43.5214  -5.75     1.516     1.469      2.342  0.008425016  18.9491         18
 6.64   0.0000     82.2787    421.5101      1014.31      43.5214 -15.66     0.994     0.986      2.615   0.00841834  20.5346         19
 3.50   0.0000    121.8120    789.2006     155248.8      43.5214 -62.81     2.230     2.179      2.285  0.008425016  15.0724         20
 6.02   0.0000     90.7295    376.9918     2011.646      43.5214   4.47     1.628     1.442      2.770  0.008428828  19.7911         21
 4.42   0.0000     96.6151     56.2576     6494.472      43.5214 -38.95     1.639     1.566      2.225  0.008425969  18.5186         22
 6.10   0.0000     98.0585    452.9797      1789.92      43.5214 -14.82     1.454     1.005      2.456  0.008427875  19.9179         23
 7.39   0.0000     91.4945    495.9650     641.4393      43.5214  -1.40     0.788     0.500      2.316  0.008419294  21.0321         24
 3.50   0.0000    162.2989   1468.3301     89122.73      43.5214 -48.48     2.111     2.074      2.333  0.008420249  15.6750         25
 6.85   0.0000    131.2865    418.0175      608.683      43.5214   5.64     0.729     0.681      2.365  0.008424062  21.0890         26
 3.55   0.0000    170.2996    877.3505     23492.66      43.5214  -8.96     1.882     1.865      2.241  0.008413569  17.1227         27
 8.52   0.0000    151.4999   1280.4825     458.0424      43.5214 -47.88     0.501     0.498      2.246  0.008414524  21.3977         28
 5.51   0.0000    164.9741   1445.6677      1873.48      43.5214  17.35     1.303     1.186      2.334  0.008425969  19.8684         29
 4.82   0.0000    166.8505    104.4303     1286.327      43.5214 -46.35     1.196     1.124      2.143  0.008427875  20.2766         30
 6.42   0.0000    169.3397   1368.8977     573.3566      43.5214  68.06     0.910     0.689      2.323   0.00841834  21.1539         31
 7.68   0.0000    180.3316    574.9897     1148.517      43.5214  53.18     1.039     0.643      2.669  0.008429781  20.3997         32
 7.49   0.0000    186.6387   1354.8976      947.378      43.5214  75.59     1.045     0.753      2.542  0.008417387  20.6087         33
 5.30   0.0000    192.6023   1350.5554     2562.169      43.5214 -19.15     1.368     1.305      2.251  0.008429781  19.5285         34
 4.77   0.0000    210.7202    827.6749      9769.58      43.5214  -5.78     3.810     2.091      3.014  0.008421202  18.0753         35
 4.14   0.0000    206.7225    549.0807     4767.063      43.5214   3.37     1.545     1.484      2.257  0.008422156  18.8544         36
 4.19   0.0000    212.1664   1306.1005     5015.249      43.5214 -64.54     1.516     1.487      2.261  0.008415477  18.7993         37
 5.52   0.0000    230.1494    562.2775     8296.368      43.5214 -37.31     3.231     3.004      4.219  0.008419294  18.2528         38
 5.76   0.0000    210.8939    684.8484     1504.565      43.5214 -66.39     1.218     1.115      2.413   0.00841834  20.1065         39
 3.50   0.0000    259.7588    997.4791       270572      43.5214 -48.81     2.331     2.263      2.316  0.008423109  14.4693         40
 3.92   0.0000    223.9121   1226.0618     5682.541      43.5214  25.89     1.523     1.479      2.321  0.008420249  18.6636         41
 4.86   0.0000    222.6267    774.9695     1761.065      43.5214  81.57     1.224     1.191      2.207  0.008425969  19.9356         42
 3.50   0.0000    265.9002     67.6173     192898.3      43.5214 -49.31     2.268     2.237      2.380  0.008421202  14.8367         43
 5.52   0.0000    243.9732    112.8913     3657.057      43.5214 -88.19     1.951     1.539      3.021  0.008422156  19.1422         44
 4.81   0.0000    255.4885    613.0098     9204.347      43.5214 -41.01     2.436     2.028      2.715  0.008425016  18.1400         45
 6.52   0.0000    239.3535    838.8231     1495.542      43.5214  -5.84     1.203     1.102      2.422  0.008426922  20.1130         46
 7.18   0.0000    250.5180    107.4840     1221.176      43.5214 -42.78     1.108     0.852      2.417  0.008419294  20.3331         47
 3.50   0.0000    287.5196   1486.4733     49576.34      43.5214 -43.97     2.033     1.992      2.323  0.008420248  16.3118         48
 3.66   0.0000    281.9236   1522.4003     11836.15      43.5214   3.77     1.701     1.668      2.230  0.008425969  17.8670         49
 6.46   0.0000    270.7727   1273.6278     1132.508      43.5214  16.49     1.000     0.849      2.122  0.008426922  20.4149         50
 3.50   0.0000    303.1506    201.7659     38401.93      43.5214 -78.11     1.968     1.942      2.322  0.008425969  16.5891         51
 6.27   0.0000    293.2967   1475.8354     1255.244      43.5214 -33.66     1.250     1.086      2.231  0.008416432  20.3032         52
 4.64   0.0000    302.2875    563.6751     1541.852      43.5214  31.81     1.325     1.283      2.292   0.00841834  20.0799         53
 3.50   0.0000    322.0853    697.3419     26504.54      43.5214   1.78     1.882     1.848      2.208  0.008421202  16.9917         54
 7.64   0.0000    308.7069     85.2985     983.7759      43.5214  45.78     0.969     0.767      2.492  0.008417387  20.5678         55
 6.05   0.0000    321.9905    641.4783     1950.909      43.5214 -64.00     1.799     1.232      2.961  0.008426922  19.8244         56
 5.16   0.0000    327.5369    595.4523     4911.356      43.5214 -52.10     1.728     1.694      2.519  0.008422156  18.8220         57
 6.07   0.0000    329.2517   1546.0168      830.629      43.5214 -87.78     0.913     0.756      2.370  0.008427875  20.7515         58
 5.83   0.0000    332.2679     93.4347      1023.46      43.5214  20.40     0.992     0.948      2.226  0.008425969  20.5248         59
 4.78   0.0000    350.1319     54.7084     2426.044      43.5214  -8.51     1.366     1.298      2.278  0.008419294  19.5878         60
 3.50   0.0000    368.1670    761.1217     27315.03      43.5214 -26.12     1.940     1.871      2.263  0.008424062  16.9590         61
 4.02   0.0000    361.1491   1500.4037     4995.479      43.5214 -15.08     1.586     1.464      2.397  0.008430733  18.8036         62
 3.50   0.0000    395.2009    231.4691     115132.1      43.5214 -63.05     2.184     2.143      2.335  0.008428828  15.3970         63
 5.78   0.0000    360.5269   1034.0070     1109.384      43.5214  -1.40     1.111     0.957      2.316  0.008428828  20.4373         64
 6.91   0.0000    375.4792    754.0627     1377.409      43.5214  56.22     1.715     0.961      2.030  0.008419294  20.2023         65
 7.68   0.0000    370.3091     71.9499     715.2455      43.5214 -10.89     0.743     0.672      2.323  0.008422156  20.9139         66
 6.47   0.0000    373.4826   1083.8826     1081.116      43.5214 -17.84     1.100     0.990      2.423  0.008419294  20.4653         67
 6.41   0.0001    380.6161      1.4882     114.3538      43.5214 -89.79     1.601     0.500      3.001   0.00643752  22.9044         68
 3.50   0.0000    397.0519   1461.2017      18860.9      43.5214 -44.85     1.804     1.797      2.285  0.008430733  17.3611         69
 3.50   0.0000    398.1799    354.6261      21625.8      43.5214 -13.53     1.890     1.844      2.311  0.008425016  17.2126         70
 8.09   0.0000    375.6552     87.2937     433.7135      43.5214  47.61     0.564     0.339      2.063  0.008420249  21.4570         71
 6.71   0.0000    380.1594    125.8447     811.1838      43.5214  44.65     0.818     0.680      2.372  0.008426922  20.7772         72
 4.22   0.0000    393.8183   1088.7736     4401.635      43.5214 -35.06     1.516     1.449      2.224  0.008425969  18.9410         73
 8.89   0.0000    382.4900     67.5055     783.2277      43.5214 -44.69     0.503     0.497      2.144  0.008416432  20.8153         74
 8.07   0.0000    388.6902   1195.3347     506.0694      43.5214  43.77     0.567     0.338      2.592  0.008422156  21.2895         75
 6.14   0.0000    412.0432      1.7727     196.5845      43.5214  90.00     2.505     0.701      4.299  0.006572099  22.3161         76
 7.90   0.0000    396.8768    626.5975     1918.643      43.5214 -73.71     1.239     0.985      3.206  0.008425969  19.8425         77
 8.16   0.0000    403.6928    526.4366     986.9799      43.5214  81.17     1.023     0.476      2.331  0.008420249  20.5642         78
 7.54   0.0000    407.0518    282.4902     550.9274      43.5214 -88.59     0.787     0.500      2.153  0.008422156  21.1973         79
 3.50   0.0000    437.9478    252.1072     41621.08      43.5214 -87.21     2.006     1.974      2.300  0.008420249  16.5017         80
 3.50   0.0000    461.0704    807.6703     305037.1      43.5214 -68.51     2.341     2.304      2.332  0.008415477  14.3391         81
 5.83   0.0000    420.9021    159.0900     2003.382      43.5214  37.62     1.694     1.421      2.530  0.008416432  19.7956         82
 7.67   0.0000    419.5386   1580.4929     668.8382      43.5214  40.47     0.504     0.495      2.371  0.008420248  20.9867         83
 4.17   0.0000    432.9492   1422.0629     3411.422      43.5214   6.85     1.427     1.396      2.223  0.008422156  19.2177         84
 6.72   0.0000    426.5748   1179.2787       1042.2      43.5214  26.35     1.188     0.957      2.455  0.008425016  20.5051         85
 6.42   0.0000    426.8329    433.0970     97929.22      43.5214  -3.27     2.183     0.735      4.320   0.00841834  15.5727         86
 5.15   0.0000    434.2586    151.1154     1003.817      43.5214 -20.05     1.138     1.034      2.186  0.008421202  20.5459         87
 3.88   0.0000    450.3392     21.3603     14152.26      43.5214 -27.47     1.777     1.769      2.322  0.008425969  17.6729         88
 5.07   0.0000    467.7993    850.4810     10767.84      43.5214  22.59     7.403     2.054      5.020  0.008425969  17.9697         89
 9.05   0.0000    430.6650    719.3185     1247.901      43.5214  45.76     0.572     0.336      2.269   0.00841834  20.3095         90
 4.48   0.0000    440.0043    305.8401     1519.435      43.5214  22.45     1.160     1.136      2.219  0.008425969  20.0958         91
 5.42   0.0000    445.2589    122.3780     2107.479      43.5214 -23.52     1.401     1.309      2.473  0.008427875  19.7406         92
 3.80   0.0000    457.8408     34.5939     15731.92      43.5214 -30.83     1.779     1.767      2.295  0.008426922  17.5580         93
 8.05   0.0000    443.6886    655.3237     704.0933      43.5214  44.36     0.563     0.340      2.255  0.008417387  20.9309         94
 4.32   0.0000    463.6414    468.6490     4819.075      43.5214  70.99     1.619     1.558      2.388  0.008427875  18.8426         95
 6.24   0.0000    452.9206   1533.0249     834.3353      43.5214 -31.03     0.792     0.774      2.375  0.008425016  20.7466         96
 5.22   0.0000    460.9918   1096.1410      1682.97      43.5214  47.71     1.191     1.080      2.339  0.008430733  19.9848         97
 4.60   0.0000    471.3581    254.2742     4184.564      43.5214 -79.51     1.510     1.439      2.301  0.008423109  18.9959         98
 4.03   0.0000    472.1380    734.9207     5626.296      43.5214  75.27     1.566     1.511      2.256  0.008419294  18.6744         99
 7.71   0.0000    461.8358    724.7247     899.2142      43.5214 -20.12     0.949     0.683      2.391  0.008423109  20.6653        100
 3.70   0.0000    477.9271    923.0840     7957.631      43.5214 -28.67     1.679     1.612      2.236  0.008419294  18.2980        101
 4.34   0.0000    477.2791   1276.4363     2856.763      43.5214 -44.53     1.334     0.920      3.132  0.008423109  19.4103        102
 5.84   0.0000    488.9431    839.6031     1712.961      43.5214  87.10     2.059     0.959      2.883  0.008430733  19.9656        103
 4.14   0.0000    484.0388   1070.6680     3284.819      43.5214 -80.82     1.429     1.400      2.279  0.008425016  19.2587        104
 7.10   0.0000    475.9789   1168.4807     733.8057      43.5214  89.68     0.781     0.500      2.362  0.008425969  20.8860        105
 5.40   0.0000    496.2654     82.9187     5533.164      43.5214  66.13     2.311     2.046      3.346   0.00841834  18.6926        106
 6.87   0.0000    478.8629    682.8434      757.633      43.5214 -46.10     0.819     0.679      2.232  0.008423109  20.8514        107
 5.12   0.0000    495.7248   1186.8407     5733.323      43.5214 -15.71     2.996     1.931      3.409  0.008423109  18.6540        108
 5.26   0.0000    504.0796    762.8668     2477.886      43.5214 -10.71     1.688     1.646      2.627   0.00841834  19.5648        109
 4.77   0.0000    502.0138    863.8067     1996.618      43.5214  64.62     1.201     1.192      2.349  0.008420249  19.7993        110
 4.57   0.0000    515.3623   1461.0657     6552.575      43.5214  23.93     4.115     1.649      3.133  0.008425969  18.5090        111
 6.08   0.0000    498.0054    366.2516     889.0536      43.5214   0.37     0.926     0.749      2.302  0.008430733  20.6777        112
 6.08   0.0000    509.9191    164.8152     1890.978      43.5214  -5.95     1.820     1.073      2.952  0.008426922  19.8583        113
 4.83   0.0000    513.8598   1179.1876      2045.46      43.5214  24.06     1.285     1.178      2.289  0.008426922  19.7730        114
 5.52   0.0000    519.1540    641.9484     1225.975      43.5214  22.36     1.200     1.120      2.478  0.008428828  20.3288        115
 6.45   0.0000    518.1915   1519.1722     750.9855      43.5214  45.74     0.761     0.567      2.309  0.008425969  20.8609        116
 4.09   0.0000    540.2067    999.9378     4768.288      43.5214  61.15     1.534     1.490      2.288  0.008429781  18.8541        117
 6.53   0.0000    536.3547    404.5305     843.3725      43.5214  38.93     1.195     0.786      2.103  0.008422156  20.7350        118
 3.90   0.0000    558.9035   1041.7982     6299.724      43.5214   6.20     1.633     1.563      2.299  0.008424062  18.5517        119
 4.74   0.0000    571.3472     45.9143     4041.438      43.5214  46.17     2.084     1.522      2.377  0.008420249  19.0337        120
 5.98   0.0000    555.8228    778.8107      522.462      43.5214  44.57     0.756     0.567      2.333  0.008424062  21.2549        121
 3.50   0.0000    580.7163    144.9663     26368.89      43.5214  83.47     1.885     1.868      2.307  0.008425016  16.9973        122
 4.85   0.0000    571.3085   1447.7944     3543.955      43.5214  19.43     2.258     1.637      2.634  0.008421202  19.1763        123
 5.88   0.0000    565.0881    139.5546     946.8884      43.5214 -69.74     1.052     0.977      2.144  0.008421202  20.6093        124
 3.50   0.0000    582.1971    319.2584      26371.8      43.5214   7.31     1.887     1.830      2.218  0.008430733  16.9972        125
 4.29   0.0000    596.7602    782.6867     12395.08      43.5214 -62.08     3.302     3.182      3.599  0.008424062  17.8169        126
 5.97   0.0000    576.2225   1001.8235     1436.873      43.5214  40.80     1.216     1.076      2.417  0.008425969  20.1565        127
 4.64   0.0000    584.5398     76.0209     1906.503      43.5214  -0.84     1.205     1.138      2.288  0.008427875  19.8494        128
 4.19   0.0000   1001.5298   1555.4829     3155.232      43.5214  54.97     1.346     1.330      2.314   0.00841834  19.3024        129
 4.71   0.0000   1597.6036    654.7847     537.0844      43.5214   1.75     1.659     1.434      2.531  0.007244081  21.2249        130
 5.16   0.0000   1594.7568    374.1190     722.6755      43.5214  42.74     1.307     1.027      1.923  0.008139931  20.9026        131
 4.05   0.0000   1584.9181   1108.9316     3306.704      43.5214 -15.59     1.433     1.357      2.234  0.008420249  19.2515        132
 6.78   0.0000   1585.9497   1069.5099     785.9357      43.5214 -88.96     0.783     0.500      2.468  0.008421202  20.8115        133
 3.60   0.0000   1541.8564    135.1745     9302.622      43.5214  54.68     1.663     1.623      2.195  0.008426922  18.1285        134
 8.74   0.0000   1519.3268     85.3294     813.7737      43.5214 -44.88     0.573     0.336      1.891  0.008417387  20.7737        135
 4.79   0.0000   1514.6519    483.6263     1157.297      43.5214 -43.74     1.049     0.951      2.387  0.008427875  20.3914        136
 4.90   0.0000    912.4185   1001.2366     1346.646      43.5214  73.44     0.989     0.957      2.255  0.008426922  20.2269        137
 3.50   0.0000    900.4997    302.8331     17866.96      43.5214 -64.19     1.794     1.787      2.312  0.008416432  17.4199        138
 4.92   0.0000    896.1861    538.5018     3730.819      43.5214   6.05     1.942     1.608      2.335  0.008422156  19.1205        139
 5.31   0.0000    893.7880   1426.2821     1168.088      43.5214 -16.60     0.974     0.854      2.218  0.008426922  20.3813        140
 3.50   0.0000    880.2065   1592.6320     183025.3      43.5214 -83.52     2.300     2.188      2.245  0.008427875  14.8937        141
 6.04   0.0000    888.8303    325.8213     2000.104      43.5214  17.19     1.767     1.100      2.198  0.008425016  19.7974        142
 8.02   0.0000    888.6788    681.3232     480.3019      43.5214  44.90     0.568     0.338      2.349  0.008422156  21.3462        143
 4.51   0.0000    885.7850   1500.2664     2353.902      43.5214  10.00     1.303     1.227      2.214  0.008428828  19.6205        144
 7.04   0.0000    885.0953    339.2578     1211.575      43.5214  -2.69     1.149     0.882      2.425   0.00841834  20.3416        145
 4.70   0.0000    877.6797    961.0908     1356.113      43.5214  27.86     1.126     1.034      2.216  0.008420249  20.2193        146
 6.46   0.0000    876.3213    541.9203     677.0477      43.5214  -7.28     0.737     0.667      2.195  0.008420249  20.9735        147
 4.13   0.0000    869.4717   1103.7170     7070.311      43.5214 -55.22     1.983     1.793      2.395   0.00841834  18.4264        148
 4.96   0.0000    867.9886    939.9118     2911.851      43.5214  41.19     1.806     1.355      2.212  0.008425016  19.3896        149
 6.15   0.0000    869.3575    643.8528     1049.482      43.5214  68.50     0.904     0.687      2.332  0.008425969  20.4976        150
 8.15   0.0000    860.4996   1554.4683     437.5461      43.5214  48.21     0.504     0.495      2.264  0.008421202  21.4474        151
 4.53   0.0000    858.5098   1339.6924     1741.433      43.5214 -89.55     1.308     1.113      2.267  0.008417387  19.9477        152
 9.07   0.0000    855.5103    545.4817     754.1341      43.5214 -46.32     0.502     0.497      2.168  0.008419294  20.8564        153
 4.16   0.0000    844.9837   1063.9657     1640.875      43.5214   1.03     1.169     1.133      2.284  0.008425969  20.0123        154
 4.40   0.0000    843.3248   1106.2646     2914.396      43.5214  40.34     1.667     1.341      2.180   0.00841834  19.3886        155
 4.56   0.0000    836.6466    298.8450     4043.005      43.5214  11.92     1.467     1.396      2.339  0.008427875  19.0332        156
 6.83   0.0000    836.6003   1520.7371     539.4343      43.5214  18.11     0.733     0.456      2.239  0.008430733  21.2202        157
 5.73   0.0000    835.6805    819.1954     730.7272      43.5214 -72.93     0.960     0.861      2.211  0.008425969  20.8906        158
 3.50   0.0000    822.9877    654.4249     17887.04      43.5214  74.96     1.838     1.773      2.276  0.008424062  17.4187        159
 7.91   0.0000    819.4906   1398.4888      599.681      43.5214  46.70     0.500     0.500      2.424  0.008417387  21.1052        160
 3.50   0.0000    803.0379   1378.7590     16468.88      43.5214 -72.46     1.796     1.752      2.293  0.008427875  17.5083        161
 3.50   0.0000    798.4418    695.7374     46133.47      43.5214 -88.12     2.639     1.966      2.893  0.008424062  16.3900        162
 4.17   0.0000    800.7010     41.1932     7907.047      43.5214 -23.53     1.671     1.577      2.304  0.008422156  18.3050        163
 4.28   0.0000    774.2634   1427.3890     6417.077      43.5214  89.63     2.902     1.909      3.194  0.008430733  18.5317        164
 7.20   0.0000    768.0129    140.0102     966.5801      43.5214  44.98     0.806     0.795      2.377  0.008422156  20.5869        165
 4.24   0.0000    742.8162    556.3451     4026.948      43.5214 -57.68     1.449     1.420      2.257  0.008427875  19.0376        166
 4.32   0.0000    738.1102   1158.1116     1407.866      43.5214  47.36     1.221     1.121      2.260  0.008416432  20.1786        167
 5.08   0.0000    736.0913    649.8519     1581.721      43.5214 -38.54     1.206     1.123      2.243  0.008421202  20.0522        168
 3.50   0.0000    726.6004    848.5243     157065.1      43.5214 -72.04     2.212     2.178      2.314  0.008426922  15.0598        169
 3.87   0.0000    727.4650   1178.3309     2905.521      43.5214 -10.14     1.394     1.328      2.243  0.008420248  19.3919        170
 5.23   0.0000    721.4345   1395.1035     1019.932      43.5214  16.01     1.086     0.953      2.118   0.00841834  20.5286        171
 3.96   0.0000    715.8315    808.4100     3651.263      43.5214  51.69     1.425     1.393      2.244  0.008425969  19.1439        172
 3.99   0.0000    708.9626   1163.8940     3697.805      43.5214  20.90     1.464     1.393      2.284   0.00841834  19.1301        173
 4.42   0.0000    704.4229   1339.0634     4123.185      43.5214 -25.11     1.700     1.462      2.482  0.008427875  19.0119        174
 3.68   0.0000    702.8209    952.5522     6714.592      43.5214  -9.41     1.630     1.577      2.279  0.008426922  18.4825        175
 6.02   0.0000    699.1675    582.7174      1559.87      43.5214   5.06     1.844     0.873      2.063  0.008424062  20.0673        176
 5.87   0.0000    691.6353   1213.6743     2498.374      43.5214  87.83     1.432     1.241      3.018  0.008423109  19.5559        177
 6.00   0.0000    686.6937   1213.8435     1392.841      43.5214 -47.21     1.217     0.958      2.217  0.008417387  20.1902        178
 4.18   0.0000    685.6500    644.3535     5505.693      43.5214 -73.12     1.594     1.581      2.259  0.008427875  18.6980        179
 5.68   0.0000    687.6556    130.9231     910.6878      43.5214  76.35     0.983     0.752      2.339  0.008422156  20.6516        180
 7.44   0.0000    668.9944   1221.5293     1116.458      43.5214  -0.05     0.827     0.706      2.537  0.008427875  20.4304        181
 3.50   0.0000    648.2678   1464.4448     151482.1      43.5214 -76.52     2.214     2.143      2.306  0.008423109  15.0991        182
 5.07   0.0000    654.6734    870.9016     1630.876      43.5214  21.01     1.193     1.057      2.305   0.00841834  20.0189        183
 6.84   0.0000    645.7944    653.0030     823.6147      43.5214 -88.71     0.912     0.756      2.295  0.008422156  20.7607        184
 7.26   0.0000    641.1874    276.8223     746.5514      43.5214 -45.77     0.755     0.569      2.363  0.008423109  20.8673        185
 4.14   0.0000    630.8300    806.1274     1769.052      43.5214 -34.12     1.204     1.125      2.318  0.008425016  19.9306        186
 4.30   0.0000    623.4095   1581.5348     3079.846      43.5214  49.39     1.346     1.338      2.376  0.008430733  19.3287        187
 7.18   0.0000    618.1836   1151.1306     908.3984      43.5214 -37.45     0.897     0.874      2.448  0.008429781  20.6543        188
 8.09   0.0000    609.5256    945.4929      833.522      43.5214  42.34     0.503     0.496      2.495  0.008420248  20.7477        189
 3.50   0.0000   1563.6936    304.2686     141004.5      43.5214 -77.52     2.157     2.117      2.290  0.008420249  15.1769        190
 4.14   0.0000   1566.7208     22.0779     5878.988      43.5214  75.11     1.574     1.553      2.186  0.008421202  18.6267        191
 3.94   0.0000   1542.6152    654.7387     6580.219      43.5214  29.79     1.579     1.560      2.253  0.008425016  18.5044        192
 3.50   0.0000   1558.0082    487.7251     139370.5      43.5214 -78.65     2.166     2.125      2.308  0.008428828  15.1896        193
 4.16   0.0000   1570.5596     92.7663     4476.214      43.5214  -2.72     1.453     1.398      2.248  0.008428828  18.9227        194
 4.48   0.0000   1546.1006    863.5362      2167.73      43.5214  60.15     1.564     1.328      2.270  0.008421202  19.7100        195
 4.36   0.0000   1561.3612    861.4875     2905.941      43.5214  19.18     1.352     1.338      2.198  0.008423109  19.3918        196
 4.38   0.0000   1565.7378    784.6730     3921.049      43.5214 -79.11     1.769     1.443      2.451  0.008421202  19.0665        197
 5.18   0.0000   1550.8444   1221.8484     1084.761      43.5214  42.51     1.082     0.925      2.453  0.008426922  20.4617        198
 3.57   0.0000   1552.6281    682.2971        46964      43.5214 -26.44     4.582     3.959      3.499  0.008419294  16.3706        199
 7.80   0.0000   1535.9841   1428.9976     1020.703      43.5214 -45.55     0.927     0.527      2.825  0.008423109  20.5278        200
 7.00   0.0000   1532.4937    415.7445     1290.675      43.5214 -84.33     1.017     0.979      2.449  0.008420249  20.2730        201
 7.59   0.0000   1519.9943   1100.7047     779.6873      43.5214  89.07     0.749     0.679      2.469  0.008423109  20.8202        202
 4.09   0.0000    928.4031   1322.5200     3038.977      43.5214 -44.27     1.357     1.342      2.303  0.008426922  19.3432        203
 3.50   0.0000   1514.9222    392.7349     20810.49      43.5214  66.54     1.807     1.797      2.286  0.008419294  17.2543        204
 6.00   0.0000   1515.4878   1547.1486     1438.404      43.5214  74.03     1.048     0.871      2.152  0.008420249  20.1553        205
 3.50   0.0000   1507.1836    269.3994     80177.16      43.5214 -82.06     2.049     2.030      2.300  0.008423109  15.7899        206
 5.55   0.0000   1498.4597    844.2532     767.8491      43.5214 -25.00     0.883     0.757      2.439  0.008422156  20.8368        207
 4.56   0.0000   1504.1298    723.3583     2325.215      43.5214  14.84     1.297     1.162      2.329  0.008425016  19.6338        208
 3.97   0.0000    939.1798   1067.2053     5170.747      43.5214 -23.40     1.522     1.452      2.274  0.008424062  18.7661        209
 6.96   0.0000   1488.2819     78.0035     756.4651      43.5214  -1.74     0.735     0.681      2.449  0.008425016  20.8530        210
 3.92   0.0000    912.8765    838.6033     2431.483      43.5214  -0.15     1.305     1.218      2.218  0.008425969  19.5853        211
 5.67   0.0000    950.7991    654.3572     1868.589      43.5214  65.98     1.507     1.354      2.505  0.008428828  19.8712        212
 5.84   0.0000    947.8477    445.1833     1169.016      43.5214  47.70     0.889     0.856      2.213  0.008426922  20.3804        213
 5.26   0.0000   1065.7639   1597.2657     239.4947      43.5214 -14.20     0.952     0.861      0.969  0.007373744  22.1018        214
 7.26   0.0000    938.5413    516.3163     1529.261      43.5214  57.72     1.300     0.997      2.517  0.008420249  20.0888        215
 7.66   0.0000   1474.9158    998.3757     1389.624      43.5214 -14.25     1.054     0.754      2.776  0.008425016  20.1928        216
 6.42   0.0000   1482.4310    575.2145     1393.331      43.5214 -30.81     1.204     0.969      2.717  0.008427875  20.1899        217
 5.80   0.0000   1438.6464   1271.3108      1042.37      43.5214 -45.87     0.991     0.878      2.183  0.008420249  20.5049        218
 5.08   0.0000   1072.1349   1219.1719     5166.075      43.5214 -73.97     2.049     1.696      2.578  0.008425016  18.7671        219
 4.97   0.0000   1079.4351    330.1989     1364.354      43.5214   1.47     1.167     0.990      2.159  0.008423109  20.2127        220
 3.95   0.0000   1415.4110   1386.6447     4569.165      43.5214  75.55     1.498     1.406      2.241  0.008425969  18.9004        221
 3.55   0.0000   1107.4796    428.0644     18817.05      43.5214  29.41     1.816     1.783      2.229   0.00841834  17.3636        222
 3.50   0.0000   1081.7991   1148.2404     25705.27      43.5214  77.56     1.859     1.838      2.221  0.008426922  17.0249        223
 5.70   0.0000   1066.6768    569.0727     727.5663      43.5214 -72.74     1.032     0.751      2.494  0.008420249  20.8953        224
 6.53   0.0000   1110.7510    479.0507     3278.205      43.5214  19.20     1.749     1.562      3.014  0.008428828  19.2609        225
 3.54   0.0000   1435.3314    224.8159     9640.623      43.5214  21.04     1.687     1.611      2.269  0.008428828  18.0897        226
 6.26   0.0000   1090.9882    468.1736     1894.831      43.5214 -62.75     1.759     1.048      2.970  0.008425016  19.8561        227
 7.39   0.0000   1441.0785   1082.6284     293.1256      43.5214  43.16     2.974     0.680      5.748  0.008423109  21.8824        228
 4.76   0.0000   1411.0619    350.0085     1823.557      43.5214  44.81     1.366     1.125      2.227  0.008430733  19.8977        229
 8.08   0.0000   1453.3318    391.6697      472.182      43.5214  45.06     0.575     0.334      2.302   0.00841834  21.3647        230
 3.54   0.0000   1439.7888    619.2131     6985.556      43.5214 -62.85     1.575     1.554      2.227  0.008423109  18.4395        231
 3.50   0.0000   1393.4050    114.5455       183820      43.5214 -80.89     2.215     2.169      2.343  0.008431686  14.8890        232
 6.42   0.0000   1436.1945   1347.1851     600.8245      43.5214  46.04     0.748     0.567      2.442  0.008422156  21.1031        233
 4.63   0.0000   1120.3417    329.8551     5515.886      43.5214  55.81     2.503     1.644      2.571  0.008421202  18.6960        234
 6.70   0.0000   1431.9259    340.6477     1244.886      43.5214  15.34     1.044     0.753      2.541  0.008421202  20.3122        235
 4.82   0.0000   1129.1801    547.4301     1847.866      43.5214  54.92     1.192     1.121      2.152  0.008425969  19.8833        236
 3.50   0.0000   1408.2377    308.3844     6877.806      43.5214  -7.03     1.547     1.510      2.211  0.008427875  18.4564        237
 5.35   0.0000   1400.5464   1031.5027     2084.954      43.5214  31.11     1.429     1.368      2.225  0.008417387  19.7523        238
 3.50   0.0000   1388.6937   1428.5571     20154.97      43.5214  55.76     1.789     1.763      2.297  0.008417387  17.2890        239
 6.79   0.0016   1412.1804      1.3059     4.194851      43.5214 -77.74     1.083     0.409      2.553  0.006352118  26.4932        240
 4.72   0.0000   1406.3345    329.8578     1364.052      43.5214  26.69     1.130     1.025      2.345  0.008421202  20.2129        241
 4.65   0.0000   1330.5002    386.9715     1356.179      43.5214   3.29     1.098     0.952      2.216  0.008419294  20.2192        242
 4.79   0.0000   1259.4657    432.5281     3207.421      43.5214  25.38     1.823     1.760      2.758  0.008419294  19.2846        243
 3.68   0.0000   1278.0730   1331.4478     11889.99      43.5214  82.55     1.714     1.699      2.225  0.008421202  17.8620        244
 3.79   0.0000   1390.4578    713.3802     6572.831      43.5214  43.10     1.588     1.550      2.257  0.008427875  18.5056        245
 5.96   0.0000   1388.9021    806.6555     1008.338      43.5214  13.85     0.984     0.753      2.322  0.008417387  20.5410        246
 4.34   0.0000   1392.2596   1038.8943     4580.064      43.5214   8.71     1.474     1.451      2.292  0.008421202  18.8978        247
 3.53   0.0000   1218.8743   1195.0033        25048      43.5214  54.82     1.997     1.952      2.147  0.008429781  17.0531        248
 6.99   0.0000   1291.8092    546.1708     658.8436      43.5214 -44.88     0.757     0.568      2.033  0.008425969  21.0030        249
 3.56   0.0000   1210.6931   1279.0286     24943.01      43.5214  82.87     5.696     3.445      4.556  0.008422156  17.0576        250
 3.82   0.0000   1292.8365    412.6910     2407.865      43.5214 -22.03     1.326     1.267      2.432  0.008421202  19.5959        251
 8.47   0.0000   1262.3208    216.3072     538.3788      43.5214 -45.74     0.560     0.342      2.129  0.008420249  21.2223        252
 8.25   0.0000   1379.3267    319.3086     804.4494      43.5214 -45.93     0.563     0.340      1.997  0.008420249  20.7863        253
 8.27   0.0000   1352.4868    152.2023     1105.184      43.5214 -89.11     1.011     0.738      2.866  0.008423109  20.4414        254
 3.50   0.0000   1372.5312   1019.0457     23355.83      43.5214 -41.64     1.951     1.869      2.243  0.008424062  17.1290        255
 3.50   0.0000   1320.0488    660.0613     74000.71      43.5214  75.91     2.093     2.039      2.262  0.008422156  15.8769        256
 5.87   0.0000   1293.5828    742.1906     2552.982      43.5214 -15.99     1.535     1.440      2.376  0.008422156  19.5324        257
 7.00   0.0000   1346.3284    605.1111     721.7476      43.5214 -68.97     0.936     0.689      2.325  0.008420249  20.9040        258
 3.97   0.0000   1329.8187    655.9049     7824.745      43.5214  67.51     1.921     1.813      2.326  0.008423109  18.3163        259
 4.12   0.0000   1332.9294    107.4837     2155.875      43.5214  -2.81     1.329     1.158      2.113   0.00841834  19.7159        260
 3.50   0.0000   1298.3828    724.9477     415367.3      43.5214 -51.40     2.371     2.297      2.343  0.008427875  14.0039        261
 4.19   0.0000   1304.7047    892.9962      1954.16      43.5214 -75.91     1.297     1.172      2.256  0.008422156  19.8226        262
 4.08   0.0000   1319.2585    264.1429     1838.076      43.5214   6.39     1.181     1.123      2.289  0.008421202  19.8891        263
 4.31   0.0000   1307.5262    669.7034     6975.315      43.5214 -32.49     1.629     1.592      2.266  0.008419294  18.4411        264
 3.65   0.0000   1272.7618    610.0184     29513.31      43.5214 -58.16     4.190     2.580      3.129  0.008427875  16.8750        265
 5.69   0.0000   1299.3568     54.0625     814.6896      43.5214 -68.39     0.901     0.697      2.274  0.008424062  20.7725        266
 3.52   0.0000   1291.4148    762.2641     16402.17      43.5214 -23.95     2.297     1.839      2.105  0.008425016  17.5127        267
 3.56   0.0000   1265.4564    807.9594      8675.91      43.5214  -7.96     1.661     1.612      2.229  0.008423109  18.2042        268
 6.36   0.0000   1273.6595    698.0986     696.4601      43.5214  68.67     0.919     0.693      2.655   0.00841834  20.9428        269
 4.97   0.0000   1228.6499   1153.6350     1098.665      43.5214  43.00     0.997     0.872      2.424  0.008426922  20.4478        270
 5.85   0.0000   1262.1962    855.0399     967.4587      43.5214 -88.04     0.907     0.755      2.470  0.008425016  20.5859        271
 5.76   0.0000   1212.7454   1429.5703      4142.39      43.5214  66.31     2.076     1.803      3.141  0.008427875  19.0069        272
 4.06   0.0000   1237.0374   1553.6448     4500.373      43.5214 -72.17     1.471     1.442      2.283  0.008427875  18.9169        273
 6.33   0.0000   1229.7732    599.1249     1961.656      43.5214 -25.96     1.422     1.267      2.647  0.008424062  19.8184        274
 3.50   0.0000   1234.4055    304.8864     7487.765      43.5214   0.76     1.619     1.566      2.256  0.008424062  18.3641        275
 5.14   0.0000   1237.6368     48.3455     1385.334      43.5214  42.97     1.043     0.951      2.177  0.008425969  20.1961        276
 4.28   0.0000   1207.6377    838.9413     4422.299      43.5214  35.87     1.470     1.451      2.251  0.008425969  18.9359        277
 3.50   0.0000   1214.6141    513.0945     39135.86      43.5214  -0.90     1.943     1.918      2.260  0.008423109  16.5686        278
 4.24   0.0000   1200.8662   1442.2368     2757.046      43.5214 -76.41     1.564     1.485      2.375  0.008425016  19.4489        279
 7.93   0.0000   1204.4742   1217.4802     661.6615      43.5214  43.31     0.502     0.497      2.167  0.008420248  20.9984        280
 5.08   0.0000   1194.9722    124.1294     4739.031      43.5214 -83.39     1.957     1.669      2.728  0.008425969  18.8608        281
 3.91   0.0000   1201.8915    339.0921     4245.357      43.5214  41.67     1.528     1.455      2.253  0.008416432  18.9802        282
 5.34   0.0000   1130.2582    219.7123     1606.735      43.5214  22.28     1.184     1.117      2.202  0.008421202  20.0351        283
 3.50   0.0000   1138.5420    148.1507     76506.71      43.5214  77.75     2.097     2.062      2.254  0.008424062  15.8408        284
 5.95   0.0000   1181.9745    176.1647     843.0577      43.5214   3.89     0.910     0.759      2.279  0.008426922  20.7354        285
 4.90   0.0000   1180.9506    549.4130     1486.489      43.5214  37.05     1.159     1.067      2.279  0.008428828  20.1196        286
 4.68   0.0000   1153.5942   1353.1537     2112.854      43.5214  23.71     1.498     1.327      2.325  0.008428828  19.7378        287
 3.50   0.0000   1165.1395   1299.8351     118174.9      43.5214 -78.19     2.141     2.108      2.339  0.008425969  15.3687        288
 3.50   0.0000   1129.9851    183.6115     42013.52      43.5214  -6.31     1.968     1.954      2.318  0.008424062  16.4915        289
 3.53   0.0000   1157.8691    236.5205     15765.41      43.5214 -59.07     1.775     1.768      2.243  0.008419294  17.5557        290
 5.31   0.0000   1161.7438    887.7606     1690.007      43.5214 -40.77     1.157     1.096      2.320  0.008425969  19.9803        291
 4.11   0.0000   1151.2296     99.5155     3979.702      43.5214   1.70     1.475     1.409      2.275  0.008425016  19.0504        292
 6.72   0.0000   1131.0312    359.2770     593.5948      43.5214  79.06     0.733     0.682      2.132  0.008424062  21.1163        293
 3.50   0.0000   1079.9672    512.2063     80777.09      43.5214  74.02     2.099     2.081      2.260  0.008425969  15.7818        294
 4.04   0.0000   1095.4258   1526.6967      2528.21      43.5214  64.24     1.332     1.261      2.307  0.008422156  19.5430        295
 7.24   0.0000   1086.1484   1452.8627     768.2138      43.5214  46.36     0.838     0.678      2.366  0.008422156  20.8363        296
 7.41   0.0000   1090.0991    782.8873     66740.62      43.5214  45.01     1.234     0.538      3.745  0.008416432  15.9890        297
 5.92   0.0000   1094.6758   1136.2837     748.7158      43.5214  42.84     0.939     0.754      2.349  0.008419294  20.8642        298
 7.13   0.0000    978.4573    452.7135     1172.028      43.5214 -88.97     0.999     0.961      2.329  0.008421202  20.3777        299
 7.77   0.0000   1088.0132    397.0000     740.4458      43.5214  90.00     0.850     0.289      2.075  0.008425016  20.8763        300
 5.99   0.0000   1065.1993   1563.2179     3013.701      43.5214 -50.91     1.822     1.345      2.951  0.008424062  19.3522        301
 3.50   0.0000    984.8825    558.5286     72940.88      43.5214  86.99     2.062     2.035      2.305   0.00841834  15.8926        302
 3.50   0.0000   1009.8115    813.7941     44226.23      43.5214 -23.06     1.976     1.963      2.283  0.008419294  16.4358        303
 5.37   0.0000    965.2351    416.4796     1168.088      43.5214   9.67     0.991     0.951      2.289  0.008423109  20.3813        304
 5.22   0.0000    980.8171    797.9382     2636.877      43.5214 -22.95     1.473     1.417      2.484  0.008424062  19.4973        305
 3.50   0.0000   1040.2435    633.1321     100644.7      43.5214 -86.88     2.148     2.116      2.290  0.008424062  15.5430        306
 3.50   0.0000   1038.7074    525.4634     23454.61      43.5214 -89.92     1.895     1.851      2.247  0.008421202  17.1244        307
 4.72   0.0000   1030.4277    302.7162     4478.004      43.5214  61.98     2.411     1.679      2.872  0.008424062  18.9223        308
 5.83   0.0000    986.6929    454.0457     3761.205      43.5214  71.21     1.721     1.537      2.936  0.008417387  19.1117        309
 8.75   0.0000   1014.5078    453.4610     634.5906      43.5214 -62.89     0.500     0.498      1.980  0.008421202  21.0438        310
 6.43   0.0000    998.0614    233.3179      619.173      43.5214  83.83     0.736     0.671      2.599  0.008419294  21.0705        311
 3.50   0.0000   1025.7098   1380.0499     49055.38      43.5214  87.42     2.054     1.952      2.293  0.008421202  16.3233        312
 3.80   0.0000   1011.3396    344.7471     6948.354      43.5214 -55.24     1.591     1.561      2.321  0.008422156  18.4453        313
 8.38   0.0000   1011.2415    267.9928     918.6227      43.5214   0.33     0.699     0.428      2.054  0.008426922  20.6422        314
 4.30   0.0000    999.9335   1273.7820     2265.327      43.5214 -27.04     1.275     1.172      2.314  0.008425969  19.6622        315
 4.10   0.0000   1001.6805    542.7173     7417.559      43.5214  12.75     1.658     1.575      2.236  0.008419294  18.3743        316
