#   1 KRON_RADIUS            Kron apertures in units of A or B                         
#   2 MAGERR_APER            RMS error vector for fixed aperture mag.                   [mag]
#   3 Y_IMAGE                Object position along y                                    [pixel]
#   4 X_IMAGE                Object position along x                                    [pixel]
#   5 FLUX_APER              Flux vector within fixed circular aperture(s)              [count]
#   6 THRESHOLD              Detection threshold above background                       [count]
#   7 THETA_IMAGE            Position angle (CCW/x)                                     [deg]
#   8 A_IMAGE                Profile RMS along major axis                               [pixel]
#   9 B_IMAGE                Profile RMS along minor axis                               [pixel]
#  10 FLUX_RADIUS            Fraction-of-light radii                                    [pixel]
#  11 FLUXERR_APER           RMS error vector for aperture flux(es)                     [count]
#  12 MAG_APER               Fixed aperture magnitude vector                            [mag]
#  13 NUMBER                 Running object number                                     
 4.23   0.0000     53.2652     63.6543     95606.92      43.5214   3.17     5.181     4.630      3.409   0.01689667  15.5988          1
 3.95   0.0000     16.5149    985.0804     15046.85      43.5214 -88.61     4.203     1.941      2.934   0.01689093  17.6064          2
 4.06   0.0000     18.0504     91.3141     12664.75      43.5214   0.42     1.768     1.716      1.995   0.01689475  17.7935          3
 3.50   0.0000     14.6167   1445.7477     28713.93      43.5214 -47.82     1.890     1.819      2.073   0.01690814  16.9048          4
 8.12   0.0000     10.2946   1183.6542      562.152      43.5214  42.42     0.565     0.339      2.126   0.01689093  21.1754          5
 7.36   0.0000      4.2259    145.0241     708.2824      43.5214  89.83     0.957     0.768      2.643   0.01514318  20.9245          6
 6.64   0.0000     17.2495    384.5071     1275.042      43.5214  19.99     0.993     0.952      1.997   0.01688901  20.2862          7
 5.14   0.0000     24.7971    367.2085     2673.996      43.5214  13.81     1.305     1.234      2.028   0.01689667  19.4821          8
 3.50   0.0000     59.7850   1078.4766     113008.4      43.5214  77.02     2.287     2.159      2.130   0.01691388  15.4172          9
 8.57   0.0000     23.7800    383.3999     1411.983      43.5214 -71.85     0.755     0.452      2.157    0.0169024  20.1754         10
 6.41   0.0000     33.9023   1110.1802     1374.889      43.5214  68.24     1.657     0.778      2.248   0.01689475  20.2043         11
 7.88   0.0000     33.3076    326.9492     935.8609      43.5214  -6.92     0.747     0.677      2.221   0.01689284  20.6220         12
 5.98   0.0000     37.8655   1521.1591     865.9158      43.5214  46.72     0.834     0.669      2.147    0.0169024  20.7063         13
 7.05   0.0000     38.8750   1170.6508     867.8035      43.5214 -19.52     0.923     0.691      2.118   0.01689093  20.7039         14
 5.87   0.0000     42.4605    915.4996     1149.673      43.5214 -77.10     0.913     0.907      2.005   0.01688901  20.3986         15
 3.50   0.0000     80.1536    537.6561     105462.4      43.5214 -59.56     2.145     2.122      2.027   0.01690049  15.4923         16
 9.02   0.0000     44.6655    440.6699     1067.136      43.5214 -45.19     0.576     0.334      1.846   0.01689284  20.4795         17
 4.26   0.0000     75.2162    128.0142     5338.175      43.5214  -5.75     1.516     1.469      2.149    0.0169024  18.7315         18
 6.64   0.0000     82.2787    421.5101     1176.707      43.5214 -15.66     0.994     0.986      2.223   0.01688901  20.3733         19
 3.50   0.0000    121.8120    789.2006     163016.3      43.5214 -62.81     2.230     2.179      2.062    0.0169024  15.0194         20
 6.02   0.0000     90.7295    376.9918     2940.541      43.5214   4.47     1.628     1.442      2.633   0.01691005  19.3789         21
 4.42   0.0000     96.6151     56.2576     7879.533      43.5214 -38.95     1.639     1.566      2.012   0.01690432  18.3087         22
 6.10   0.0000     98.0585    452.9797     1872.136      43.5214 -14.82     1.454     1.005      2.151   0.01690814  19.8692         23
 7.39   0.0000     91.4945    495.9650     938.0714      43.5214  -1.40     0.788     0.500      2.124   0.01689093  20.6194         24
 3.50   0.0000    162.2989   1468.3301     87038.56      43.5214 -48.48     2.111     2.074      2.073   0.01689284  15.7007         25
 6.85   0.0000    131.2865    418.0175     825.1475      43.5214   5.64     0.729     0.681      2.200   0.01690049  20.7587         26
 3.55   0.0000    170.2996    877.3505     23275.09      43.5214  -8.96     1.882     1.865      2.035   0.01687944  17.1328         27
 8.52   0.0000    151.4999   1280.4825     619.2025      43.5214 -47.88     0.501     0.498      1.887   0.01688135  21.0704         28
 5.51   0.0000    164.9741   1445.6677     2269.844      43.5214  17.35     1.303     1.186      2.109   0.01690432  19.6600         29
 4.82   0.0000    166.8505    104.4303     1734.895      43.5214 -46.35     1.196     1.124      1.968   0.01690814  19.9518         30
 6.42   0.0000    169.3397   1368.8977     880.4132      43.5214  68.06     0.910     0.689      2.108   0.01688901  20.6883         31
 7.68   0.0000    180.3316    574.9897     1128.405      43.5214  53.18     1.039     0.643      2.100   0.01691196  20.4188         32
 7.49   0.0000    186.6387   1354.8976     1203.889      43.5214  75.59     1.045     0.753      2.346    0.0168871  20.3485         33
 5.30   0.0000    192.6023   1350.5554      2868.32      43.5214 -19.15     1.368     1.305      2.036   0.01691196  19.4059         34
 4.77   0.0000    210.7202    827.6749      11258.9      43.5214  -5.78     3.810     2.091      2.920   0.01689475  17.9213         35
 4.14   0.0000    206.7225    549.0807      5491.59      43.5214   3.37     1.545     1.484      2.072   0.01689667  18.7008         36
 4.19   0.0000    212.1664   1306.1005      5538.44      43.5214 -64.54     1.516     1.487      2.115   0.01688327  18.6915         37
 5.52   0.0000    230.1494    562.2775     10372.87      43.5214 -37.31     3.231     3.004      4.234   0.01689093  18.0103         38
 5.76   0.0000    210.8939    684.8484     1657.689      43.5214 -66.39     1.218     1.115      2.147   0.01688901  20.0012         39
 3.50   0.0000    259.7588    997.4791     286979.1      43.5214 -48.81     2.331     2.263      2.081   0.01689858  14.4054         40
 3.92   0.0000    223.9121   1226.0618     6451.246      43.5214  25.89     1.523     1.479      2.085   0.01689284  18.5259         41
 4.86   0.0000    222.6267    774.9695     2318.768      43.5214  81.57     1.224     1.191      2.024   0.01690432  19.6369         42
 3.50   0.0000    265.9002     67.6173     209856.8      43.5214 -49.31     2.268     2.237      2.053   0.01689475  14.7452         43
 5.52   0.0000    243.9732    112.8913     3890.724      43.5214 -88.19     1.951     1.539      2.630   0.01689667  19.0749         44
 4.81   0.0000    255.4885    613.0098     10456.35      43.5214 -41.01     2.436     2.028      2.403    0.0169024  18.0015         45
 6.52   0.0000    239.3535    838.8231     1727.755      43.5214  -5.84     1.203     1.102      2.213   0.01690623  19.9563         46
 7.18   0.0000    250.5180    107.4840     1404.032      43.5214 -42.78     1.108     0.852      2.156   0.01689092  20.1816         47
 3.50   0.0000    287.5196   1486.4733     50300.53      43.5214 -43.97     2.033     1.992      2.092   0.01689284  16.2961         48
 3.66   0.0000    281.9236   1522.4003     13736.51      43.5214   3.77     1.701     1.668      1.990   0.01690432  17.7053         49
 6.46   0.0000    270.7727   1273.6278     1158.973      43.5214  16.49     1.000     0.849      1.963   0.01690623  20.3898         50
 3.50   0.0000    303.1506    201.7659     38429.28      43.5214 -78.11     1.968     1.942      2.074   0.01690432  16.5883         51
 6.27   0.0000    293.2967   1475.8354      1515.46      43.5214 -33.66     1.250     1.086      1.988   0.01688518  20.0986         52
 4.64   0.0000    302.2875    563.6751     2291.712      43.5214  31.81     1.325     1.283      2.072   0.01688901  19.6496         53
 3.50   0.0000    322.0853    697.3419     27365.13      43.5214   1.78     1.882     1.848      1.976   0.01689475  16.9570         54
 7.64   0.0000    308.7069     85.2985     1128.807      43.5214  45.78     0.969     0.767      2.251    0.0168871  20.4184         55
 6.05   0.0000    321.9905    641.4783     2791.106      43.5214 -64.00     1.799     1.232      2.810   0.01690623  19.4356         56
 5.16   0.0000    327.5369    595.4523      5423.04      43.5214 -52.10     1.728     1.694      2.199   0.01689667  18.7144         57
 6.07   0.0000    329.2517   1546.0168     1065.858      43.5214 -87.78     0.913     0.756      2.190   0.01690814  20.4808         58
 5.83   0.0000    332.2679     93.4347     1541.783      43.5214  20.40     0.992     0.948      1.975   0.01690432  20.0799         59
 4.78   0.0000    350.1319     54.7084     2992.536      43.5214  -8.51     1.366     1.298      1.955   0.01689093  19.3599         60
 3.50   0.0000    368.1670    761.1217     26350.82      43.5214 -26.12     1.940     1.871      2.046   0.01690049  16.9980         61
 4.02   0.0000    361.1491   1500.4037     5659.236      43.5214 -15.08     1.586     1.464      2.093   0.01691388  18.6681         62
 3.50   0.0000    395.2009    231.4691     115311.9      43.5214 -63.05     2.184     2.143      2.050   0.01691005  15.3953         63
 5.78   0.0000    360.5269   1034.0070     1685.843      43.5214  -1.40     1.111     0.957      2.121   0.01691005  19.9830         64
 6.91   0.0000    375.4792    754.0627      1619.95      43.5214  56.22     1.715     0.961      1.963   0.01689093  20.0262         65
 7.68   0.0000    370.3091     71.9499     1089.142      43.5214 -10.89     0.743     0.672      2.106   0.01689667  20.4573         66
 6.47   0.0000    373.4826   1083.8826     1306.124      43.5214 -17.84     1.100     0.990      2.297   0.01689093  20.2600         67
 6.41   0.0002    380.6161      1.4882     88.61497      43.5214 -89.79     1.601     0.500      2.930   0.01291506  23.1812         68
 3.50   0.0000    397.0519   1461.2017     20043.67      43.5214 -44.85     1.804     1.797      2.073   0.01691388  17.2951         69
 3.50   0.0000    398.1799    354.6261     21894.06      43.5214 -13.53     1.890     1.844      2.010    0.0169024  17.1992         70
 8.09   0.0000    375.6552     87.2937     847.3633      43.5214  47.61     0.564     0.339      1.951   0.01689284  20.7298         71
 6.71   0.0000    380.1594    125.8447       994.97      43.5214  44.65     0.818     0.680      1.938   0.01690623  20.5555         72
 4.22   0.0000    393.8183   1088.7736     5067.836      43.5214 -35.06     1.516     1.449      1.916   0.01690432  18.7879         73
 8.89   0.0000    382.4900     67.5055     725.7673      43.5214 -44.69     0.503     0.497      1.854   0.01688518  20.8980         74
 8.07   0.0000    388.6902   1195.3347     508.4843      43.5214  43.77     0.567     0.338      2.275   0.01689667  21.2843         75
 6.14   0.0001    412.0432      1.7727     176.7109      43.5214  90.00     2.505     0.701      4.367   0.01318505  22.4318         76
 7.90   0.0000    396.8768    626.5975     2018.861      43.5214 -73.71     1.239     0.985      2.741   0.01690432  19.7872         77
 8.16   0.0000    403.6928    526.4366     1116.011      43.5214  81.17     1.023     0.476      2.237   0.01689284  20.4308         78
 7.54   0.0000    407.0518    282.4902     714.6863      43.5214 -88.59     0.787     0.500      2.004   0.01689667  20.9147         79
 3.50   0.0000    437.9478    252.1072     41783.29      43.5214 -87.21     2.006     1.974      2.102   0.01689284  16.4975         80
 3.50   0.0000    461.0704    807.6703     287888.5      43.5214 -68.51     2.341     2.304      2.045   0.01688327  14.4019         81
 5.83   0.0000    420.9021    159.0900      2698.23      43.5214  37.62     1.694     1.421      2.122   0.01688518  19.4723         82
 7.67   0.0000    419.5386   1580.4929     744.5362      43.5214  40.47     0.504     0.495      2.104   0.01689284  20.8703         83
 4.17   0.0000    432.9492   1422.0629     3965.904      43.5214   6.85     1.427     1.396      2.026   0.01689667  19.0541         84
 6.72   0.0000    426.5748   1179.2787     1373.503      43.5214  26.35     1.188     0.957      2.041    0.0169024  20.2054         85
 6.42   0.0000    426.8329    433.0970       105181      43.5214  -3.27     2.183     0.735      4.266   0.01688901  15.4952         86
 5.15   0.0000    434.2586    151.1154     1464.449      43.5214 -20.05     1.138     1.034      1.974   0.01689475  20.1358         87
 3.88   0.0000    450.3392     21.3603     15401.76      43.5214 -27.47     1.777     1.769      2.023   0.01690432  17.5811         88
 5.07   0.0000    467.7993    850.4810      13347.6      43.5214  22.59     7.403     2.054      4.782   0.01690432  17.7365         89
 9.05   0.0000    430.6650    719.3185     1615.073      43.5214  45.76     0.572     0.336      1.840   0.01688901  20.0295         90
 4.48   0.0000    440.0043    305.8401     1814.395      43.5214  22.45     1.160     1.136      1.914   0.01690432  19.9032         91
 5.42   0.0000    445.2589    122.3780     2644.717      43.5214 -23.52     1.401     1.309      2.132   0.01690814  19.4941         92
 3.80   0.0000    457.8408     34.5939     17870.58      43.5214 -30.83     1.779     1.767      1.958   0.01690623  17.4197         93
 8.05   0.0000    443.6886    655.3237     1074.583      43.5214  44.36     0.563     0.340      2.063    0.0168871  20.4719         94
 4.32   0.0000    463.6414    468.6490     5681.776      43.5214  70.99     1.619     1.558      2.074   0.01690814  18.6638         95
 6.24   0.0000    452.9206   1533.0249     929.3177      43.5214 -31.03     0.792     0.774      2.163    0.0169024  20.6296         96
 5.22   0.0000    460.9918   1096.1410     1976.586      43.5214  47.71     1.191     1.080      2.136   0.01691388  19.8102         97
 4.60   0.0000    471.3581    254.2742     4788.929      43.5214 -79.51     1.510     1.439      2.033   0.01689858  18.8494         98
 4.03   0.0000    472.1380    734.9207     7117.183      43.5214  75.27     1.566     1.511      2.066   0.01689093  18.4192         99
 7.71   0.0000    461.8358    724.7247     1057.724      43.5214 -20.12     0.949     0.683      2.248   0.01689858  20.4891        100
 3.70   0.0000    477.9271    923.0840     9381.043      43.5214 -28.67     1.679     1.612      2.019   0.01689093  18.1194        101
 4.34   0.0000    477.2791   1276.4363     3459.999      43.5214 -44.53     1.334     0.920      2.973   0.01689858  19.2023        102
 5.84   0.0000    488.9431    839.6031     1852.711      43.5214  87.10     2.059     0.959      2.632   0.01691388  19.8805        103
 4.14   0.0000    484.0388   1070.6680       4362.7      43.5214 -80.82     1.429     1.400      2.008    0.0169024  18.9506        104
 7.10   0.0000    475.9789   1168.4807     714.6737      43.5214  89.68     0.781     0.500      1.944   0.01690432  20.9147        105
 5.40   0.0000    496.2654     82.9187     6657.111      43.5214  66.13     2.311     2.046      2.985   0.01688901  18.4918        106
 6.87   0.0000    478.8629    682.8434     1166.677      43.5214 -46.10     0.819     0.679      1.958   0.01689858  20.3826        107
 5.12   0.0000    495.7248   1186.8407     6543.973      43.5214 -15.71     2.996     1.931      3.254   0.01689858  18.5104        108
 5.26   0.0000    504.0796    762.8668     3177.045      43.5214 -10.71     1.688     1.646      2.433   0.01688901  19.2949        109
 4.77   0.0000    502.0138    863.8067     2450.612      43.5214  64.62     1.201     1.192      2.097   0.01689284  19.5768        110
 4.57   0.0000    515.3623   1461.0657     7811.775      43.5214  23.93     4.115     1.649      3.010   0.01690432  18.3181        111
 6.08   0.0000    498.0054    366.2516     1005.538      43.5214   0.37     0.926     0.749      2.166   0.01691388  20.5440        112
 6.08   0.0000    509.9191    164.8152     2238.644      43.5214  -5.95     1.820     1.073      2.753   0.01690623  19.6750        113
 4.83   0.0000    513.8598   1179.1876     2345.406      43.5214  24.06     1.285     1.178      2.066   0.01690623  19.6245        114
 5.52   0.0000    519.1540    641.9484     1609.494      43.5214  22.36     1.200     1.120      2.110   0.01691005  20.0333        115
 6.45   0.0000    518.1915   1519.1722     874.5853      43.5214  45.74     0.761     0.567      2.193   0.01690432  20.6955        116
 4.09   0.0000    540.2067    999.9378     5572.462      43.5214  61.15     1.534     1.490      2.087   0.01691196  18.6849        117
 6.53   0.0000    536.3547    404.5305     1244.302      43.5214  38.93     1.195     0.786      1.916   0.01689667  20.3127        118
 3.90   0.0000    558.9035   1041.7982     7317.726      43.5214   6.20     1.633     1.563      1.988   0.01690049  18.3891        119
 4.74   0.0000    571.3472     45.9143     5273.781      43.5214  46.17     2.084     1.522      2.174   0.01689284  18.7447        120
 5.98   0.0000    555.8228    778.8107     716.7967      43.5214  44.57     0.756     0.567      2.080   0.01690049  20.9115        121
 3.50   0.0000    580.7163    144.9663     27632.94      43.5214  83.47     1.885     1.868      2.059    0.0169024  16.9464        122
 4.85   0.0000    571.3085   1447.7944      4571.22      43.5214  19.43     2.258     1.637      2.695   0.01689475  18.8999        123
 5.88   0.0000    565.0881    139.5546      1313.52      43.5214 -69.74     1.052     0.977      1.894   0.01689475  20.2539        124
 3.50   0.0000    582.1971    319.2584     25174.36      43.5214   7.31     1.887     1.830      2.001   0.01691388  17.0476        125
 4.29   0.0000    596.7602    782.6867     15395.22      43.5214 -62.08     3.302     3.182      3.541   0.01690049  17.5815        126
 5.97   0.0000    576.2225   1001.8235     1555.949      43.5214  40.80     1.216     1.076      2.179   0.01690432  20.0700        127
 4.64   0.0000    584.5398     76.0209     2008.871      43.5214  -0.84     1.205     1.138      2.077   0.01690814  19.7926        128
 4.19   0.0000   1001.5298   1555.4829     3837.335      43.5214  54.97     1.346     1.330      2.045   0.01688901  19.0899        129
 4.71   0.0000   1597.6036    654.7847     662.5702      43.5214   1.75     1.659     1.434      2.351   0.01453319  20.9969        130
 5.16   0.0000   1594.7568    374.1190     944.5295      43.5214  42.74     1.307     1.027      1.598   0.01633046  20.6120        131
 4.05   0.0000   1584.9181   1108.9316     4181.203      43.5214 -15.59     1.433     1.357      1.996   0.01689284  18.9967        132
 6.78   0.0000   1585.9497   1069.5099     1000.631      43.5214 -88.96     0.783     0.500      2.057   0.01689475  20.5493        133
 3.60   0.0000   1541.8564    135.1745     11193.98      43.5214  54.68     1.663     1.623      2.001   0.01690623  17.9275        134
 8.74   0.0000   1519.3268     85.3294     821.4859      43.5214 -44.88     0.573     0.336      1.726    0.0168871  20.7635        135
 4.79   0.0000   1514.6519    483.6263      1338.06      43.5214 -43.74     1.049     0.951      2.097   0.01690814  20.2338        136
 4.90   0.0000    912.4185   1001.2366     1442.424      43.5214  73.44     0.989     0.957      2.003   0.01690623  20.1523        137
 3.50   0.0000    900.4997    302.8331     18780.04      43.5214 -64.19     1.794     1.787      2.051   0.01688518  17.3658        138
 4.92   0.0000    896.1861    538.5018      4076.83      43.5214   6.05     1.942     1.608      2.081   0.01689667  19.0242        139
 5.31   0.0000    893.7880   1426.2821       1079.9      43.5214 -16.60     0.974     0.854      1.907   0.01690623  20.4665        140
 3.50   0.0000    880.2065   1592.6320     198763.2      43.5214 -83.52     2.300     2.188      2.004   0.01690814  14.8042        141
 6.04   0.0000    888.8303    325.8213     2425.292      43.5214  17.19     1.767     1.100      2.255    0.0169024  19.5881        142
 8.02   0.0000    888.6788    681.3232     867.7086      43.5214  44.90     0.568     0.338      1.924   0.01689667  20.7041        143
 4.51   0.0000    885.7850   1500.2664     2681.822      43.5214  10.00     1.303     1.227      2.079   0.01691005  19.4789        144
 7.04   0.0000    885.0953    339.2578     1354.311      43.5214  -2.69     1.149     0.882      2.008   0.01688901  20.2207        145
 4.70   0.0000    877.6797    961.0908     1752.004      43.5214  27.86     1.126     1.034      2.108   0.01689284  19.9412        146
 6.46   0.0000    876.3213    541.9203     758.3504      43.5214  -7.28     0.737     0.667      1.986   0.01689284  20.8503        147
 4.13   0.0000    869.4717   1103.7170     7800.218      43.5214 -55.22     1.983     1.793      2.119   0.01688901  18.3197        148
 4.96   0.0000    867.9886    939.9118     3232.159      43.5214  41.19     1.806     1.355      2.107    0.0169024  19.2763        149
 6.15   0.0000    869.3575    643.8528     999.7017      43.5214  68.50     0.904     0.687      2.136   0.01690432  20.5503        150
 8.15   0.0000    860.4996   1554.4683     576.7054      43.5214  48.21     0.504     0.495      2.006   0.01689475  21.1476        151
 4.53   0.0000    858.5098   1339.6924      2050.82      43.5214 -89.55     1.308     1.113      2.131    0.0168871  19.7702        152
 9.07   0.0000    855.5103    545.4817     975.2207      43.5214 -46.32     0.502     0.497      2.152   0.01689092  20.5772        153
 4.16   0.0000    844.9837   1063.9657      1737.56      43.5214   1.03     1.169     1.133      1.975   0.01690432  19.9501        154
 4.40   0.0000    843.3248   1106.2646     3326.715      43.5214  40.34     1.667     1.341      2.026   0.01688901  19.2450        155
 4.56   0.0000    836.6466    298.8450     4524.168      43.5214  11.92     1.467     1.396      2.010   0.01690814  18.9112        156
 6.83   0.0000    836.6003   1520.7371     731.2403      43.5214  18.11     0.733     0.456      2.023   0.01691388  20.8898        157
 5.73   0.0000    835.6805    819.1954     1238.922      43.5214 -72.93     0.960     0.861      2.043   0.01690432  20.3174        158
 3.50   0.0000    822.9877    654.4249     19345.21      43.5214  74.96     1.838     1.773      1.949   0.01690049  17.3336        159
 7.91   0.0000    819.4906   1398.4888     573.6326      43.5214  46.70     0.500     0.500      2.130    0.0168871  21.1534        160
 3.50   0.0000    803.0379   1378.7590     18241.02      43.5214 -72.46     1.796     1.752      1.966   0.01690814  17.3974        161
 3.50   0.0000    798.4418    695.7374     45179.36      43.5214 -88.12     2.639     1.966      2.659   0.01690049  16.4126        162
 4.17   0.0000    800.7010     41.1932     9132.429      43.5214 -23.53     1.671     1.577      2.110   0.01689667  18.1485        163
 4.28   0.0000    774.2634   1427.3890     7984.538      43.5214  89.63     2.902     1.909      2.986   0.01691388  18.2944        164
 7.20   0.0000    768.0129    140.0102     1042.509      43.5214  44.98     0.806     0.795      2.108   0.01689667  20.5048        165
 4.24   0.0000    742.8162    556.3451     4779.742      43.5214 -57.68     1.449     1.420      2.004   0.01690814  18.8515        166
 4.32   0.0000    738.1102   1158.1116     1926.848      43.5214  47.36     1.221     1.121      2.122   0.01688518  19.8379        167
 5.08   0.0000    736.0913    649.8519     2044.107      43.5214 -38.54     1.206     1.123      1.941   0.01689475  19.7737        168
 3.50   0.0000    726.6004    848.5243     166297.4      43.5214 -72.04     2.212     2.178      2.034   0.01690623  14.9978        169
 3.87   0.0000    727.4650   1178.3309     3447.516      43.5214 -10.14     1.394     1.328      2.028   0.01689284  19.2062        170
 5.23   0.0000    721.4345   1395.1035     1353.328      43.5214  16.01     1.086     0.953      2.040   0.01688901  20.2215        171
 3.96   0.0000    715.8315    808.4100     4171.777      43.5214  51.69     1.425     1.393      1.995   0.01690432  18.9992        172
 3.99   0.0000    708.9626   1163.8940     4469.147      43.5214  20.90     1.464     1.393      2.030   0.01688901  18.9244        173
 4.42   0.0000    704.4229   1339.0634     4967.389      43.5214 -25.11     1.700     1.462      2.186   0.01690814  18.8097        174
 3.68   0.0000    702.8209    952.5522     7756.125      43.5214  -9.41     1.630     1.577      2.006   0.01690623  18.3259        175
 6.02   0.0000    699.1675    582.7174     1869.868      43.5214   5.06     1.844     0.873      2.185   0.01690049  19.8705        176
 5.87   0.0000    691.6353   1213.6743      2697.74      43.5214  87.83     1.432     1.241      2.670   0.01689858  19.4725        177
 6.00   0.0000    686.6937   1213.8435     1684.629      43.5214 -47.21     1.217     0.958      1.836    0.0168871  19.9837        178
 4.18   0.0000    685.6500    644.3535     6530.562      43.5214 -73.12     1.594     1.581      2.017   0.01690814  18.5126        179
 5.68   0.0000    687.6556    130.9231     1045.064      43.5214  76.35     0.983     0.752      2.110   0.01689667  20.5021        180
 7.44   0.0000    668.9944   1221.5293     1159.534      43.5214  -0.05     0.827     0.706      2.299   0.01690814  20.3893        181
 3.50   0.0000    648.2678   1464.4448     160227.3      43.5214 -76.52     2.214     2.143      2.059   0.01689858  15.0382        182
 5.07   0.0000    654.6734    870.9016      2171.42      43.5214  21.01     1.193     1.057      2.068   0.01688901  19.7081        183
 6.84   0.0000    645.7944    653.0030     1150.669      43.5214 -88.71     0.912     0.756      2.046   0.01689667  20.3976        184
 7.26   0.0000    641.1874    276.8223     820.5097      43.5214 -45.77     0.755     0.569      2.087   0.01689858  20.7648        185
 4.14   0.0000    630.8300    806.1274     2127.468      43.5214 -34.12     1.204     1.125      2.135    0.0169024  19.7303        186
 4.30   0.0000    623.4095   1581.5348     3335.112      43.5214  49.39     1.346     1.338      2.055   0.01691388  19.2422        187
 7.18   0.0000    618.1836   1151.1306     1299.839      43.5214 -37.45     0.897     0.874      2.181   0.01691196  20.2653        188
 8.09   0.0000    609.5256    945.4929     774.1437      43.5214  42.34     0.503     0.496      2.129   0.01689284  20.8279        189
 3.50   0.0000   1563.6936    304.2686     144717.4      43.5214 -77.52     2.157     2.117      2.046   0.01689284  15.1487        190
 4.14   0.0000   1566.7208     22.0779     6465.951      43.5214  75.11     1.574     1.553      1.982   0.01689475  18.5234        191
 3.94   0.0000   1542.6152    654.7387     7901.022      43.5214  29.79     1.579     1.560      1.994    0.0169024  18.3058        192
 3.50   0.0000   1558.0082    487.7251       128759      43.5214 -78.65     2.166     2.125      2.046   0.01691005  15.2756        193
 4.16   0.0000   1570.5596     92.7663     5291.889      43.5214  -2.72     1.453     1.398      1.961   0.01691005  18.7410        194
 4.48   0.0000   1546.1006    863.5362     2864.125      43.5214  60.15     1.564     1.328      2.104   0.01689475  19.4075        195
 4.36   0.0000   1561.3612    861.4875     3379.605      43.5214  19.18     1.352     1.338      1.935   0.01689858  19.2278        196
 4.38   0.0000   1565.7378    784.6730     4301.861      43.5214 -79.11     1.769     1.443      2.189   0.01689475  18.9659        197
 5.18   0.0000   1550.8444   1221.8484     1349.752      43.5214  42.51     1.082     0.925      2.186   0.01690623  20.2244        198
 3.57   0.0000   1552.6281    682.2971     57355.18      43.5214 -26.44     4.582     3.959      3.297   0.01689093  16.1536        199
 7.80   0.0000   1535.9841   1428.9976     1126.318      43.5214 -45.55     0.927     0.527      2.674   0.01689858  20.4208        200
 7.00   0.0000   1532.4937    415.7445     1387.467      43.5214 -84.33     1.017     0.979      2.141   0.01689284  20.1944        201
 7.59   0.0000   1519.9943   1100.7047     937.7161      43.5214  89.07     0.749     0.679      2.500   0.01689858  20.6198        202
 4.09   0.0000    928.4031   1322.5200     3297.673      43.5214 -44.27     1.357     1.342      1.994   0.01690623  19.2545        203
 3.50   0.0000   1514.9222    392.7349     22957.92      43.5214  66.54     1.807     1.797      1.970   0.01689093  17.1477        204
 6.00   0.0000   1515.4878   1547.1486      1519.25      43.5214  74.03     1.048     0.871      2.115   0.01689284  20.0959        205
 3.50   0.0000   1507.1836    269.3994     75240.51      43.5214 -82.06     2.049     2.030      2.015   0.01689858  15.8589        206
 5.55   0.0000   1498.4597    844.2532     1106.247      43.5214 -25.00     0.883     0.757      2.220   0.01689667  20.4404        207
 4.56   0.0000   1504.1298    723.3583     2663.192      43.5214  14.84     1.297     1.162      2.082    0.0169024  19.4865        208
 3.97   0.0000    939.1798   1067.2053     6126.502      43.5214 -23.40     1.522     1.452      2.069   0.01690049  18.5820        209
 6.96   0.0000   1488.2819     78.0035     1035.516      43.5214  -1.74     0.735     0.681      2.224    0.0169024  20.5121        210
 3.92   0.0000    912.8765    838.6033     2678.524      43.5214  -0.15     1.305     1.218      1.919   0.01690432  19.4803        211
 5.67   0.0000    950.7991    654.3572     2432.053      43.5214  65.98     1.507     1.354      2.237   0.01691005  19.5851        212
 5.84   0.0000    947.8477    445.1833     1302.623      43.5214  47.70     0.889     0.856      2.112   0.01690623  20.2630        213
 5.26   0.0000   1065.7639   1597.2657     347.7391      43.5214 -14.20     0.952     0.861      1.086   0.01479333  21.6969        214
 7.26   0.0000    938.5413    516.3163     1999.127      43.5214  57.72     1.300     0.997      2.375   0.01689284  19.7979        215
 7.66   0.0000   1474.9158    998.3757      1739.85      43.5214 -14.25     1.054     0.754      3.065    0.0169024  19.9487        216
 6.42   0.0000   1482.4310    575.2145     1753.969      43.5214 -30.81     1.204     0.969      2.782   0.01690814  19.9399        217
 5.80   0.0000   1438.6464   1271.3108     1461.379      43.5214 -45.87     0.991     0.878      2.030   0.01689284  20.1381        218
 5.08   0.0000   1072.1349   1219.1719      5823.52      43.5214 -73.97     2.049     1.696      2.310    0.0169024  18.6370        219
 4.97   0.0000   1079.4351    330.1989     1684.676      43.5214   1.47     1.167     0.990      1.951   0.01689858  19.9837        220
 3.95   0.0000   1415.4110   1386.6447     5302.344      43.5214  75.55     1.498     1.406      1.993   0.01690432  18.7388        221
 3.55   0.0000   1107.4796    428.0644     20694.87      43.5214  29.41     1.816     1.783      2.018   0.01688901  17.2603        222
 3.50   0.0000   1081.7991   1148.2404     27027.97      43.5214  77.56     1.859     1.838      2.069   0.01690623  16.9705        223
 5.70   0.0000   1066.6768    569.0727      1022.48      43.5214 -72.74     1.032     0.751      2.268   0.01689284  20.5259        224
 6.53   0.0000   1110.7510    479.0507     3614.009      43.5214  19.20     1.749     1.562      2.857   0.01691005  19.1550        225
 3.54   0.0000   1435.3314    224.8159     11293.06      43.5214  21.04     1.687     1.611      2.001   0.01691005  17.9180        226
 6.26   0.0000   1090.9882    468.1736      2395.81      43.5214 -62.75     1.759     1.048      2.849    0.0169024  19.6014        227
 7.39   0.0000   1441.0785   1082.6284     398.6149      43.5214  43.16     2.974     0.680      5.651   0.01689858  21.5486        228
 4.76   0.0000   1411.0619    350.0085     2023.938      43.5214  44.81     1.366     1.125      2.078   0.01691388  19.7845        229
 8.08   0.0000   1453.3318    391.6697     603.6901      43.5214  45.06     0.575     0.334      2.142   0.01688901  21.0980        230
 3.54   0.0000   1439.7888    619.2131     8462.406      43.5214 -62.85     1.575     1.554      2.030   0.01689858  18.2313        231
 3.50   0.0000   1393.4050    114.5455     189823.4      43.5214 -80.89     2.215     2.169      2.082   0.01691579  14.8541        232
 6.42   0.0000   1436.1945   1347.1851     943.2423      43.5214  46.04     0.748     0.567      2.270   0.01689667  20.6134        233
 4.63   0.0000   1120.3417    329.8551     6875.806      43.5214  55.81     2.503     1.644      2.332   0.01689475  18.4567        234
 6.70   0.0000   1431.9259    340.6477     1609.105      43.5214  15.34     1.044     0.753      2.120   0.01689475  20.0335        235
 4.82   0.0000   1129.1801    547.4301     1930.791      43.5214  54.92     1.192     1.121      1.930   0.01690432  19.8357        236
 3.50   0.0000   1408.2377    308.3844     7978.151      43.5214  -7.03     1.547     1.510      1.959   0.01690814  18.2952        237
 5.35   0.0000   1400.5464   1031.5027     2515.058      43.5214  31.11     1.429     1.368      1.998    0.0168871  19.5486        238
 3.50   0.0000   1388.6937   1428.5571     22119.04      43.5214  55.76     1.789     1.763      2.007    0.0168871  17.1881        239
 6.79   0.0026   1412.1804      1.3059     5.402015      43.5214 -77.74     1.083     0.409      2.531   0.01274372  26.2186        240
 4.72   0.0000   1406.3345    329.8578      1574.14      43.5214  26.69     1.130     1.025      2.085   0.01689475  20.0574        241
 4.65   0.0000   1330.5002    386.9715     1742.586      43.5214   3.29     1.098     0.952      2.024   0.01689093  19.9470        242
 4.79   0.0000   1259.4657    432.5281     4215.765      43.5214  25.38     1.823     1.760      2.459   0.01689092  18.9878        243
 3.68   0.0000   1278.0730   1331.4478     13434.85      43.5214  82.55     1.714     1.699      1.915   0.01689475  17.7294        244
 3.79   0.0000   1390.4578    713.3802     8154.892      43.5214  43.10     1.588     1.550      2.037   0.01690814  18.2715        245
 5.96   0.0000   1388.9021    806.6555     1373.972      43.5214  13.85     0.984     0.753      1.955    0.0168871  20.2051        246
 4.34   0.0000   1392.2596   1038.8943     5608.771      43.5214   8.71     1.474     1.451      2.064   0.01689475  18.6778        247
 3.53   0.0000   1218.8743   1195.0033     26642.26      43.5214  54.82     1.997     1.952      1.893   0.01691196  16.9861        248
 6.99   0.0000   1291.8092    546.1708     749.1971      43.5214 -44.88     0.757     0.568      1.818   0.01690432  20.8635        249
 3.56   0.0000   1210.6931   1279.0286     31475.64      43.5214  82.87     5.696     3.445      4.461   0.01689667  16.8051        250
 3.82   0.0000   1292.8365    412.6910     3019.972      43.5214 -22.03     1.326     1.267      2.160   0.01689475  19.3500        251
 8.47   0.0000   1262.3208    216.3072     698.3193      43.5214 -45.74     0.560     0.342      2.017   0.01689284  20.9399        252
 8.25   0.0000   1379.3267    319.3086     899.0179      43.5214 -45.93     0.563     0.340      1.904   0.01689284  20.6656        253
 8.27   0.0000   1352.4868    152.2023     1478.563      43.5214 -89.11     1.011     0.738      2.539   0.01689858  20.1254        254
 3.50   0.0000   1372.5312   1019.0457      24685.9      43.5214 -41.64     1.951     1.869      2.020   0.01690049  17.0689        255
 3.50   0.0000   1320.0488    660.0613      73433.3      43.5214  75.91     2.093     2.039      2.038   0.01689667  15.8853        256
 5.87   0.0000   1293.5828    742.1906     3904.427      43.5214 -15.99     1.535     1.440      2.171   0.01689667  19.0711        257
 7.00   0.0000   1346.3284    605.1111     979.7955      43.5214 -68.97     0.936     0.689      2.195   0.01689284  20.5722        258
 3.97   0.0000   1329.8187    655.9049     10710.75      43.5214  67.51     1.921     1.813      2.061   0.01689858  17.9754        259
 4.12   0.0000   1332.9294    107.4837     2757.373      43.5214  -2.81     1.329     1.158      1.867   0.01688901  19.4488        260
 3.50   0.0000   1298.3828    724.9477     427487.2      43.5214 -51.40     2.371     2.297      2.144   0.01690814  13.9727        261
 4.19   0.0000   1304.7047    892.9962      2378.79      43.5214 -75.91     1.297     1.172      2.019   0.01689667  19.6091        262
 4.08   0.0000   1319.2585    264.1429     1999.915      43.5214   6.39     1.181     1.123      2.053   0.01689475  19.7975        263
 4.31   0.0000   1307.5262    669.7034     8773.541      43.5214 -32.49     1.629     1.592      1.988   0.01689093  18.1921        264
 3.65   0.0000   1272.7618    610.0184      36387.1      43.5214 -58.16     4.190     2.580      2.912   0.01690814  16.6476        265
 5.69   0.0000   1299.3568     54.0625     945.1258      43.5214 -68.39     0.901     0.697      2.053   0.01690049  20.6113        266
 3.52   0.0000   1291.4148    762.2641     19240.12      43.5214 -23.95     2.297     1.839      1.907    0.0169024  17.3395        267
 3.56   0.0000   1265.4564    807.9594     10920.18      43.5214  -7.96     1.661     1.612      2.024   0.01689858  17.9544        268
 6.36   0.0000   1273.6595    698.0986     832.5317      43.5214  68.67     0.919     0.693      2.325   0.01688901  20.7490        269
 4.97   0.0000   1228.6499   1153.6350     1224.459      43.5214  43.00     0.997     0.872      2.057   0.01690623  20.3301        270
 5.85   0.0000   1262.1962    855.0399     1151.424      43.5214 -88.04     0.907     0.755      2.199    0.0169024  20.3969        271
 5.76   0.0000   1212.7454   1429.5703      4631.28      43.5214  66.31     2.076     1.803      3.017   0.01690814  18.8857        272
 4.06   0.0000   1237.0374   1553.6448     5196.534      43.5214 -72.17     1.471     1.442      1.932   0.01690814  18.7607        273
 6.33   0.0000   1229.7732    599.1249     2785.885      43.5214 -25.96     1.422     1.267      2.324   0.01690049  19.4376        274
 3.50   0.0000   1234.4055    304.8864     9044.843      43.5214   0.76     1.619     1.566      2.013   0.01690049  18.1590        275
 5.14   0.0000   1237.6368     48.3455     1389.734      43.5214  42.97     1.043     0.951      1.995   0.01690432  20.1927        276
 4.28   0.0000   1207.6377    838.9413     5337.033      43.5214  35.87     1.470     1.451      2.037   0.01690432  18.7317        277
 3.50   0.0000   1214.6141    513.0945     39526.52      43.5214  -0.90     1.943     1.918      2.030   0.01689858  16.5578        278
 4.24   0.0000   1200.8662   1442.2368     2996.516      43.5214 -76.41     1.564     1.485      2.231    0.0169024  19.3585        279
 7.93   0.0000   1204.4742   1217.4802     680.4642      43.5214  43.31     0.502     0.497      1.807   0.01689284  20.9680        280
 5.08   0.0000   1194.9722    124.1294     5500.382      43.5214 -83.39     1.957     1.669      2.512   0.01690432  18.6990        281
 3.91   0.0000   1201.8915    339.0921     4905.167      43.5214  41.67     1.528     1.455      2.060   0.01688518  18.8234        282
 5.34   0.0000   1130.2582    219.7123     1898.358      43.5214  22.28     1.184     1.117      2.022   0.01689475  19.8541        283
 3.50   0.0000   1138.5420    148.1507     78148.59      43.5214  77.75     2.097     2.062      2.018   0.01690049  15.8177        284
 5.95   0.0000   1181.9745    176.1647     1036.553      43.5214   3.89     0.910     0.759      2.060   0.01690623  20.5110        285
 4.90   0.0000   1180.9506    549.4130      1755.46      43.5214  37.05     1.159     1.067      2.037   0.01691005  19.9390        286
 4.68   0.0000   1153.5942   1353.1537      2578.91      43.5214  23.71     1.498     1.327      2.055   0.01691005  19.5214        287
 3.50   0.0000   1165.1395   1299.8351     119288.9      43.5214 -78.19     2.141     2.108      2.084   0.01690432  15.3585        288
 3.50   0.0000   1129.9851    183.6115     41746.56      43.5214  -6.31     1.968     1.954      1.958   0.01690049  16.4984        289
 3.53   0.0000   1157.8691    236.5205     18184.36      43.5214 -59.07     1.775     1.768      1.953   0.01689093  17.4008        290
 5.31   0.0000   1161.7438    887.7606     2377.284      43.5214 -40.77     1.157     1.096      2.010   0.01690432  19.6098        291
 4.11   0.0000   1151.2296     99.5155     4400.144      43.5214   1.70     1.475     1.409      1.934    0.0169024  18.9413        292
 6.72   0.0000   1131.0312    359.2770     847.2449      43.5214  79.06     0.733     0.682      1.929   0.01690049  20.7300        293
 3.50   0.0000   1079.9672    512.2063     84407.41      43.5214  74.02     2.099     2.081      2.035   0.01690432  15.7340        294
 4.04   0.0000   1095.4258   1526.6967     3148.204      43.5214  64.24     1.332     1.261      2.066   0.01689667  19.3048        295
 7.24   0.0000   1086.1484   1452.8627     958.9036      43.5214  46.36     0.838     0.678      2.187   0.01689667  20.5956        296
 7.41   0.0000   1090.0991    782.8873     67020.73      43.5214  45.01     1.234     0.538      3.725   0.01688518  15.9845        297
 5.92   0.0000   1094.6758   1136.2837     939.9048      43.5214  42.84     0.939     0.754      1.992   0.01689093  20.6173        298
 7.13   0.0000    978.4573    452.7135     1246.382      43.5214 -88.97     0.999     0.961      2.104   0.01689475  20.3109        299
 7.77   0.0000   1088.0132    397.0000     1004.139      43.5214  90.00     0.850     0.289      2.010    0.0169024  20.5455        300
 5.99   0.0000   1065.1993   1563.2179     3359.423      43.5214 -50.91     1.822     1.345      2.971   0.01690049  19.2343        301
 3.50   0.0000    984.8825    558.5286     75096.59      43.5214  86.99     2.062     2.035      1.999   0.01688901  15.8609        302
 3.50   0.0000   1009.8115    813.7941     43355.46      43.5214 -23.06     1.976     1.963      1.961   0.01689093  16.4574        303
 5.37   0.0000    965.2351    416.4796     1437.727      43.5214   9.67     0.991     0.951      1.942   0.01689858  20.1558        304
 5.22   0.0000    980.8171    797.9382     2960.051      43.5214 -22.95     1.473     1.417      2.284   0.01690049  19.3718        305
 3.50   0.0000   1040.2435    633.1321     103708.5      43.5214 -86.88     2.148     2.116      2.070   0.01690049  15.5105        306
 3.50   0.0000   1038.7074    525.4634     24947.86      43.5214 -89.92     1.895     1.851      1.966   0.01689475  17.0574        307
 4.72   0.0000   1030.4277    302.7162     5348.176      43.5214  61.98     2.411     1.679      2.626   0.01690049  18.7295        308
 5.83   0.0000    986.6929    454.0457     4242.256      43.5214  71.21     1.721     1.537      2.550    0.0168871  18.9810        309
 8.75   0.0000   1014.5078    453.4610     789.3331      43.5214 -62.89     0.500     0.498      1.877   0.01689475  20.8068        310
 6.43   0.0000    998.0614    233.3179      762.678      43.5214  83.83     0.736     0.671      2.297   0.01689093  20.8441        311
 3.50   0.0000   1025.7098   1380.0499     52188.14      43.5214  87.42     2.054     1.952      2.092   0.01689475  16.2561        312
 3.80   0.0000   1011.3396    344.7471     8195.047      43.5214 -55.24     1.591     1.561      2.022   0.01689667  18.2661        313
 8.38   0.0000   1011.2415    267.9928     1040.539      43.5214   0.33     0.699     0.428      1.893   0.01690623  20.5069        314
 4.30   0.0000    999.9335   1273.7820      2630.23      43.5214 -27.04     1.275     1.172      2.004   0.01690432  19.5000        315
 4.10   0.0000   1001.6805    542.7173     8540.837      43.5214  12.75     1.658     1.575      1.956   0.01689093  18.2212        316
