#   1 KRON_RADIUS            Kron apertures in units of A or B                         
#   2 MAGERR_APER            RMS error vector for fixed aperture mag.                   [mag]
#   3 Y_IMAGE                Object position along y                                    [pixel]
#   4 X_IMAGE                Object position along x                                    [pixel]
#   5 THETA_IMAGE            Position angle (CCW/x)                                     [deg]
#   6 FLUX_APER              Flux vector within fixed circular aperture(s)              [count]
#   7 A_IMAGE                Profile RMS along major axis                               [pixel]
#   8 THRESHOLD              Detection threshold above background                       [count]
#   9 B_IMAGE                Profile RMS along minor axis                               [pixel]
#  10 FLUX_RADIUS            Fraction-of-light radii                                    [pixel]
#  11 FLUXERR_APER           RMS error vector for aperture flux(es)                     [count]
#  12 MAG_APER               Fixed aperture magnitude vector                            [mag]
#  13 NUMBER                 Running object number                                     
 4.20   0.0006     52.3034     61.8495   2.51     151911.7     4.442     65.14034     3.989      9.601      83.6797  15.0960          1
 3.77   0.0036     15.6711    983.4545 -87.99     25068.34     3.861     65.14034     1.647      6.515     83.74611  17.0522          2
 3.62   0.0045     17.0230     89.4899 -26.39     20375.44     1.422     65.14034     1.344      2.597     83.77456  17.2772          3
 3.50   0.0017     13.8104   1444.2446 -29.34     52877.64     1.547     65.14034     1.516      2.614       83.803  16.2418          4
 9.00   0.0377      3.3280    143.3375 -44.59      2067.06     0.577     65.14034     0.334      2.850       71.786  19.7616          5
 5.36   0.0369     16.2085    382.9816  89.06     2463.055     0.890     65.14034     0.752      2.536     83.76508  19.5713          6
 4.66   0.0207     23.7973    365.4003 -84.17     4402.227     1.089     65.14034     1.032      2.710       83.803  18.9408          7
 8.20   0.0527     23.2996    381.3436 -42.82     1726.163     0.566     65.14034     0.338      2.514     83.68919  19.9573          8
 3.50   0.0004     58.9551   1076.9459  70.23       241551     1.898     65.14034     1.774      2.749     83.78404  14.5925          9
 6.03   0.0365     33.4796   1108.6080  64.27     2496.227     1.510     65.14034     0.629      3.497     83.78404  19.5568         10
 7.91   0.0523     32.4033    324.8148 -18.96     1738.038     0.755     65.14034     0.449      2.984     83.76508  19.9499         11
 5.58   0.0946     37.0213   1519.9889  21.84     961.2715     0.611     65.14034     0.611      2.034     83.76508  20.5929         12
 6.31   0.0619     38.1393   1169.1509  44.59     1469.374     0.749     65.14034     0.572      2.578     83.76508  20.1322         13
 6.16   0.0618     41.5179    913.9079  -0.91      1470.76     0.771     65.14034     0.500      2.216     83.74611  20.1311         14
 3.50   0.0004     79.0638    535.8656 -71.09     231900.8     1.799     65.14034     1.767      2.723     83.73663  14.6367         15
 3.76   0.0108     74.1700    126.4531 -28.84     8407.829     1.258     65.14034     1.182      2.503       83.803  18.2383         16
 6.21   0.0422     81.4861    419.7835 -89.81     2156.085     0.968     65.14034     0.724      3.124     83.78404  19.7158         17
 6.69   0.0196     89.5848    375.0995 -11.54     4643.833     1.320     65.14034     1.036      4.693     83.76508  18.8828         18
 3.50   0.0003    120.9212    787.5002 -59.71       344521     1.833     65.14034     1.825      2.736     83.68919  14.2070         19
 3.94   0.0071     95.6125     54.3898 -38.35     12721.86     1.297     65.14034     1.241      2.656     83.75559  17.7886         20
 6.66   0.0698     90.6038    494.2029 -18.24     1303.531     0.728     65.14034     0.456      2.290     83.76508  20.2622         21
 6.22   0.0310     97.0223    451.4500  -4.42     2935.416     1.053     65.14034     0.780      3.589       83.803  19.3808         22
 6.76   0.0742    130.4583    416.4763  21.10     1226.683     0.500     65.14034     0.498      1.983     83.75559  20.3282         23
 3.50   0.0005    161.4535   1466.8450 -66.04     195295.6     1.744     65.14034     1.727      2.703     83.78404  14.8233         24
 3.50   0.0021    169.3001    875.6627 -39.94      43932.3     1.534     65.14034     1.515      2.630     83.73663  16.4430         25
 4.65   0.0227    164.1470   1444.2490 -65.13     4000.573     1.073     65.14034     0.995      2.629     83.78404  19.0447         26
 3.90   0.0345    165.6745    102.5966 -41.51     2640.288     1.017     65.14034     0.920      2.327     83.83143  19.4959         27
 7.35   0.0575    168.4966   1367.4883  45.85     1579.349     0.502     65.14034     0.498      2.363     83.68919  20.0538         28
 7.70   0.0342    185.9798   1353.4911 -89.21      2657.85     0.796     65.14034     0.500      3.536     83.75559  19.4887         29
 4.74   0.0173    191.8871   1349.0082   9.23     5258.549     1.093     65.14034     1.083      2.672     83.78404  18.7478         30
 4.97   0.0048    209.7816    825.9514  -7.57     18975.56     3.145     65.14034     1.693      7.667     83.79352  17.3545         31
 3.71   0.0100    205.7242    547.4327 -27.80     9130.938     1.268     65.14034     1.220      2.504     83.76508  18.1487         32
 3.65   0.0101    211.4296   1304.5750 -26.27     9024.652     1.248     65.14034     1.242      2.469     83.79352  18.1614         33
 5.99   0.0336    209.9860    683.0103 -88.12     2710.117     1.026     65.14034     0.734      3.203     83.75559  19.4675         34
 5.59   0.0055    229.1618    560.4160 -36.10     16551.14     2.830     65.14034     2.521      8.700     83.81248  17.5029         35
 3.56   0.0088    223.3353   1224.5809 -36.23     10359.46     1.273     65.14034     1.233      2.421       83.803  18.0117         36
 3.50   0.0002    258.9106    995.8257 -71.98     597411.6     1.918     65.14034     1.899      2.763     83.76508  13.6093         37
 4.31   0.0256    221.5924    773.3193 -14.50     3552.708     1.060     65.14034     0.974      2.395     83.78404  19.1736         38
 3.50   0.0002    264.9516     65.7890 -57.20     441310.5     1.875     65.14034     1.852      2.750     83.82195  13.9381         39
 5.57   0.0129    243.0064    111.0418 -88.92     7067.834     1.582     65.14034     1.198      4.557       83.803  18.4268         40
 6.43   0.0310    238.3742    837.2224 -31.21     2938.731     1.016     65.14034     0.916      3.902       83.803  19.3796         41
 4.83   0.0051    254.5080    611.2502 -38.55      17903.3     2.022     65.14034     1.655      5.061     83.74611  17.4177         42
 6.33   0.0289    249.4847    105.5596 -21.18     3147.349     0.902     65.14034     0.882      4.030     83.77456  19.3051         43
 3.50   0.0009    286.7240   1485.0078 -63.00     104267.7     1.644     65.14034     1.627      2.649     83.81248  15.5046         44
 6.27   0.0392    269.9772   1271.9922  -1.56      2320.72     0.789     65.14034     0.784      3.021     83.77456  19.6359         45
 3.50   0.0039    281.0651   1520.9044 -20.69     23032.25     1.367     65.14034     1.351      2.493     83.74611  17.1442         46
 3.50   0.0012    302.1579    199.9657 -33.04     76320.49     1.618     65.14034     1.605      2.657     83.82195  15.8434         47
 5.49   0.0191    292.5531   1474.0583  -1.34     4762.018     1.049     65.14034     0.933      3.308     83.77456  18.8555         48
 4.42   0.0219    301.2180    561.9072  18.86     4146.648     1.129     65.14034     1.058      2.754     83.77456  19.0058         49
 3.50   0.0018    321.1726    695.6197 -26.26     50673.82     1.553     65.14034     1.509      2.620     83.78404  16.2880         50
 7.87   0.0331    307.7152     83.4339  80.94     2752.114     1.003     65.14034     0.476      4.026     83.78404  19.4508         51
 6.17   0.0214    321.0647    639.6444 -67.67     4243.312     1.609     65.14034     0.861      4.321     83.77456  18.9807         52
 4.98   0.0093    326.5730    593.8109   7.14      9790.16     1.495     65.14034     1.367      4.238     83.79352  18.0730         53
 5.80   0.0544    328.6497   1544.8694  10.60     1672.287     0.732     65.14034     0.651      2.383     83.73663  19.9917         54
 4.93   0.0420    331.1288     91.6019 -14.07     2165.604     0.974     65.14034     0.736      2.300     83.82195  19.7111         55
 4.17   0.0188    349.0255     52.9406 -34.32     4837.008     1.109     65.14034     1.089      2.564     83.81248  18.8386         56
 3.50   0.0017    367.2481    759.5090  -9.25     52384.22     1.555     65.14034     1.529      2.622     83.72714  16.2520         57
 3.89   0.0097    360.4133   1498.9653  13.98     9348.449     1.270     65.14034     1.201      2.570     83.81248  18.1231         58
 4.06   0.0399    359.7190   1032.4745   1.63     2280.005     0.960     65.14034     0.930      2.305     83.73663  19.6552         59
 3.50   0.0004    394.2187    229.6441 -68.12       256521     1.801     65.14034     1.777      2.734       83.803  14.5272         60
 6.64   0.0245    374.3668    752.0930  47.82     3710.119     1.482     65.14034     0.696      4.490     83.73663  19.1265         61
 8.25   0.0509    369.4944     69.5316 -56.01     1786.626     0.501     65.14034     0.498      2.865     83.74611  19.9199         62
 6.81   0.0411    372.6188   1082.2681 -17.95     2214.521     0.948     65.14034     0.637      3.307     83.81248  19.6868         63
 7.60   0.1221    374.3250     85.3358 -44.52     744.9261     0.575     65.14034     0.335      2.200     83.72714  20.8697         64
 5.83   0.0554    379.2894    123.9578  -3.94     1642.245     0.729     65.14034     0.671      2.467     83.75559  20.0114         65
 3.50   0.0025    396.2292   1459.7554 -36.91     36509.92     1.475     65.14034     1.464      2.581     83.83143  16.6440         66
 3.50   0.0022    397.1713    352.8766 -25.80      41610.7     1.525     65.14034     1.501      2.624     83.77456  16.5020         67
 3.66   0.0106    392.8804   1087.1648  -9.50     8604.847     1.239     65.14034     1.206      2.471     83.77456  18.2131         68
 7.81   0.0245    395.9946    624.9952  71.33      3710.17     0.799     65.14034     0.798      4.484     83.74611  19.1265         69
 7.27   0.0792    406.4605    280.4913 -17.59     1147.808     0.500     65.14034     0.498      2.318     83.73663  20.4003         70
 5.30   0.0184    419.8942    157.4371  26.75      4929.98     1.448     65.14034     1.193      4.008     83.71765  18.8179         71
 3.50   0.0011    437.0088    250.3023 -32.19     83637.45     1.624     65.14034     1.615      2.670     83.74611  15.7440         72
 3.50   0.0001    460.3148    806.0232 -65.11     724720.6     1.935     65.14034     1.920      2.764     83.77456  13.3996         73
 7.45   0.0337    425.8697   1178.0779  43.77     2701.656     0.858     65.14034     0.661      3.869     83.71765  19.4709         74
 3.69   0.0139    432.1023   1420.5601 -11.63      6532.21     1.208     65.14034     1.109      2.374     83.71765  18.5123         75
 4.94   0.0348    433.1256    149.3873  -9.79     2615.497     0.981     65.14034     0.856      2.710     83.83143  19.5061         76
 4.38   0.0329    439.0159    303.9682 -20.07     2762.887     0.920     65.14034     0.913      2.365       83.803  19.4466         77
 5.20   0.0041    466.9002    848.8165  22.61     22256.86     6.820     65.14034     1.769     13.881     83.75559  17.1813         78
 3.54   0.0034    449.4023     19.5231 -30.68     26527.22     1.437     65.14034     1.406      2.612     83.79352  16.9908         79
 5.15   0.0204    444.2394    120.4318 -22.01     4472.372     1.210     65.14034     1.108      3.419     83.81248  18.9237         80
 3.50   0.0030    456.8024     32.7392  -3.30     29856.84     1.443     65.14034     1.422      2.591      83.8409  16.8624         81
 7.16   0.0762    442.5621    653.4972 -10.91     1192.633     0.500     65.14034     0.496      2.177     83.70817  20.3587         82
 5.48   0.0668    452.0169   1531.7256 -85.78     1363.253     0.721     65.14034     0.674      2.135      83.8409  20.2136         83
 3.99   0.0096    462.7450    466.8865  54.88     9502.288     1.308     65.14034     1.243      2.716     83.73663  18.1054         84
 4.66   0.0305    460.2122   1094.6180   6.35         2984     0.975     65.14034     0.925      2.650     83.76508  19.3630         85
 3.62   0.0077    471.1317    733.2081  79.83     11789.05     1.283     65.14034     1.279      2.523     83.83143  17.8713         86
 4.08   0.0110    470.3870    252.5030   5.65     8274.094     1.263     65.14034     1.233      2.692     83.75559  18.2557         87
 8.39   0.0414    460.5989    723.2239 -18.39     2199.871     0.756     65.14034     0.451      3.436     83.77456  19.6940         88
 3.50   0.0060    477.0223    921.4086 -70.99     15068.75     1.335     65.14034     1.318      2.491     83.78404  17.6048         89
 3.88   0.0160    477.0480   1275.3263 -57.55     5695.418     1.145     65.14034     1.027      2.467     83.74611  18.6612         90
 7.61   0.0946    475.3035   1166.6748  43.83     961.4479     0.561     65.14034     0.342      2.168     83.73663  20.5927         91
 6.22   0.0257    487.6810    837.9964 -83.71     3536.958     1.704     65.14034     0.715      4.801     83.79352  19.1784         92
 3.69   0.0146    483.0464   1069.0927 -24.30     6224.807     1.130     65.14034     1.125      2.353     83.71765  18.5647         93
 6.02   0.0574    477.7341    681.0251  -3.82     1584.536     0.725     65.14034     0.675      2.550     83.79352  20.0502         94
 5.29   0.0080    495.1190     81.1906  45.43     11411.21     2.066     65.14034     1.767      5.842     83.77456  17.9067         95
 5.45   0.0084    494.7936   1185.2228 -14.10     10849.84     2.599     65.14034     1.517      6.428     83.78404  17.9614         96
 5.72   0.0137    503.3142    761.2948 -38.41     6647.075     1.466     65.14034     1.337      4.806     83.68919  18.4934         97
 4.13   0.0234    501.1669    862.1559 -43.76     3888.255     1.112     65.14034     1.006      2.433     83.82195  19.0756         98
 5.64   0.0565    497.0226    364.6823 -87.03     1609.653     0.730     65.14034     0.667      2.265     83.78404  20.0332         99
 4.77   0.0067    514.4293   1459.5134  23.73     13595.09     3.563     65.14034     1.308      7.274     83.78404  17.7165        100
 5.66   0.0228    508.9268    163.3875  -3.75     4001.662     1.654     65.14034     0.787      4.325      83.8409  19.0444        101
 4.26   0.0238    512.8962   1177.7278 -61.45     3813.472     1.075     65.14034     0.992      2.462     83.73663  19.0967        102
 5.41   0.0318    518.3445    640.3340 -41.64      2856.63     1.060     65.14034     0.951      3.094     83.75559  19.4104        103
 6.49   0.0716    517.4171   1517.7679 -18.84     1270.274     0.723     65.14034     0.459      2.204       83.803  20.2903        104
 3.72   0.0102    539.3714    998.3492 -26.35     8911.439     1.257     65.14034     1.218      2.476     83.81248  18.1751        105
 6.75   0.0413    535.1268    402.7053  21.93     2204.196     0.939     65.14034     0.684      3.348     83.74611  19.6919        106
 3.70   0.0074    558.0494   1040.1455  18.85        12274     1.313     65.14034     1.296      2.574     83.79352  17.8275        107
 6.44   0.0872    554.9899    777.2524  89.44     1044.291     0.670     65.14034     0.434      2.063     83.83143  20.5029        108
 4.62   0.0104    570.3089     44.1189  51.69     8745.123     1.845     65.14034     1.271      4.070     83.73663  18.1956        109
 3.50   0.0018    579.6545    143.1783 -44.32        50113     1.563     65.14034     1.533      2.646     83.82195  16.3001        110
 5.36   0.0110    570.5286   1446.4730  17.88     8277.821     1.856     65.14034     1.391      5.311     83.70817  18.2552        111
 3.50   0.0018    581.2003    317.4489 -12.26      50058.6     1.570     65.14034     1.539      2.650      83.8409  16.3013        112
 5.79   0.0394    563.8646    137.6890 -21.27      2307.31     0.892     65.14034     0.686      2.683     83.74611  19.6422        113
 4.69   0.0037    595.7537    780.8385 -56.47     24462.64     3.023     65.14034     2.605      7.876       83.803  17.0787        114
 6.19   0.0306    575.3632   1000.3189  45.20     2969.372     1.005     65.14034     0.886      3.575     83.77456  19.3683        115
 4.45   0.0267    583.4443     74.1731 -17.03     3404.699     1.094     65.14034     0.938      2.448     83.83143  19.2198        116
 3.75   0.0063   1000.7644    540.9913  -8.94     14344.26     1.362     65.14034     1.329      2.643       83.803  17.6583        117
 7.83   0.0432   1599.7003     17.3366  43.09     1586.822     0.564     65.14034     0.340      2.556     63.10685  20.0487        118
 5.25   0.0159   1596.6635    653.0926 -59.61     5147.203     1.485     65.14034     1.346      4.124     75.44365  18.7711        119
 5.50   0.0297   1593.6263    372.3974  44.56     3044.023     1.077     65.14034     0.932      3.372     83.19421  19.3414        120
 8.20   0.0621   1592.4907   1383.5098 -45.05     1464.848     0.502     65.14034     0.498      2.904     83.69868  20.1355        121
 7.32   0.0867   1590.3160    565.3229 -44.66     1049.108     0.565     65.14034     0.340      1.930     83.72714  20.4979        122
 6.48   0.0537   1584.9933   1068.0237   1.49     1695.215     0.615     65.14034     0.610      2.462     83.78404  19.9769        123
 3.50   0.0051   1540.7362    133.3148 -47.70     17891.83     1.408     65.14034     1.367      2.585     83.73663  17.4184        124
 3.50   0.0006   1506.1389    267.6415 -39.96     164054.3     1.723     65.14034     1.706      2.701     83.78404  15.0125        125
 4.58   0.0446   1064.9565   1595.7683  -2.91      1906.51     0.881     65.14034     0.748      2.307     78.30563  19.8494        126
 5.63   0.0170    979.9975    796.2272 -68.28     5336.527     1.224     65.14034     1.180      4.151     83.77456  18.7319        127
 6.39   0.0294    977.0343    451.0101 -40.67     3097.933     0.784     65.14034     0.775      3.400     83.81248  19.3223        128
 5.05   0.0384    964.0334    414.7816   0.25     2368.107     0.891     65.14034     0.748      2.426       83.803  19.6140        129
 6.12   0.0215    949.9987    652.6572 -89.85     4243.876     1.224     65.14034     0.992      4.253     83.85037  18.9806        130
 5.24   0.0436    946.8032    443.5172  -1.66     2086.443     0.923     65.14034     0.719      2.652     83.78404  19.7515        131
 3.69   0.0095    938.3217   1065.6394  41.58     9590.492     1.248     65.14034     1.193      2.442     83.75559  18.0954        132
 7.35   0.0241    937.5718    514.6093  47.45     3778.843     1.032     65.14034     0.878      5.014     83.79352  19.1066        133
 4.11   0.0163    927.3743   1321.0085 -85.38     5593.381     1.159     65.14034     1.128      2.573     83.79352  18.6808        134
 3.57   0.0226    911.8421    836.9899  38.07     4033.353     1.095     65.14034     1.086      2.329       83.803  19.0358        135
 4.50   0.0398    911.3700    999.6253 -45.17     2287.561     0.962     65.14034     0.860      2.191     83.78404  19.6516        136
 3.50   0.0027    899.4661    301.0907 -18.69     33195.65     1.479     65.14034     1.444      2.612     83.75559  16.7473        137
 4.85   0.0120    895.2223    536.8345   2.48     7608.519     1.747     65.14034     1.407      4.473     83.79352  18.3467        138
 5.70   0.0477    893.0107   1424.9458 -31.86     1907.839     0.780     65.14034     0.772      2.739     83.83143  19.8486        139
 5.92   0.0204    887.5701    324.2279  14.78     4461.374     1.646     65.14034     0.935      4.339     83.79352  18.9263        140
 3.50   0.0002    879.3601   1591.1908 -70.96     582879.6     1.908     65.14034     1.875      2.744       83.803  13.6361        141
 4.08   0.0207    884.8735   1498.7712 -43.20     4402.502     1.104     65.14034     0.995      2.336     83.78404  18.9408        142
 7.12   0.0333    884.0042    337.5157   0.76     2733.361     0.817     65.14034     0.703      3.777     83.77456  19.4583        143
 4.64   0.0377    876.5405    959.5004 -84.19     2408.985     0.889     65.14034     0.881      2.324     83.70817  19.5954        144
 6.47   0.0627    875.4860    540.0019  -0.88     1451.569     0.778     65.14034     0.500      2.358     83.77456  20.1454        145
 4.14   0.0066    868.4766   1102.1177 -45.52     13740.92     1.686     65.14034     1.465      3.604     83.74611  17.7050        146
 5.04   0.0174    867.0320    938.2143  29.24     5238.192     1.622     65.14034     1.102      4.060       83.803  18.7520        147
 5.62   0.0645    868.3191    642.0235   1.45     1410.681     0.733     65.14034     0.661      2.295     83.77456  20.1764        148
 5.07   0.0252    857.5266   1338.7096 -88.38     3610.381     0.975     65.14034     0.694      2.836     83.73663  19.1561        149
 8.56   0.0523    854.5153    543.5096 -43.94     1738.685     0.502     65.14034     0.498      3.011     83.72714  19.9494        150
 3.93   0.0361    843.9196   1062.4259 -64.62     2518.064     0.996     65.14034     0.935      2.247     83.78404  19.5473        151
 4.52   0.0154    842.4215   1104.6084  35.51     5893.119     1.423     65.14034     1.112      3.288     83.77456  18.6241        152
 3.98   0.0119    835.5465    297.1019 -52.68     7617.876     1.220     65.14034     1.192      2.562     83.69868  18.3454        153
 6.27   0.0887    835.7402   1519.0046   0.28     1025.953     0.666     65.14034     0.438      2.017      83.8409  20.5222        154
 4.85   0.0527    834.6307    817.5598 -17.74     1726.259     0.921     65.14034     0.798      2.367     83.82195  19.9572        155
 3.50   0.0027    822.0726    652.7797 -15.69     33948.78     1.506     65.14034     1.487      2.620     83.83143  16.7229        156
 7.58   0.1327    818.6843   1397.3020  45.79     684.8983     0.556     65.14034     0.344      1.958     83.68919  20.9609        157
 8.36   0.0566    814.5045    876.4985 -44.97     1606.505     0.510     65.14034     0.490      3.004     83.70817  20.0353        158
 5.03   0.0791    808.9929   1543.2617  86.66     1151.623     0.723     65.14034     0.668      2.020     83.85037  20.3967        159
 3.50   0.0029    802.1609   1377.2968 -81.68      30866.1     1.468     65.14034     1.437      2.562     83.70817  16.8263        160
 3.50   0.0010    797.5929    694.0792 -87.69     89794.51     2.371     65.14034     1.616      3.702     83.78404  15.6669        161
 3.82   0.0062    799.6501     39.4609 -16.46      14641.5     1.361     65.14034     1.275      2.645     83.76508  17.6360        162
 4.79   0.0070    773.3688   1425.9453 -89.88     13048.57     2.549     65.14034     1.648      6.149       83.803  17.7611        163
 7.13   0.0432    766.9608    138.2908 -82.22     2105.406     0.741     65.14034     0.680      3.341     83.73663  19.7417        164
 3.88   0.0116    741.8005    554.6681 -25.34     7825.486     1.249     65.14034     1.190      2.608     83.82195  18.3162        165
 4.30   0.0323    737.2334   1156.5380 -12.72     2818.649     0.960     65.14034     0.922      2.289     83.78404  19.4249        166
 4.49   0.0285    735.1122    648.2329  21.14     3196.501     1.029     65.14034     0.963      2.460     83.77456  19.2883        167
 3.50   0.0003    725.6378    846.8517  86.08     347371.8     1.845     65.14034     1.830      2.761     83.79352  14.1980        168
 3.74   0.0167    726.5109   1176.8252 -76.33     5444.597     1.162     65.14034     1.128      2.423     83.76508  18.7101        169
 5.35   0.0457    720.3839   1393.5464  14.98     1993.379     0.949     65.14034     0.801      2.867     83.81248  19.8010        170
 4.00   0.0130    714.9327    806.8177 -19.41     7022.832     1.194     65.14034     1.123      2.491     83.81248  18.4337        171
 3.83   0.0131    708.0512   1162.3833  -2.52     6970.898     1.226     65.14034     1.123      2.462     83.81248  18.4418        172
 4.56   0.0108    703.6281   1337.5835 -22.96     8388.321     1.362     65.14034     1.190      3.737     83.79352  18.2408        173
 3.63   0.0071    701.9589    951.0188 -28.23     12853.77     1.315     65.14034     1.292      2.535     83.81248  17.7774        174
 6.53   0.0269    697.9573    581.1458   7.31      3377.29     1.309     65.14034     0.761      4.279     83.78404  19.2286        175
 5.57   0.0245    690.8048   1212.2382  42.91     3718.614     1.087     65.14034     1.036      3.439     83.78404  19.1240        176
 5.41   0.0540    686.5112    129.0499 -88.74     1683.023     0.791     65.14034     0.700      2.347     83.73663  19.9848        177
 5.55   0.0298    685.6292   1212.3170 -47.65     3050.723     0.978     65.14034     0.857      3.022     83.78404  19.3390        178
 4.05   0.0085    684.6274    642.5974   0.81     10747.55     1.260     65.14034     1.254      2.688     83.77456  17.9717        179
 7.07   0.0411    668.2875   1220.0120  -5.30     2214.367     0.739     65.14034     0.685      3.368     83.79352  19.6869        180
 3.50   0.0003    647.4228   1462.9352 -62.50     341909.7     1.828     65.14034     1.800      2.716       83.803  14.2152        181
 4.57   0.0284    653.6522    869.3309  48.72     3199.999     1.000     65.14034     0.935      2.485     83.74611  19.2871        182
 5.89   0.0491    644.8383    651.1881  45.66     1855.407     0.800     65.14034     0.677      2.676       83.803  19.8789        183
 7.10   0.0623    640.3939    274.8174 -18.76     1460.055     0.747     65.14034     0.449      2.589     83.76508  20.1391        184
 4.29   0.0277    629.6943    804.5840 -38.06     3288.872     1.004     65.14034     0.931      2.356     83.77456  19.2574        185
 4.00   0.0163    622.7623   1580.2859 -21.97     5567.416     1.161     65.14034     1.088      2.481     83.77456  18.6859        186
 7.20   0.0351    617.6240   1149.2490  63.36     2590.075     0.705     65.14034     0.646      3.436     83.82195  19.5167        187
 7.22   0.0878    608.6580    943.7079 -47.61     1036.173     0.562     65.14034     0.340      1.983     83.72714  20.5114        188
 3.77   0.0010   1551.6090    680.5820 -25.13     91476.51     4.213     65.14034     3.649      8.626     83.76508  15.6467        189
 4.88   0.0120   1564.8285    782.9484 -80.10     7616.017     1.596     65.14034     1.157      3.941     83.81248  18.3457        190
 4.18   0.0129   1583.9823   1107.3646  -3.87     7046.603     1.234     65.14034     1.119      2.603     83.81248  18.4300        191
 3.50   0.0003   1562.5820    302.4688 -71.97     302871.1     1.813     65.14034     1.787      2.736     83.82195  14.3469        192
 5.21   0.0169   1545.1246    861.9520  58.14     5392.779     1.358     65.14034     1.132      3.719     83.74611  18.7205        193
 4.19   0.0167   1560.2106    859.8414 -44.87     5462.216     1.147     65.14034     1.080      2.544     83.79352  18.7066        194
 3.95   0.0106   1569.4437     90.8909 -54.90     8584.263     1.220     65.14034     1.190      2.551     83.73663  18.2157        195
 3.84   0.0082   1565.5842     20.1956 -31.18     11103.96     1.308     65.14034     1.243      2.604     83.75559  17.9363        196
 5.17   0.0372   1550.0061   1220.5410  -0.01     2450.115     0.996     65.14034     0.776      2.547     83.83143  19.5770        197
 3.50   0.0003   1557.0232    485.9650 -48.73     300361.8     1.811     65.14034     1.794      2.707     83.78404  14.3559        198
 7.45   0.0339   1531.5010    414.0070  89.85     2680.006     0.821     65.14034     0.711      3.701     83.74611  19.4797        199
 3.93   0.0070   1541.5602    652.9684  -5.45     12981.88     1.360     65.14034     1.268      2.641     83.82195  17.7667        200
 7.98   0.0440   1519.2098   1099.3802  72.40     2067.438     0.762     65.14034     0.448      3.210     83.77456  19.7614        201
 3.50   0.0023   1513.8955    390.9565 -19.27     40296.63     1.511     65.14034     1.471      2.572     83.71765  16.5368        202
 7.01   0.0524   1065.9607    567.4847 -88.52     1735.371     0.785     65.14034     0.500      2.779     83.77456  19.9515        203
 5.90   0.0395   1514.6218   1545.8690  73.99     2303.632     1.036     65.14034     0.735      3.142     83.81248  19.6440        204
 5.05   0.0413   1513.6230    482.0370 -73.38     2203.331     0.966     65.14034     0.741      2.363     83.78404  19.6923        205
 4.35   0.0218   1503.1702    721.7780  46.05     4173.792     1.114     65.14034     1.010      2.547     83.79352  18.9987        206
 5.71   0.0645   1497.6772    842.9538   2.85      1410.71     0.732     65.14034     0.661      2.341     83.74611  20.1764        207
 6.28   0.0517   1487.0623     76.3034  83.96     1758.282     0.736     65.14034     0.672      2.674     83.72714  19.9373        208
 4.69   0.0334   1078.2964    328.4542 -10.28     2726.149     0.957     65.14034     0.931      2.486     83.72714  19.4611        209
 6.66   0.0166   1064.4292   1561.6660 -76.08     5465.709     1.422     65.14034     1.049      5.426     83.78404  18.7059        210
 4.96   0.0080   1119.1886    328.0514  59.26     11392.68     2.084     65.14034     1.380      5.108     83.83143  17.9084        211
 6.79   0.0128   1109.6206    477.3038  -8.77       7102.5     1.522     65.14034     1.271      6.654     83.75559  18.4215        212
 8.83   0.0304   1474.3861    996.7784 -17.93     2989.553     0.765     65.14034     0.448      4.243     83.76508  19.3610        213
 4.68   0.0261   1128.1554    545.6889 -28.78     3481.124     1.030     65.14034     0.962      2.556     83.73663  19.1957        214
 3.50   0.0026   1106.4398    426.2938 -20.80     35374.59     1.504     65.14034     1.469      2.641     83.69868  16.6783        215
 7.96   0.0322   1481.7223    573.1321 -54.37     2819.868     1.103     65.14034     0.523      4.066     83.71765  19.4244        216
 5.75   0.0591   1445.2115    729.7859 -43.47      1539.77     0.745     65.14034     0.559      2.190     83.76508  20.0814        217
 4.11   0.0125   1150.0950     97.6617 -14.31     7285.775     1.208     65.14034     1.115      2.573     83.73663  18.3938        218
 3.50   0.0006   1137.4657    146.3181 -45.28     160222.8     1.731     65.14034     1.714      2.722     83.70817  15.0382        219
 4.07   0.0334   1405.4136    328.2397  77.12     2721.791     0.958     65.14034     0.924      2.304     83.81248  19.4629        220
 5.46   0.0097   1193.9650    122.3893 -79.05     9342.462     1.612     65.14034     1.356      4.894       83.803  18.1238        221
 5.05   0.0188   1152.7662   1351.5723  16.70     4838.103     1.257     65.14034     1.138      3.457     83.78404  18.8383        222
 5.06   0.0277   1129.2538    217.8313   1.09     3285.926     1.162     65.14034     0.911      3.010       83.803  19.2584        223
 3.50   0.0024   1387.8881   1427.1295  -5.27     38371.23     1.484     65.14034     1.471      2.582     83.71765  16.5900        224
 5.42   0.0131   1258.5282    430.7979  16.40     6948.891     1.601     65.14034     1.442      4.798     83.82195  18.4452        225
 3.52   0.0051   1434.2655    223.0121 -27.77     17957.03     1.369     65.14034     1.318      2.490     83.82195  17.4144        226
 3.50   0.0002   1392.3219    112.7204 -63.33     410344.8     1.860     65.14034     1.830      2.737     83.74611  14.0171        227
 3.78   0.0069   1389.4834    711.6834 -12.46     13246.83     1.319     65.14034     1.246      2.567     83.72714  17.7447        228
 3.50   0.0071   1407.1290    306.5896 -58.16      12909.2     1.333     65.14034     1.280      2.468     83.83143  17.7728        229
 3.51   0.0069   1438.8043    617.5106 -19.09     13236.87     1.300     65.14034     1.296      2.467     83.75559  17.7455        230
 5.29   0.0397   1437.8807   1269.6454  12.90      2293.55     0.970     65.14034     0.743      2.593     83.74611  19.6487        231
 6.12   0.0831   1435.4896   1345.9685   0.52     1094.306     0.777     65.14034     0.500      2.229     83.75559  20.4522        232
 6.83   0.0403   1431.0245    339.0038  34.88     2260.061     0.813     65.14034     0.783      3.388     83.78404  19.6647        233
 5.23   0.0248   1410.1804    348.2027  44.59     3665.466     1.284     65.14034     1.027      3.508     83.77456  19.1397        234
 3.97   0.0106   1414.4740   1385.1525 -83.46     8567.065     1.199     65.14034     1.187      2.484     83.74611  18.2179        235
 7.42   0.1094   1261.3177    214.3352 -44.19     831.1136     0.571     65.14034     0.337      2.053     83.71765  20.7508        236
 3.50   0.0025   1290.4095    760.5784 -22.98     36045.05     1.963     65.14034     1.445      2.962     83.77456  16.6579        237
 5.00   0.0442   1387.9564    805.0132 -34.65     2056.656     0.780     65.14034     0.773      2.368     83.79352  19.7671        238
 5.05   0.0190   1399.8220   1029.8907  41.53     4781.035     1.233     65.14034     1.119      3.263     83.75559  18.8512        239
 3.94   0.0100   1391.3380   1037.2936 -43.58     9076.667     1.261     65.14034     1.190      2.599     83.74611  18.1552        240
 3.82   0.0016   1271.7605    608.2715 -56.40     57507.23     3.819     65.14034     2.244      6.692     83.78404  16.1507        241
 3.50   0.0020   1371.5881   1017.4000 -29.14      45232.3     1.598     65.14034     1.523      2.683     83.78404  16.4114        242
 3.54   0.0042   1277.2020   1329.9390 -72.17     21877.95     1.404     65.14034     1.363      2.559      83.8409  17.2000        243
 4.13   0.0197   1291.6356    411.0921 -19.83     4609.213     1.142     65.14034     1.017      2.419     83.73663  18.8909        244
 7.51   0.0608   1345.1929    603.5857 -70.25     1494.506     0.753     65.14034     0.448      2.699     83.73663  20.1138        245
 7.99   0.0758   1378.3179    317.3241 -44.69     1200.411     0.567     65.14034     0.339      2.544     83.74611  20.3517        246
 3.50   0.0006   1318.9797    658.3566 -51.30     154972.7     1.743     65.14034     1.712      2.719       83.803  15.0744        247
 4.64   0.0382   1329.3981    385.3568  44.48     2383.668     0.962     65.14034     0.868      2.474     83.83143  19.6069        248
 9.46   0.0277   1351.5060    150.4881 -47.39      3287.15     0.501     65.14034     0.499      3.003     83.70817  19.2579        249
 3.83   0.0049   1328.8938    654.2342 -52.05     18568.95     1.535     65.14034     1.422      2.935     83.73663  17.3780        250
 4.06   0.0204   1331.7502    105.6862 -41.19     4464.866     1.106     65.14034     1.056      2.446     83.74611  18.9255        251
 4.43   0.0223   1303.8361    891.3013  63.38     4081.837     1.076     65.14034     1.003      2.490     83.69868  19.0229        252
 3.95   0.0060   1306.4565    668.0087  -7.10        15084     1.365     65.14034     1.285      2.676     83.85037  17.6037        253
 4.46   0.0289   1318.3636    262.3821 -41.33      3149.11     1.016     65.14034     0.927      2.415     83.81248  19.3045        254
 3.50   0.0001   1297.3243    723.2333 -49.66     965931.1     1.993     65.14034     1.943      2.783     83.76508  13.0876        255
 6.91   0.0664   1290.5083    544.4692 -50.07     1369.297     0.502     65.14034     0.497      2.021     83.73663  20.2088        256
 5.66   0.0111   1292.5227    740.7449 -27.93     8201.398     1.224     65.14034     1.210      4.472     83.75559  18.2653        257
 5.54   0.0543   1298.1482     52.1714 -45.81     1675.516     0.804     65.14034     0.675      2.339     83.81248  19.9896        258
 3.50   0.0054   1264.4128    806.2385  -3.53     17002.37     1.367     65.14034     1.337      2.543     83.81248  17.4737        259
 5.64   0.0446   1261.1466    853.8231  46.58     2040.593     0.799     65.14034     0.679      2.438     83.83143  19.7756        260
 3.98   0.0105   1236.2218   1552.2218 -25.35     8627.741     1.235     65.14034     1.181      2.543       83.803  18.2103        261
 7.66   0.0525   1272.7844    696.4196 -70.82     1732.422     0.740     65.14034     0.455      2.930     83.77456  19.9534        262
 3.50   0.0019   1217.9402   1193.3903  -6.77     49173.88     1.605     65.14034     1.572      2.740      83.8409  16.3207        263
 6.43   0.0187   1228.8069    597.3965 -79.18     4877.673     1.168     65.14034     1.092      4.863     83.76508  18.8295        264
 5.28   0.0428   1227.9424   1152.0444 -26.21     2126.371     0.775     65.14034     0.772      2.397     83.77456  19.7309        265
 4.79   0.0415   1236.5430     46.4796 -30.81     2192.045     0.891     65.14034     0.881      2.393     83.75559  19.6979        266
 3.50   0.0065   1233.3020    303.0944   7.24     14004.01     1.334     65.14034     1.325      2.496     83.68919  17.6844        267
 6.25   0.0118   1211.7311   1427.9958  26.63     7692.094     1.666     65.14034     1.557      6.291     83.82195  18.3349        268
 3.83   0.0018   1209.8131   1277.4897  84.44     49972.95     5.416     65.14034     3.142      9.650     83.77456  16.3032        269
 3.50   0.0012   1213.5981    511.3777 -17.48     75712.06     1.606     65.14034     1.570      2.652     83.78404  15.8521        270
 3.96   0.0104   1206.7020    837.2943  39.09     8764.104     1.250     65.14034     1.197      2.561     83.68919  18.1932        271
 6.28   0.0753   1203.2600   1215.9835   1.00     1208.522     0.661     65.14034     0.439      2.179     83.78404  20.3444        272
 3.90   0.0110   1200.7714    337.3943  14.45     8287.021     1.240     65.14034     1.196      2.544     83.79352  18.2540        273
 4.54   0.0162   1199.9950   1440.7178  60.81     5610.937     1.443     65.14034     1.256      3.501     83.78404  18.6774        274
 5.16   0.0601   1180.9392    174.5022  -0.38      1511.82     0.785     65.14034     0.700      2.310     83.72714  20.1012        275
 4.85   0.0304   1179.9983    547.6570  -6.45     2992.982     0.956     65.14034     0.937      2.584     83.85037  19.3597        276
 3.50   0.0031   1156.7819    234.6898 -15.67     29768.86     1.474     65.14034     1.429      2.610     83.77456  16.8656        277
 4.56   0.0270   1160.6958    886.1809  12.50     3366.013     1.041     65.14034     0.946      2.384     83.76508  19.2322        278
 6.33   0.0633   1130.0095    357.4835 -89.13     1438.285     0.772     65.14034     0.500      2.398     83.77456  20.1554        279
 3.50   0.0004   1164.2815   1298.2550 -57.81     257027.9     1.791     65.14034     1.772      2.722     83.71765  14.5250        280
 6.07   0.0433   1166.0150   1599.2726  89.52     1634.516     0.737     65.14034     0.666      2.666     65.16266  20.0165        281
 3.50   0.0011   1128.9396    181.7825 -32.03     83518.41     1.636     65.14034     1.607      2.671     83.78404  15.7455        282
 3.99   0.0204   1094.6251   1525.2061  -7.39     4461.838     1.081     65.14034     1.021      2.338     83.79352  18.9262        283
 3.50   0.0005   1079.0358    510.4872 -24.43     169920.6     1.729     65.14034     1.718      2.705     83.76508  14.9744        284
 6.41   0.0219   1089.9573    466.4429 -63.45     4153.509     1.629     65.14034     0.837      5.077     83.76508  19.0040        285
 3.50   0.0018   1080.8557   1146.7013  -7.45     49278.34     1.538     65.14034     1.516      2.608      83.6797  16.3184        286
 5.31   0.0631   1093.8127   1134.8312 -44.17     1442.858     0.799     65.14034     0.677      2.259     83.81248  20.1519        287
 6.99   0.0811    981.4794   1485.5005 -33.80     1120.706     0.500     65.14034     0.499      2.124     83.69868  20.4263        288
 8.58   0.0540   1085.5018   1451.4797  48.52     1683.052     0.501     65.14034     0.498      3.009     83.69868  19.9848        289
 5.43   0.0090   1071.1219   1217.5728 -73.27     10075.28     1.549     65.14034     1.406      4.906     83.77456  18.0419        290
 3.50   0.0009   1024.9236   1378.5546 -42.49     99311.21     1.629     65.14034     1.615      2.645     83.75559  15.5575        291
 3.50   0.0011   1008.8862    812.1166 -26.98     85269.41     1.620     65.14034     1.606      2.641     83.72714  15.7230        292
 5.93   0.0127    985.6927    452.3828  48.89     7147.985     1.407     65.14034     1.289      5.141     83.78404  18.4145        293
 3.50   0.0006    983.9282    556.8718 -30.11     151656.8     1.716     65.14034     1.700      2.677     83.72714  15.0978        294
 3.50   0.0004   1039.2604    631.4094 -45.32     218329.8     1.766     65.14034     1.757      2.720      83.8409  14.7022        295
 6.91   0.0731    997.2210    231.5965 -71.47     1244.007     0.730     65.14034     0.456      2.455     83.77456  20.3129        296
 3.50   0.0020   1037.7264    523.7981  25.63     44538.97     1.523     65.14034     1.513      2.642     83.82195  16.4281        297
 7.87   0.0720   1013.5191    451.4943  43.26     1262.535     0.503     65.14034     0.497      2.669     83.72714  20.2969        298
 4.20   0.0212    998.9316   1272.3479 -65.75     4286.571     1.129     65.14034     1.015      2.401     83.74611  18.9697        299
 4.71   0.0098   1029.2104    300.9460  64.78     9313.988     2.132     65.14034     1.508      5.054     83.83143  18.1272        300
 3.59   0.0069   1010.2874    343.0584  -6.71     13142.63     1.338     65.14034     1.303      2.526     83.74611  17.7533        301
 8.52   0.0507   1010.3059    266.3173 -44.37      1792.84     0.558     65.14034     0.343      2.682     83.72714  19.9161        302
 3.88   0.0157   1000.6243   1554.0305 -74.47     5798.728     1.148     65.14034     1.126      2.415     83.76508  18.6417        303
