#   1 KRON_RADIUS            Kron apertures in units of A or B                         
#   2 MAGERR_APER            RMS error vector for fixed aperture mag.                   [mag]
#   3 Y_IMAGE                Object position along y                                    [pixel]
#   4 X_IMAGE                Object position along x                                    [pixel]
#   5 THETA_IMAGE            Position angle (CCW/x)                                     [deg]
#   6 FLUX_APER              Flux vector within fixed circular aperture(s)              [count]
#   7 A_IMAGE                Profile RMS along major axis                               [pixel]
#   8 THRESHOLD              Detection threshold above background                       [count]
#   9 B_IMAGE                Profile RMS along minor axis                               [pixel]
#  10 FLUX_RADIUS            Fraction-of-light radii                                    [pixel]
#  11 FLUXERR_APER           RMS error vector for aperture flux(es)                     [count]
#  12 MAG_APER               Fixed aperture magnitude vector                            [mag]
#  13 NUMBER                 Running object number                                     
 4.37   0.0010     53.2492     63.7991   2.40     32304.02     4.357           15     3.984      9.816     29.00869  16.7769          1
 4.10   0.0060     16.4718    985.1567 -88.07      5217.42     3.735           15     1.698      7.012     28.97917  18.7564          2
 3.97   0.0066     17.9865     91.3714 -53.26      4807.22     1.570           15     1.488      3.314     28.99557  18.8453          3
 3.50   0.0026     14.5972   1445.8169 -80.07     11955.72     1.744           15     1.672      3.249     28.97917  17.8561          4
 6.99   0.0486     17.1821    384.7968 -45.25       647.82     0.753           15     0.567      3.303     28.97917  21.0214          5
 5.12   0.0308     24.7609    367.2383  39.82      1021.16     1.062           15     1.038      3.179     28.99885  20.5273          6
 3.50   0.0007     59.7664   1078.5476  80.39     47483.54     2.148           15     2.001      3.636     28.99885  16.3586          7
 3.50   0.0007     80.0907    537.6920 -71.63     46274.66     2.048           15     1.992      3.555     28.95948  16.3866          8
 4.34   0.0154     75.2280    128.2098 -42.79       2041.1     1.334           15     1.292      3.376     28.99229  19.7753          9
 8.75   0.0612     82.4950    421.5017 -44.79       513.64     0.501           15     0.499      3.009     28.95948  21.2734         10
 3.50   0.0005    121.7744    789.2222 -67.47     66618.44     2.120           15     2.061      3.570     28.99557  15.9910         11
 8.24   0.0329     90.7881    376.9991  89.85       957.82     0.946           15     0.770      5.161     28.98573  20.5968         12
 4.37   0.0106     96.5909     56.2589 -21.93      2971.42     1.408           15     1.318      3.424     29.00869  19.3676         13
 7.57   0.0498     98.0005    453.0040 -43.86       632.16     0.898           15     0.535      3.696     28.98901  21.0479         14
 3.50   0.0008    162.2509   1468.3955 -79.64      39243.5     2.033           15     1.946      3.518     29.00869  16.5656         15
 3.61   0.0031    170.2679    877.3882 -62.71     10081.64     1.723           15     1.681      3.330     29.00541  18.0412         16
 5.50   0.0346    164.9924   1445.5902 -89.97       909.22     1.087           15     0.949      3.370     28.97589  20.6533         17
 5.22   0.0475    166.6618    104.3994 -43.06        663.7     0.998           15     0.873      2.956     29.00869  20.9951         18
 5.60   0.0250    192.6395   1350.5353  80.76      1261.72     1.088           15     1.003      3.837     28.99229  20.2976         19
 5.55   0.0081    210.6582    827.6677  -6.34         3883     2.747           15     1.712      7.964     28.98245  19.0771         20
 4.24   0.0150    206.6921    549.1891  64.24      2094.62     1.319           15     1.299      3.101     28.98245  19.7472         21
 4.20   0.0147    212.1993   1306.1979 -78.19      2142.24     1.352           15     1.291      3.257     28.99557  19.7228         22
 6.11   0.0100    230.0650    562.1762 -37.98      3154.34     2.561           15     2.306      8.961     28.99557  19.3027         23
 7.21   0.0539    210.8688    684.8645 -46.17          584     0.834           15     0.678      3.689     28.97261  21.1340         24
 3.91   0.0127    223.9686   1226.1376  86.77      2469.84     1.401           15     1.322      3.123     28.98901  19.5683         25
 3.50   0.0003    259.7245    997.4921 -72.06       110186     2.227           15     2.157      3.598     28.96933  15.4447         26
 5.13   0.0377    222.5072    774.9922  -1.68        834.4     1.082           15     0.952      3.350     28.98245  20.7466         27
 3.50   0.0004    265.8916     67.6592 -62.74     83827.26     2.148           15     2.101      3.550     28.97261  15.7415         28
 6.33   0.0206    244.0010    112.9882 -80.50      1527.34     1.555           15     1.218      6.106     28.98573  20.0902         29
 7.80   0.0509    239.2809    838.9832  -2.94       619.22     0.742           15     0.683      4.028     28.99557  21.0704         30
 5.14   0.0082    255.4213    613.0656 -35.57      3838.92     2.017           15     1.708      5.740     28.99557  19.0895         31
 8.38   0.0430    250.5010    107.5009 -45.00       731.58     0.502           15     0.498      3.014     28.95948  20.8893         32
 3.50   0.0014    287.5008   1486.5306 -70.04     21937.72     1.912           15     1.832      3.407     28.97261  17.1970         33
 3.73   0.0059    281.8641   1522.4325 -68.81      5347.62     1.578           15     1.530      3.229     28.98901  18.7296         34
 8.46   0.0580    270.6871   1273.6602 -43.74       542.54     0.571           15     0.336      2.939     28.97261  21.2139         35
 3.50   0.0019    303.1224    201.8259 -70.31      16734.8     1.814           15     1.787      3.368     28.98901  17.4909         36
 6.55   0.0288    293.4106   1475.6356 -46.77      1093.44     0.995           15     0.875      4.642     28.99557  20.4530         37
 5.55   0.0355    302.2738    563.5635 -15.20       885.92     0.984           15     0.953      3.348     28.98245  20.6815         38
 3.50   0.0028    322.0353    697.3682 -75.04     11306.78     1.742           15     1.712      3.277     28.99229  17.9167         39
 5.50   0.0154    327.5102    595.5055 -26.45      2047.86     1.401           15     1.390      4.704     28.95948  19.7717         40
 8.79   0.0368    321.9905    641.4991 -88.31       856.08     0.808           15     0.500      4.315     28.97589  20.7187         41
 6.64   0.0632    332.0735     93.3000  80.04       497.66     0.732           15     0.672      3.059     28.95948  21.3077         42
 4.78   0.0274    350.0340     54.8757 -37.01      1147.84     1.148           15     1.130      3.372     28.98245  20.4003         43
 3.67   0.0027    368.1146    761.1957 -69.51     11797.98     1.768           15     1.698      3.380     28.98573  17.8705         44
 4.45   0.0145    361.2217   1500.5074 -58.49       2167.1     1.322           15     1.301      3.370     28.97917  19.7103         45
 6.16   0.0577    360.5319   1034.0068 -89.68       545.46     0.799           15     0.704      2.681     29.00541  21.2081         46
 3.50   0.0006    395.1687    231.5045 -65.60     50461.42     2.053           15     2.012      3.536     28.97261  16.2926         47
 3.55   0.0038    397.0243   1461.2343  87.70       8212.8     1.652           15     1.608      3.205     28.99229  18.2638         48
 3.53   0.0033    398.1424    354.6748 -35.74      9468.74     1.702           15     1.657      3.261     28.97589  18.1093         49
 4.16   0.0159    393.7128   1088.7422 -66.82         1977     1.309           15     1.244      2.997     28.97589  19.8100         50
 8.97   0.0441    396.6698    626.6751 -45.24       713.64     0.572           15     0.336      3.185     28.96604  20.9163         51
 8.03   0.0274    412.4884      1.4985 -89.99        877.9     1.100           15     0.500      5.129     22.13321  20.6914         52
 3.50   0.0017    437.9201    252.1413 -80.22     18157.82     1.851           15     1.804      3.414     28.97917  17.4023         53
 6.20   0.0326    420.8461    159.1396  44.41       966.34     1.256           15     1.064      4.517     28.98573  20.5872         54
 3.50   0.0002    461.0544    807.6869 -69.40     131923.8     2.242           15     2.186      3.572     28.97261  15.2492         55
 4.56   0.0204    432.9372   1422.0659 -49.26      1542.34     1.190           15     1.123      3.176     28.97261  20.0795         56
 8.00   0.0010    426.3267    433.6627  44.53     30051.88     0.576           15     0.334      3.389     28.96933  16.8553         57
 6.07   0.0589    434.0292    151.0296  47.60        534.2     0.785           15     0.783      2.960     28.98901  21.2307         58
 3.82   0.0051    450.2974     21.4172 -76.10      6136.76     1.607           15     1.557      3.312     28.98245  18.5802         59
 6.13   0.0322    445.2569    122.4241 -59.88        977.9     1.150           15     0.955      4.099     28.99557  20.5743         60
 5.79   0.0495    440.0038    305.7815  -0.69        635.8     0.903           15     0.755      3.003     28.98245  21.0417         61
 5.50   0.0072    467.7160    850.4396  22.49      4379.36     6.214           15     1.752     14.005     28.98573  18.9465         62
 3.76   0.0045    457.8175     34.6510 -46.81      6977.02     1.641           15     1.575      3.325     28.99557  18.4408         63
 4.39   0.0143    463.6512    468.6115  74.13      2203.78     1.350           15     1.322      3.345     29.00213  19.6921         64
 6.04   0.0489    461.0798   1096.3517  15.46       644.12     0.998           15     0.748      3.171     28.97589  21.0276         65
 3.99   0.0113    472.0443    734.9708 -52.27      2798.22     1.390           15     1.378      3.261     29.00541  19.4328         66
 4.61   0.0170    471.3667    254.3258 -43.81      1849.28     1.344           15     1.252      3.322     28.98245  19.8825         67
 3.84   0.0089    477.9377    923.1066  72.21      3545.68     1.452           15     1.428      3.175     28.97589  19.1758         68
 4.69   0.0244    477.4910   1276.5251 -45.49      1287.68     1.092           15     0.799      2.921     28.96933  20.2755         69
 4.37   0.0207    484.0191   1070.6996  -6.91      1520.78     1.210           15     1.175      3.178     28.96933  20.0948         70
 6.01   0.0142    496.1053     83.1115  50.20      2220.24     1.884           15     1.591      6.230     28.95948  19.6840         71
 8.63   0.0464    488.4909    839.6686 -89.77       677.84     0.943           15     0.471      4.685     28.96933  20.9722         72
 6.13   0.0150    495.5521   1186.8837 -11.66         2097     2.280           15     1.434      6.905     28.97589  19.7460         73
 4.85   0.0360    502.0215    863.7155  89.92        874.1     1.068           15     1.028      3.072     28.98901  20.6961         74
 6.51   0.0246    504.1061    762.9114 -42.71      1278.08     1.291           15     1.185      5.067     28.96276  20.2836         75
 5.27   0.0113    515.3171   1461.1370  25.70      2795.44     3.247           15     1.350      7.596     28.97261  19.4339         76
 7.27   0.0418    509.9713    165.8056  -2.30       753.64     0.919           15     0.755      4.262     28.99229  20.8571         77
 5.34   0.0360    513.7430   1179.4207 -16.38       873.62     0.975           15     0.950      3.242     28.99885  20.6967         78
 6.64   0.0530    519.0310    641.9885 -40.84       593.76     0.798           15     0.789      3.502     28.99885  21.1160         79
 4.34   0.0155    540.2678    999.9679 -83.58      2029.22     1.315           15     1.273      3.173     28.99229  19.7817         80
 4.08   0.0110    558.9242   1041.8359  61.82      2854.78     1.412           15     1.386      3.298     28.98245  19.4111         81
 5.05   0.0177    571.2046     45.9520  48.68      1784.62     1.777           15     1.283      4.519     29.00869  19.9211         82
 3.50   0.0028    582.1641    319.2921 -56.60     11279.12     1.742           15     1.715      3.316     28.97261  17.9193         83
 3.50   0.0028    580.6515    145.0341 -74.15     11318.86     1.737           15     1.686      3.267     28.99885  17.9155         84
 5.96   0.0191    571.4419   1447.9792  26.56      1652.08     1.708           15     1.350      5.729     28.99557  20.0049         85
 7.61   0.0740    564.7873    139.5964  71.59       425.04     0.738           15     0.455      2.826     28.97589  21.4789         86
 5.04   0.0065    596.6771    782.6903 -64.70       4834.1     2.798           15     2.492      8.007     28.96933  18.8392         87
 7.81   0.0555    576.1833   1001.8245 -44.97       567.54     0.763           15     0.571      3.714     28.98245  21.1650         88
 5.26   0.0445    584.5250     76.1989 -81.79       707.28     0.982           15     0.943      3.018     28.99557  20.9260         89
 4.92   0.0336    999.8708   1273.8196 -45.51       938.28     1.158           15     1.029      3.110     29.00541  20.6192         90
 6.35   0.0326   1597.6212    654.8572 -17.19       828.84     1.232           15     0.990      4.253     24.91799  20.7538         91
 7.06   0.0551   1594.8591    374.1336  45.09       550.48     0.838           15     0.672      3.404     27.92649  21.1981         92
 5.97   0.0313   1546.0352    863.5189  67.46      1004.54     1.273           15     0.964      4.130     28.98573  20.5451         93
 4.27   0.0109   1542.5936    654.7667  -9.51      2898.78     1.395           15     1.374      3.375     28.99557  19.3945         94
 3.94   0.0077   1541.7943    135.1802  72.40       4101.7     1.503           15     1.450      3.225     28.98573  19.0176         95
 3.54   0.0031   1038.6554    525.4937 -61.89      10182.5     1.726           15     1.694      3.306     28.97261  18.0304         96
 3.50   0.0015   1025.7018   1380.0769 -83.27     21101.88     1.909           15     1.810      3.381     28.96276  17.2392         97
 6.68   0.0219    986.7147    454.0607  85.30       1437.5     1.295           15     1.222      5.844     28.97261  20.1560         98
 5.94   0.0297    980.9628    797.9971 -77.02      1059.98     1.187           15     1.170      4.375     28.98901  20.4868         99
 7.35   0.0447    978.1801    452.8186 -45.70       703.76     0.753           15     0.569      3.661     28.98901  20.9314        100
 6.87   0.0716    965.0379    416.4961 -89.77       439.24     0.784           15     0.500      2.626     28.96604  21.4432        101
 6.93   0.0380    950.7533    654.4555  -2.99        829.4     1.002           15     0.989      4.634     28.98573  20.7531        102
 6.65   0.0735    947.8222    445.1938 -45.44       428.54     0.748           15     0.567      2.997     28.98573  21.4700        103
 4.10   0.0139    939.1708   1067.2499 -76.19      2263.56     1.385           15     1.285      3.271     28.99885  19.6630        104
 9.23   0.0483    938.4916    516.4865  45.39        651.1     0.504           15     0.496      3.024     28.95948  21.0159        105
 4.76   0.0258    928.2906   1322.6356  66.79      1219.28     1.130           15     1.104      3.230     28.97589  20.3347        106
 4.70   0.0345    912.8324    838.5927 -75.27        913.1     1.130           15     0.955      2.848     28.99229  20.6487        107
 6.07   0.0706    912.1641   1001.1413 -44.58       446.22     0.815           15     0.676      2.681     28.99229  21.4261        108
 3.59   0.0041    900.3816    302.9015 -56.98      7669.84     1.642           15     1.617      3.245     28.97917  18.3380        109
 5.87   0.0210    896.1433    538.3982  -0.40      1502.16     1.478           15     1.256      4.932     29.01196  20.1082        110
 8.36   0.0959    893.5396   1426.4816 -31.55       327.92     0.500           15     0.498      2.819     28.96933  21.7606        111
 6.99   0.0394    888.6398    325.7913  22.54          800     1.161           15     0.889      4.582     28.99557  20.7923        112
 3.50   0.0003    880.1780   1592.6589 -81.56     105894.5     2.228           15     2.106      3.596     28.99885  15.4878        113
 4.88   0.0307    885.8364   1500.2797  67.33      1023.92     1.118           15     1.017      3.140     28.98245  20.5243        114
 5.37   0.0564    877.6447    961.0855 -75.72        558.3     0.989           15     0.750      3.027     28.97917  21.1828        115
 4.40   0.0103    869.4243   1103.7172 -46.36       3053.5     1.752           15     1.556      4.301     28.98573  19.3380        116
 6.08   0.0299    867.9976    939.9743  38.43      1051.64     1.448           15     1.024      4.797     28.98573  20.4953        117
 5.62   0.0420    858.4358   1339.6268 -53.19       748.92     1.012           15     0.878      3.522     28.99229  20.8639        118
 5.75   0.0548    844.9875   1063.9880 -44.90        574.7     0.786           15     0.780      2.911     28.98245  21.1514        119
 5.10   0.0258    843.2435   1106.2429  31.06      1222.26     1.322           15     1.115      3.829     28.99229  20.3321        120
 4.52   0.0189    836.5932    298.8609 -78.07      1670.84     1.285           15     1.208      3.229     29.01196  19.9927        121
 7.92   0.0915    835.5115    819.4685 -54.77       343.92     0.501           15     0.498      2.807     28.96604  21.7089        122
 3.61   0.0041    822.9625    654.4772 -76.30      7672.54     1.658           15     1.601      3.256     28.98245  18.3377        123
 3.53   0.0045    803.0191   1378.7842 -73.81      6989.64     1.658           15     1.602      3.204     28.98901  18.4389        124
 3.50   0.0016    798.4828    695.7690 -87.55     19317.88     2.515           15     1.794      4.201     28.98573  17.3351        125
 4.21   0.0094    800.7248     41.2087 -49.92       3348.2     1.443           15     1.391      3.326     29.00213  19.2380        126
 5.30   0.0124    774.3524   1427.3524 -89.60      2545.56     2.334           15     1.592      6.360     29.00213  19.5355        127
 4.51   0.0174    742.8000    556.4390  -7.66       1811.7     1.279           15     1.255      3.315     28.99557  19.9048        128
 5.55   0.0512    738.1602   1158.1676 -41.61       615.48     0.886           15     0.857      3.051     28.99885  21.0770        129
 5.80   0.0473    736.1319    649.8373  41.46       665.52     0.881           15     0.858      3.152     28.98901  20.9921        130
 3.50   0.0005    726.5585    848.5452 -74.43     66599.72     2.114           15     2.060      3.584     28.98573  15.9913        131
 4.62   0.0254    727.3411   1178.3016 -47.28      1238.88     1.129           15     1.099      2.990     28.96604  20.3174        132
 7.58   0.0759    721.3962   1395.1848  18.81       414.86     0.753           15     0.449      3.133     28.97917  21.5052        133
 4.23   0.0198    715.8390    808.4616 -12.40      1591.52     1.271           15     1.255      3.124     28.98901  20.0455        134
 4.40   0.0196    708.9507   1163.8972 -48.85      1605.94     1.226           15     1.164      3.178     28.95291  20.0357        135
 4.87   0.0176    704.2919   1339.2717 -44.42      1790.26     1.431           15     1.288      4.393     28.97261  19.9177        136
 4.01   0.0104    702.7967    952.6184 -44.98      3033.56     1.414           15     1.390      3.232     28.97917  19.3451        137
 9.02   0.0497    699.2294    582.9828   0.69       633.96     0.708           15     0.420      3.931     28.99229  21.0448        138
 6.62   0.0370    691.6905   1213.7839  70.15       850.04     0.990           15     0.865      4.229     28.98901  20.7264        139
 6.97   0.0399    686.6770   1213.8536 -69.32        788.2     0.914           15     0.688      3.901     28.97261  20.8084        140
 4.50   0.0128    685.5959    644.3976 -82.69       2452.7     1.328           15     1.321      3.399     28.98245  19.5759        141
 7.12   0.0896    687.7313    131.0001   0.00       351.66     0.669           15     0.443      2.660     29.00213  21.6847        142
 3.50   0.0005    648.2305   1464.4567 -76.38     65197.72     2.127           15     2.037      3.572     28.99885  16.0144        143
 5.46   0.0466    654.5654    870.9781  89.85       675.24     1.017           15     0.784      3.032     28.99229  20.9764        144
 8.37   0.0761    645.6625    653.2984  47.02        413.3     0.563           15     0.340      2.812     28.97589  21.5093        145
 5.07   0.0414    630.7282    806.4159  -7.03       761.36     0.977           15     0.948      3.095     29.00869  20.8460        146
 4.69   0.0249    623.4043   1581.6975  74.82      1262.58     1.182           15     1.096      3.115     28.98245  20.2969        147
 4.81   0.0273   1561.2231    861.4937 -66.69      1153.64     1.121           15     1.111      3.202     28.97917  20.3948        148
 3.50   0.0005   1563.6315    304.3055 -72.01     59096.56     2.082           15     2.031      3.513     28.97589  16.1211        149
 4.72   0.0211   1584.8805   1108.9479 -60.76      1489.78     1.178           15     1.173      3.277     28.96933  20.1172        150
 4.31   0.0127   1566.6227     22.1045 -17.56      2476.42     1.401           15     1.321      3.296     28.98245  19.5654        151
 3.93   0.0017   1552.5898    682.3233 -24.86     18928.88     4.147           15     3.619      8.781     29.00541  17.3572        152
 4.37   0.0170   1570.5461     92.7412 -61.21         1848     1.310           15     1.245      3.187     28.98245  19.8832        153
 5.20   0.0217   1565.8043    784.7218 -78.51      1450.58     1.552           15     1.216      4.162     28.99229  20.1461        154
 3.50   0.0005   1557.9663    487.7611 -72.60     58711.12     2.086           15     2.033      3.515     28.99557  16.1282        155
 6.35   0.0626   1550.8770   1222.1025  44.89       502.22     0.826           15     0.669      3.102     28.96604  21.2978        156
 3.50   0.0009   1507.1432    269.4519 -58.83     33662.68     1.959           15     1.921      3.446     28.98573  16.7321        157
 6.55   0.0715   1514.6918    483.9342   7.20       440.32     0.734           15     0.671      2.918     28.97917  21.4406        158
 7.54   0.0294   1065.4039   1563.3425 -48.64      1072.58     1.118           15     0.964      5.674     29.00869  20.4739        159
 8.92   0.0804   1515.4932   1547.4723  48.41        391.2     0.503           15     0.497      3.016     28.96933  21.5690        160
 3.50   0.0034   1514.8628    392.7805  76.21       9185.6     1.694           15     1.647      3.250     28.99557  18.1422        161
 8.06   0.1256   1498.5021    844.4894  71.39        250.4     0.500           15     0.500      2.836     28.95948  22.0534        162
 5.16   0.0378   1504.0897    723.4744 -89.39       831.32     1.085           15     0.951      3.002     28.96933  20.7506        163
 7.40   0.0237   1110.5958    479.0725 -11.39      1326.22     1.297           15     1.025      6.299     28.99885  20.2435        164
 6.51   0.0749   1065.8096   1597.1837 -44.95       369.32     0.749           15     0.566      2.679     25.46902  21.6315        165
 3.65   0.0038   1107.3953    428.0926 -86.80      8207.64     1.678           15     1.650      3.320     28.97589  18.2645        166
 5.31   0.0135   1120.2264    329.9040  57.57      2339.08     2.035           15     1.386      5.651     28.97917  19.6274        167
 5.63   0.0419   1129.2434    547.4766  -3.18       751.42     0.976           15     0.953      3.448     28.97917  20.8603        168
 6.23   0.0507   1130.1013    219.6709 -13.35        620.7     1.013           15     0.753      3.165     28.97261  21.0678        169
 4.59   0.0193   1151.1082     99.4962  -2.38      1632.44     1.291           15     1.166      3.357     28.95948  20.0179        170
 4.56   0.0342   1292.8181    412.8271 -44.17       920.86     1.156           15     1.030      2.944     28.99229  20.6395        171
 3.50   0.0010   1138.4772    148.1784 -70.68     32636.46     1.973           15     1.918      3.477     28.99229  16.7657        172
 6.09   0.0315   1400.5327   1031.4998  44.01       999.96     1.062           15     1.036      4.103     28.97261  20.5500        173
 8.15   0.0964   1181.5382    176.4770 -20.44        326.4     0.500           15     0.498      2.597     28.97261  21.7656        174
 5.85   0.0324   1153.6644   1353.1248  26.20       971.86     1.168           15     1.049      3.815     28.96933  20.5810        175
 6.63   0.0740   1228.7875   1153.7913  44.47       425.44     0.750           15     0.564      2.953     28.97589  21.4779        176
 6.64   0.0837   1438.7155   1271.0420  -4.36       376.12     0.731           15     0.677      2.829     28.98245  21.6117        177
 3.85   0.0074   1435.2660    224.8680 -75.20      4230.08     1.519           15     1.457      3.243     28.96604  18.9841        178
 6.63   0.0501   1411.3492    350.1977  56.90       628.32     1.052           15     0.812      3.628     29.00869  21.0545        179
 4.19   0.0104   1390.3984    713.3864  78.13      3021.64     1.403           15     1.320      3.213     28.98245  19.3494        180
 3.50   0.0004   1393.3549    114.5896 -74.95      78262.6     2.135           15     2.077      3.533     28.99557  15.8161        181
 3.85   0.0101   1439.8379    619.2136 -41.43      3104.44     1.436           15     1.396      3.124     28.99885  19.3200        182
 3.57   0.0036   1388.6777   1428.6218 -87.50      8739.58     1.723           15     1.623      3.262     28.99229  18.1963        183
 3.89   0.0110   1408.1768    308.4211 -82.54      2854.74     1.401           15     1.333      3.049     28.99229  19.4111        184
 4.47   0.0165   1415.3768   1386.6431  52.49      1910.42     1.328           15     1.248      3.207     28.99885  19.8472        185
 3.61   0.0031   1372.5100   1019.0497 -58.00      10261.8     1.766           15     1.700      3.400     28.97589  18.0219        186
 6.45   0.0161   1293.5441    742.3362 -34.94      1949.22     1.292           15     1.236      6.054     28.97917  19.8253        187
 7.34   0.0939   1388.7865    806.6002  71.87       335.24     0.735           15     0.456      2.700     28.98901  21.7366        188
 5.65   0.0650   1406.2194    329.9771  89.11       484.42     0.905           15     0.756      2.757     28.99557  21.3369        189
 4.56   0.0153   1392.2908   1038.9076 -53.88      2053.56     1.321           15     1.293      3.286     28.96276  19.7687        190
 3.50   0.0010   1319.9963    660.0883 -71.60      31802.7     2.039           15     1.932      3.485     28.98245  16.7938        191
 5.83   0.0692   1330.3512    386.9190  67.53        454.8     0.894           15     0.696      3.188     28.97589  21.4054        192
 5.12   0.0365   1304.6758    892.9694  -3.48        862.3     1.059           15     1.037      3.048     28.98573  20.7109        193
 4.19   0.0074   1329.8188    655.9507 -72.66      4252.28     1.709           15     1.475      3.667     28.99229  18.9784        194
 4.86   0.0344   1332.7836    107.4864 -87.21       914.24     1.144           15     0.994      3.053     28.98901  20.6473        195
 5.14   0.0481   1319.4197    264.2330 -88.67       654.22     0.979           15     0.950      2.922     28.98901  21.0107        196
 4.62   0.0090   1307.4512    669.8005 -72.64      3500.58     1.486           15     1.426      3.642     29.00869  19.1896        197
 5.15  99.0000   1315.0190    124.5262 -89.61    -68.56001     1.087           15     0.958      4.089     29.00869  99.0000        198
 4.05   0.0026   1272.6891    610.0740 -56.03     12136.42     3.708           15     2.319      6.898     28.96604  17.8398        199
 3.50   0.0002   1298.3278    724.9813 -64.94     174467.2     2.295           15     2.217      3.550     29.00541  14.9457        200
 3.75   0.0039   1291.3447    762.2166 -27.26      8097.18     2.030           15     1.634      3.716     28.99885  18.2792        201
 3.87   0.0080   1265.3972    807.9651 -65.11      3959.48     1.498           15     1.427      3.230     28.98901  19.0559        202
 8.01   0.0969   1262.4708    855.4706 -45.38        324.4     0.500           15     0.499      2.864     28.95619  21.7723        203
 3.90   0.0099   1234.3195    304.9167 -39.75      3193.52     1.440           15     1.419      3.183     28.97261  19.2893        204
 3.86   0.0062   1278.0366   1331.5002 -86.36         5034     1.586           15     1.522      3.315     28.95948  18.7952        205
 3.68   0.0029   1218.7533   1195.0142 -69.87     11011.84     1.786           15     1.757      3.493     28.99229  17.9453        206
 7.33   0.0349   1229.6652    599.3217 -44.10          902     1.026           15     0.887      4.721     28.96933  20.6620        207
 6.10   0.0243   1259.4948    432.6602  45.32      1296.76     1.477           15     1.320      5.014     28.97589  20.2679        208
 4.48   0.0164   1237.0339   1553.5652  90.00      1915.58     1.336           15     1.248      3.355     29.00869  19.8442        209
 6.53   0.0732   1237.6967     48.0688  -9.22       429.94     0.734           15     0.670      2.857     28.97917  21.4665        210
 6.80   0.0223   1212.5885   1429.5646 -23.95      1413.32     1.508           15     1.436      6.568     28.99557  20.1744        211
 4.02   0.0032   1210.5283   1278.9934  86.42      9805.28     5.186           15     3.120      9.963     29.00213  18.0714        212
 5.70   0.0172   1194.9480    124.2832 -80.88      1825.96     1.614           15     1.361      5.254     28.96933  19.8963        213
 4.47   0.0165   1207.5903    838.9650 -86.78       1905.1     1.278           15     1.249      3.158     28.99229  19.8502        214
 4.37   0.0165   1201.7794    339.2090 -19.71      1911.94     1.265           15     1.262      3.244     28.97917  19.8463        215
 3.50   0.0019   1214.5668    513.1224 -76.31     16601.68     1.837           15     1.786      3.330     28.98573  17.4996        216
 5.43   0.0246   1200.9774   1442.2070  71.49      1280.14     1.265           15     1.225      4.452     28.98573  20.2819        217
 5.65   0.0534   1180.9901    549.4854  -0.12       589.28     1.017           15     0.785      3.144     28.98901  21.1242        218
 3.71   0.0046   1157.8312    236.5386 -62.46      6870.22     1.628           15     1.560      3.275     28.98901  18.4576        219
 3.50   0.0017   1129.9292    183.6535 -65.30     18032.74     1.867           15     1.804      3.367     28.97589  17.4098        220
 3.50   0.0006   1165.1116   1299.8560 -82.81     50549.24     2.067           15     2.001      3.522     28.97261  16.2907        221
 5.52   0.0421   1161.6505    887.6822  47.36       748.18     0.990           15     0.873      3.402     28.97589  20.8650        222
 3.50   0.0028   1081.7244   1148.2859 -79.33     11135.88     1.740           15     1.700      3.300     28.96604  17.9332        223
 6.09   0.0565   1079.0853    330.0408  10.92        556.8     0.785           15     0.782      2.911     28.98573  21.1858        224
 3.50   0.0009   1079.9126    512.2473 -74.76      34624.4     1.993           15     1.942      3.491     28.97589  16.7015        225
 4.52   0.0317   1095.4211   1526.7347 -10.35       993.06     1.126           15     1.063      2.920     28.99557  20.5576        226
 3.50   0.0007   1040.1960    633.1637 -74.61     43825.96     2.040           15     1.988      3.512     28.99229  16.4457        227
 7.86   0.0406   1090.8861    468.2244 -60.14       775.66     1.049           15     0.649      4.874     28.98573  20.8258        228
 5.73   0.0153   1072.0416   1219.1090 -77.89      2050.02     1.550           15     1.432      5.188     28.97261  19.7706        229
 5.46   0.0178   1030.3793    302.8190  58.13      1773.22     1.905           15     1.447      5.339     28.98901  19.9281        230
 3.50   0.0017   1009.7505    813.8239 -82.37     18417.52     1.863           15     1.808      3.394     29.00213  17.3869        231
 3.50   0.0010    984.8433    558.5609 -75.28     30848.56     1.972           15     1.929      3.492     28.99885  16.8269        232
 3.96   0.0107   1011.2380    344.8136 -46.36      2936.84     1.446           15     1.367      3.221     28.99885  19.3803        233
 4.15   0.0096   1001.7278    542.7618 -28.19      3282.06     1.464           15     1.428      3.316     28.98901  19.2596        234
 4.56   0.0232   1001.5056   1555.5182  85.04      1358.76     1.195           15     1.186      3.205     28.96933  20.2171        235
