#   1 KRON_RADIUS            Kron apertures in units of A or B                         
#   2 MAGERR_APER            RMS error vector for fixed aperture mag.                   [mag]
#   3 Y_IMAGE                Object position along y                                    [pixel]
#   4 X_IMAGE                Object position along x                                    [pixel]
#   5 THETA_IMAGE            Position angle (CCW/x)                                     [deg]
#   6 FLUX_APER              Flux vector within fixed circular aperture(s)              [count]
#   7 A_IMAGE                Profile RMS along major axis                               [pixel]
#   8 THRESHOLD              Detection threshold above background                       [count]
#   9 B_IMAGE                Profile RMS along minor axis                               [pixel]
#  10 FLUX_RADIUS            Fraction-of-light radii                                    [pixel]
#  11 FLUXERR_APER           RMS error vector for aperture flux(es)                     [count]
#  12 MAG_APER               Fixed aperture magnitude vector                            [mag]
#  13 NUMBER                 Running object number                                     
 4.66   0.0006     52.2203     61.8434   2.97     147401.8     3.763           25     3.445      9.549     83.64043  15.1287          1
 4.86   0.0038     15.3444    983.1082 -87.95     23757.58     3.030           25     1.495      7.060     83.58366  17.1105          2
 4.22   0.0045     17.0108     89.4072 -83.69     20294.17     1.457           25     1.344      3.813     83.58366  17.2816          3
 3.60   0.0017     13.6117   1443.8223 -70.72     52340.64     1.653           25     1.593      4.010     83.60258  16.2529          4
 6.31   0.0210     23.8520    365.1427  44.80     4324.648     0.815           25     0.678      3.630     83.60258  18.9601          5
 3.50   0.0004     58.7716   1076.5596  81.69     239456.9     2.055           25     1.909      4.254     83.64989  14.6019          6
 3.50   0.0004     79.0913    535.6887 -67.50     229938.2     1.953           25     1.895      3.949     83.54578  14.6460          7
 4.76   0.0108     74.0998    126.0801 -43.58     8382.371     1.144           25     1.129      3.907     83.51737  18.2416          8
 4.62   0.0072     95.5694     54.2289 -63.25     12631.96     1.280           25     1.249      3.855     83.63097  17.7963          9
 3.50   0.0003    120.7737    787.2263 -69.55     341372.6     2.022           25     1.963      4.109     83.62151  14.2169         10
 3.50   0.0005    161.2595   1466.3954 -78.27     193126.9     1.939           25     1.847      4.160     83.67826  14.8354         11
 3.81   0.0021    169.2694    875.3967 -78.43     43591.97     1.611           25     1.557      3.952     83.65935  16.4515         12
 6.61   0.0240    163.9993   1443.7097  89.96     3775.715     0.733           25     0.677      3.744     83.59312  19.1075         13
 8.11   0.0350    165.5284    102.4930 -38.08     2591.432     0.501           25     0.498      3.007     83.57419  19.5161         14
 5.82   0.0180    191.5581   1348.5149 -78.80     5045.172     0.903           25     0.898      4.004     83.60258  18.7928         15
 4.71   0.0100    205.7970    547.1104 -44.16     9064.968     1.195           25     1.115      3.818     83.57419  18.1566         16
 6.38   0.0050    209.6034    825.7026  -3.05     18162.88     2.003           25     1.408      7.510     83.60258  17.4020         17
 4.63   0.0102    211.1527   1304.1151  49.23     8910.824     1.186           25     1.123      4.024     83.59312  18.1752         18
 4.50   0.0088    222.9538   1224.0917 -50.29     10256.83     1.188           25     1.126      3.984     83.56472  18.0225         19
 7.52   0.0059    228.9387    560.1448 -14.24     15336.87     1.708           25     1.532      8.706     83.60258  17.5857         20
 3.50   0.0002    258.7256    995.5002 -76.24     591414.6     2.139           25     2.068      4.183     83.52684  13.6203         21
 7.03   0.0264    221.5030    772.9891  -0.14     3432.476     0.784           25     0.500      3.505     83.58366  19.2110         22
 3.50   0.0002    264.8944     65.6658 -65.56     437893.5     2.059           25     2.015      3.956     83.59312  13.9466         23
 7.41   0.0126    243.0026    110.9911 -89.47      7185.23     1.061           25     0.734      5.074     83.59312  18.4089         24
 5.61   0.0052    254.3416    611.0714 -31.38     17454.63     1.662           25     1.481      5.659     83.58366  17.4452         25
 3.50   0.0009    286.5021   1484.5273 -80.21     103155.5     1.807           25     1.727      4.133     83.56472  15.5163         26
 4.04   0.0040    280.9511   1520.4191 -86.85     22751.11     1.450           25     1.360      3.984     83.63097  17.1575         27
 3.55   0.0012    302.1385    199.8049 -54.54      75750.8     1.712           25     1.668      3.834     83.67826  15.8515         28
 8.11   0.0218    292.4984   1473.5161 -60.32     4154.552     0.500           25     0.500      3.001     83.51737  19.0037         29
 6.84   0.0218    301.0591    561.6965 -82.37     4163.285     0.737           25     0.673      3.710     83.55525  19.0014         30
 3.67   0.0018    321.0505    695.3715 -82.09        50248     1.631           25     1.559      3.913     83.64989  16.2972         31
 6.03   0.0095    326.5257    593.5754 -25.60      9535.57     1.249           25     1.123      4.766     83.62151  18.1016         32
 6.00   0.0187    349.0202     52.7915  -0.90     4866.979     0.905           25     0.757      3.667     83.59312  18.8319         33
 3.78   0.0017    367.1181    759.1780 -64.03     52183.51     1.656           25     1.614      4.032     83.62151  16.2562         34
 5.03   0.0098    360.2217   1498.4973 -84.02     9249.716     1.123           25     1.114      4.022     83.58366  18.1347         35
 3.50   0.0004    394.1762    229.5104 -57.16     254609.9     1.949           25     1.913      3.961     83.61205  14.5353         36
 3.68   0.0025    396.0115   1459.2537 -61.37     36046.07     1.557           25     1.506      4.016     83.66881  16.6579         37
 3.72   0.0022    397.1568    352.6395 -71.42     41235.93     1.619           25     1.538      3.858     83.64989  16.5118         38
 4.62   0.0107    392.8230   1086.7617  78.92      8489.82     1.159           25     1.113      3.772     83.64043  18.2278         39
 3.54   0.0011    436.9323    250.1709 -80.71     83075.19     1.721           25     1.708      3.879     83.63097  15.7513         40
 3.50   0.0001    460.0580    805.6912 -72.13     717219.4     2.156           25     2.106      4.221     83.56472  13.4109         41
 4.71   0.0139    431.8409   1420.1593  57.10     6542.216     1.059           25     1.039      3.811     83.65935  18.5107         42
 4.05   0.0035    449.2840     19.3997 -39.25     26321.22     1.479           25     1.426      3.864     83.62151  16.9992         43
 7.41   0.0336    439.0044    303.7375  89.74     2706.794     0.673           25     0.440      2.857     83.67826  19.4689         44
 3.98   0.0031    456.8358     32.6495 -35.30     29709.11     1.515           25     1.447      3.779     83.64043  16.8678         45
 8.83   0.0201    444.4814    120.4871 -43.31     4511.621     0.501           25     0.498      3.008     83.57419  18.9142         46
 6.45   0.0042    466.5654    848.3380  21.64     21416.29     4.133           25     1.383     13.003     83.62151  17.2231         47
 4.82   0.0097    462.8370    466.7830  47.38     9378.434     1.202           25     1.123      3.765     83.64989  18.1197         48
 8.29   0.0317    460.3008   1094.3420 -42.95     2858.983     0.566           25     0.338      2.789     83.53632  19.4095         49
 5.10   0.0114    470.3825    252.2543   2.06      7998.64     1.129           25     1.064      3.824     83.64989  18.2925         50
 4.50   0.0078    471.1127    732.9656 -29.07     11676.84     1.179           25     1.170      3.742     83.62151  17.8817         51
 4.12   0.0060    476.8987    921.1418  89.42     15001.18     1.345           25     1.298      3.836     83.54578  17.6097         52
 5.59   0.0164    476.8779   1275.0015 -89.79     5551.085     0.896           25     0.759      3.662     83.64043  18.6891         53
 5.01   0.0149    483.0219   1068.5632 -89.23     6102.375     1.086           25     0.947      3.801     83.64043  18.5863         54
 7.00   0.0083    494.9876     81.0291  44.33     10911.02     1.418           25     1.156      6.260     83.64043  17.9553         55
 8.01   0.0091    494.5180   1185.0229  -1.03     9986.752     1.186           25     0.976      6.552     83.62151  18.0514         56
 6.16   0.0234    501.1074    861.8506  46.55     3884.374     0.821           25     0.674      3.641     83.57419  19.0767         57
 8.04   0.0142    503.1307    760.8720  44.68      6405.91     0.842           25     0.682      4.802     83.54578  18.5335         58
 6.77   0.0071    514.1002   1459.0000  23.05     12754.69     2.190           25     1.012      7.873     83.58366  17.7858         59
 6.57   0.0233    512.9520   1177.2953 -83.93     3887.533     0.734           25     0.672      3.662     83.53632  19.0758         60
 4.73   0.0103    539.1332    997.9645 -68.40     8838.981     1.142           25     1.130      3.860     83.63097  18.1840         61
 4.58   0.0076    557.9408   1039.7869 -25.58     11984.23     1.254           25     1.174      3.911     83.62151  17.8535         62
 3.69   0.0018    579.6681    143.0249 -31.43     49807.91     1.613           25     1.573      3.791     83.64043  16.3068         63
 6.04   0.0104    570.2593     43.9562  44.14     8695.861     1.332           25     1.025      4.908     83.61205  18.2017         64
 3.69   0.0018    581.1678    317.2628 -59.35     49556.39     1.638           25     1.591      3.870     83.62151  16.3123         65
 7.51   0.0118    570.3513   1446.1761  24.83     7691.507     1.148           25     0.899      5.479     83.65935  18.3350         66
 6.30   0.0039    595.9370    780.6804 -77.33     23493.34     2.115           25     1.863      7.915     83.56472  17.1226         67
 6.98   0.0268    583.5097     74.0154  -0.32     3387.574     0.783           25     0.500      3.422     83.62151  19.2253         68
 5.39   0.0158   1000.5763   1553.5684  45.52     5734.133     0.982           25     0.879      3.827     83.61205  18.6538         69
 4.42   0.0010   1551.5663    680.3027 -26.02     87815.23     3.599           25     3.134      9.007     83.55525  15.6911         70
 7.61   0.0173   1545.0188    861.6835 -89.83     5242.762     0.749           25     0.676      4.095     83.63097  18.7511         71
 4.52   0.0071   1541.5627    652.7603 -83.63     12783.72     1.275           25     1.249      3.841     83.65935  17.7834         72
 4.21   0.0051   1540.7905    133.2165 -77.80     17882.61     1.370           25     1.300      3.668     83.59312  17.4189         73
 6.08   0.0215    998.9802   1271.9437 -54.30     4218.016     0.786           25     0.781      3.690     83.63097  18.9872         74
 3.50   0.0006    983.8505    556.5651 -72.57     150234.8     1.876           25     1.829      4.007     83.64989  15.1081         75
 7.39   0.0123    985.7914    452.0210  88.28     7351.905     0.928           25     0.761      4.842     83.60258  18.3840         76
 7.12   0.0178    979.9879    795.9965 -61.08     5095.948     0.796           25     0.793      4.204     83.58366  18.7819         77
 4.62   0.0093    938.1579   1065.1525  49.13     9749.367     1.186           25     1.123      4.019     83.64043  18.0776         78
 5.46   0.0166    927.3708   1320.5822 -45.44      5464.54     0.988           25     0.877      3.823     83.63097  18.7061         79
 5.95   0.0232    911.8743    836.6525 -21.65     3917.981     0.891           25     0.693      3.565     83.57419  19.0673         80
 3.71   0.0028    899.4023    300.8877 -75.25     32915.64     1.553           25     1.466      3.807     83.60258  16.7565         81
 7.22   0.0126    895.2223    536.2795  17.65     7214.446     0.992           25     0.878      5.117     83.62151  18.4045         82
 3.50   0.0002    879.1808   1590.6716 -81.45     576134.1     2.145           25     2.040      4.287     83.66881  13.6487         83
 5.91   0.0210    884.9488   1498.0670  79.53     4322.158     0.784           25     0.781      3.807     83.59312  18.9607         84
 8.16   0.0387    876.6605    959.2995  47.03     2343.168     0.565           25     0.339      3.143     83.55525  19.6255         85
 5.05   0.0067    868.4930   1101.5835 -44.14     13482.32     1.426           25     1.371      4.748     83.62151  17.7256         86
 8.43   0.0173    867.0026    937.9951   0.08     5233.996     0.629           25     0.622      3.772     83.60258  18.7529         87
 6.83   0.0360    843.9943   1061.9921 -43.86     2519.377     0.616           25     0.616      3.480     83.60258  19.5468         88
 6.18   0.0159    842.3842   1104.3546  42.80     5728.804     1.023           25     0.876      4.210     83.62151  18.6548         89
 5.12   0.0121    835.6071    296.8472 -16.40     7522.438     1.133           25     0.955      3.755     83.65935  18.3591         90
 3.83   0.0027    821.9659    652.4639 -79.48     33672.27     1.528           25     1.509      3.957     83.62151  16.7318         91
 3.88   0.0030    802.0421   1376.8179 -73.42      30452.9     1.481           25     1.457      3.990     83.64043  16.8409         92
 3.50   0.0010    797.4998    693.7561 -87.18     88872.59     2.413           25     1.687      4.523     83.54578  15.6781         93
 4.50   0.0062    799.6810     39.2897  46.50     14652.12     1.322           25     1.262      3.856     83.56472  17.6352         94
 6.74   0.0075    773.2684   1425.3539 -88.93     12166.55     1.710           25     1.159      6.625     83.61205  17.8371         95
 4.98   0.0117    741.7953    554.3839 -84.09     7736.696     1.129           25     1.063      3.875     83.59312  18.3286         96
 7.96   0.0334    737.3165   1156.3153 -45.06     2719.102     0.562           25     0.341      2.737     83.54578  19.4639         97
 6.82   0.0282    735.0145    647.9684  82.50     3225.859     0.618           25     0.615      3.440     83.64043  19.2784         98
 3.50   0.0003    725.5569    846.5437 -79.42     344090.4     2.035           25     1.978      4.099     83.61205  14.2083         99
 5.36   0.0165    726.3994   1176.3663  46.26     5487.333     0.985           25     0.879      3.852     83.60258  18.7016        100
 5.04   0.0131    714.9418    806.4675 -89.83     6906.799     1.082           25     0.952      3.733     83.59312  18.4518        101
 4.81   0.0133    707.9236   1161.7723 -66.11     6812.573     1.123           25     1.020      3.906     83.61205  18.4667        102
 5.62   0.0111    703.4513   1337.0544  -2.96     8146.722     1.122           25     0.952      4.482     83.60258  18.2725        103
 4.42   0.0072    701.8024    950.5552  -0.82     12643.63     1.274           25     1.258      4.046     83.66881  17.7953        104
 4.73   0.0085    684.6674    642.2870 -64.21     10619.57     1.261           25     1.169      3.996     83.55525  17.9847        105
 3.50   0.0003    647.2357   1462.4583 -82.06       338032     2.034           25     1.948      4.215     83.63097  14.2276        106
 7.28   0.0296    653.6016    868.8044  18.52     3062.249     0.739           25     0.453      3.710     83.60258  19.3349        107
 6.64   0.0280    629.8016    804.1997 -44.84     3240.154     0.749           25     0.565      3.342     83.64043  19.2736        108
 5.50   0.0167    622.4071   1579.6213 -47.00     5450.511     0.988           25     0.878      3.960     83.61205  18.7089        109
 5.11   0.0132   1583.8213   1106.8151 -57.51     6875.095     1.060           25     1.036      4.009     83.60258  18.4568        110
 4.61   0.0082   1565.6405     20.0277 -76.96     11091.14     1.265           25     1.163      3.726     83.64989  17.9376        111
 4.85   0.0106   1569.5154     90.7622 -60.91     8567.665     1.122           25     1.113      3.680     83.61205  18.2178        112
 3.50   0.0003   1556.9681    485.7669 -77.15     297934.8     1.995           25     1.947      3.980     83.64989  14.3647        113
 6.16   0.0122   1564.8563    782.5873 -76.14     7465.493     1.205           25     0.960      4.696     83.64043  18.3674        114
 3.50   0.0003   1562.6359    302.3035 -71.69     300565.5     1.988           25     1.946      3.951     83.53632  14.3552        115
 5.42   0.0167   1560.2771    859.4930  -6.24     5436.987     0.973           25     0.952      3.775     83.56472  18.7116        116
 3.79   0.0021   1037.6812    523.4899 -55.45     44105.07     1.589           25     1.559      3.953     83.56472  16.4388        117
 3.76   0.0023   1513.8411    390.7360  72.18     40032.71     1.555           25     1.521      3.849     83.63097  16.5440        118
 3.50   0.0005   1078.9111    510.2561 -71.73     168511.1     1.887           25     1.851      4.018     83.57419  14.9834        119
 3.50   0.0006   1506.1527    267.4587 -58.92     162832.5     1.866           25     1.836      3.912     83.61205  15.0206        120
 6.27   0.0217   1503.0424    721.4799  -0.03     4182.324     0.804           25     0.702      3.724     83.59312  18.9965        121
 8.53   0.0140   1109.5118    476.9964  -0.16     6503.396     0.801           25     0.500      4.377     83.60258  18.5171        122
 3.87   0.0026   1106.4174    426.0812 -82.51     34941.12     1.550           25     1.526      3.855     83.64989  16.6917        123
 6.35   0.0083   1119.2861    327.9167  61.02     10984.23     1.506           25     1.083      5.597     83.56472  17.9481        124
 3.50   0.0011   1128.9254    181.6353 -64.42      82940.3     1.740           25     1.696      3.829     83.60258  15.7531        125
 7.14   0.0265   1128.0461    545.4913 -89.79     3421.525     0.784           25     0.500      3.391     83.56472  19.2145        126
 5.25   0.0124   1150.0990     97.4864 -88.97     7322.301     1.083           25     0.951      3.761     83.53632  18.3884        127
 8.02   0.0137   1258.4460    430.6574  34.54     6632.742     1.005           25     0.701      4.936     83.61205  18.4958        128
 6.28   0.0227   1303.8435    890.8837 -43.88     4001.057     0.819           25     0.675      3.606     83.60258  19.0446        129
 4.20   0.0071   1407.1879    306.4219 -11.36     12843.48     1.269           25     1.247      3.682     83.60258  17.7783        130
 6.22   0.0100   1292.5006    740.4540 -46.29      9071.31     1.029           25     1.023      4.668     83.52684  18.1558        131
 5.92   0.0200   1291.9508    410.9497 -42.28     4545.213     0.785           25     0.783      3.477     83.65935  18.9061        132
 3.50   0.0002   1392.3542    112.5959 -74.03     407363.9     2.042           25     1.986      3.929     83.66881  14.0250        133
 4.25   0.0069   1438.7697    617.2417 -54.26     13151.63     1.264           25     1.261      3.798     83.65935  17.7526        134
 4.41   0.0069   1389.4479    711.3168 -63.42     13188.56     1.305           25     1.250      3.938     83.57419  17.7495        135
 4.88   0.0108   1414.3275   1384.6810  57.13     8436.321     1.128           25     1.101      3.918     83.56472  18.2346        136
 4.13   0.0051   1434.3054    222.8284 -29.90     17803.36     1.373           25     1.347      3.753     83.58366  17.4237        137
 7.60   0.0197   1399.7854   1029.7736  44.99     4599.213     0.762           25     0.564      3.800     83.62151  18.8933        138
 3.79   0.0024   1387.7007   1426.5947  66.98     38042.18     1.576           25     1.525      4.123     83.60258  16.5993        139
 3.50   0.0001   1297.3241    722.9832 -66.81     957797.4     2.217           25     2.145      4.111     83.66881  13.0968        140
 3.86   0.0020   1371.5438   1017.0339 -25.28     44537.51     1.598           25     1.575      4.020     83.64043  16.4282        141
 4.82   0.0101   1391.1819   1036.9004 -47.10     9024.088     1.195           25     1.118      3.968     83.58366  18.1615        142
 4.71   0.0049   1328.8165    653.9100 -40.15      18655.5     1.484           25     1.359      4.308     83.63097  17.3730        143
 3.50   0.0006   1319.0020    658.0884 -69.84     153625.5     1.928           25     1.827      3.982     83.60258  15.0838        144
 5.78   0.0205   1331.8181    105.4846  -0.26     4425.073     0.939           25     0.731      3.662     83.63097  18.9352        145
 7.30   0.0286   1318.3934    262.2036  18.07      3171.07     0.737           25     0.454      3.466     83.59312  19.2970        146
 6.64  99.0000   1314.0109    122.6814 -88.90    -190.6342     0.738           25     0.672      4.430     83.64043  99.0000        147
 4.58   0.0016   1271.7086    608.1096 -54.77     55397.65     3.073           25     2.069      7.186     83.53632  16.1913        148
 4.70   0.0061   1306.4819    667.7043 -84.95     14992.73     1.319           25     1.268      3.997     83.54578  17.6103        149
 4.14   0.0026   1290.4141    760.0925 -29.71      34640.8     1.659           25     1.535      4.033     83.60258  16.7010        150
 4.22   0.0054   1264.4265    805.9307 -32.22     16824.33     1.361           25     1.310      3.898     83.63097  17.4852        151
 4.14   0.0042   1277.0439   1329.4644 -88.63     21598.84     1.466           25     1.334      3.998     83.61205  17.2139        152
 5.04   0.0106   1236.0367   1551.6836  89.32     8542.461     1.146           25     1.042      3.960     83.62151  18.2210        153
 3.50   0.0012   1213.5704    511.1222 -84.09      75146.7     1.722           25     1.690      3.922     83.61205  15.8602        154
 7.47   0.0195   1152.6887   1351.0236  -1.29     4645.358     0.744           25     0.678      4.186     83.61205  18.8825        155
 4.34   0.0066   1233.3812    302.8222  71.95     13815.84     1.298           25     1.252      3.811     83.64043  17.6991        156
 4.80   0.0020   1209.1685   1276.7384 -84.24      46224.2     4.306           25     2.678      9.991     83.62151  16.3878        157
 3.91   0.0019   1217.8102   1192.9481 -73.34     47917.75     1.652           25     1.614      4.090     83.66881  16.3488        158
 7.22   0.0168   1199.9885   1440.0505  53.56     5410.356     0.803           25     0.792      4.387     83.65935  18.7169        159
 9.75   0.0125   1211.5070   1427.5072 -46.83     7241.782     0.500           25     0.500      3.000     83.52684  18.4004        160
 4.75   0.0111   1200.9170    337.0701 -35.00     8187.697     1.134           25     1.133      3.839     83.55525  18.2671        161
 4.88   0.0103   1206.7050    836.9615  -0.29     8818.573     1.138           25     1.048      3.816     83.54578  18.1865        162
 6.50   0.0101   1193.9993    122.2319 -87.32     8958.103     1.220           25     1.074      5.024     83.61205  18.1695        163
 8.07   0.0288   1160.5212    885.5291  65.97     3149.949     0.500           25     0.499      2.998     83.56472  19.3042        164
 3.50   0.0006   1137.4929    146.1910 -63.65     159162.2     1.881           25     1.827      3.902     83.60258  15.0454        165
 3.90   0.0031   1156.8295    234.5141 -44.05      29567.4     1.508           25     1.491      3.837     83.62151  16.8730        166
 3.50   0.0004   1164.1122   1297.8574 -78.84     254386.5     1.975           25     1.909      4.166     83.57419  14.5363        167
 3.70   0.0019   1080.7600   1146.2832  76.76     48844.45     1.619           25     1.575      4.038     83.61205  16.3280        168
 5.32   0.0209   1094.4938   1524.5629 -82.61     4333.479     0.905           25     0.895      3.871     83.55525  18.9579        169
 3.50   0.0004   1039.2008    631.1639 -65.33     216420.9     1.948           25     1.891      4.034     83.59312  14.7118        170
 6.38   0.0094   1071.0193   1217.0460 -81.03     9662.816     1.202           25     1.166      5.306     83.64043  18.0872        171
 3.50   0.0009   1024.7209   1378.0874 -73.88      98354.1     1.786           25     1.735      4.123     83.55525  15.5680        172
 3.50   0.0011   1008.7536    811.8029 -60.60     84393.98     1.753           25     1.713      3.961     83.66881  15.7342        173
 7.19   0.0101   1029.3247    300.7299  46.13     8951.612     1.255           25     0.998      5.636     83.55525  18.1702        174
 4.39   0.0070   1010.2984    342.7449 -59.28     13034.86     1.264           25     1.256      3.807     83.53632  17.7622        175
 4.51   0.0064   1000.6802    540.6669 -45.76     14155.65     1.336           25     1.254      3.972     83.56472  17.6727        176
