#   1 KRON_RADIUS            Kron apertures in units of A or B                         
#   2 MAGERR_APER            RMS error vector for fixed aperture mag.                   [mag]
#   3 Y_IMAGE                Object position along y                                    [pixel]
#   4 X_IMAGE                Object position along x                                    [pixel]
#   5 THETA_IMAGE            Position angle (CCW/x)                                     [deg]
#   6 FLUX_APER              Flux vector within fixed circular aperture(s)              [count]
#   7 A_IMAGE                Profile RMS along major axis                               [pixel]
#   8 THRESHOLD              Detection threshold above background                       [count]
#   9 B_IMAGE                Profile RMS along minor axis                               [pixel]
#  10 FLUX_RADIUS            Fraction-of-light radii                                    [pixel]
#  11 FLUXERR_APER           RMS error vector for aperture flux(es)                     [count]
#  12 MAG_APER               Fixed aperture magnitude vector                            [mag]
#  13 NUMBER                 Running object number                                     
 4.54   0.0010     52.2524     61.7930  -1.50     32305.98     3.806           25     3.471      9.263     28.99831  16.7768          1
 5.09   0.0060     15.1527    983.0590 -86.04      5226.64     3.016           25     1.560      7.128     28.97209  18.7544          2
 4.27   0.0065     17.0303     89.3467 -30.86       4808.5     1.479           25     1.436      3.344      28.9852  18.8450          3
 3.64   0.0026     13.6418   1443.7933 -54.66     11955.84     1.744           25     1.677      3.292     28.98192  17.8560          4
 5.80   0.0309     23.6501    365.3174 -42.88      1019.32     1.012           25     0.871      3.225     28.96225  20.5292          5
 3.50   0.0007     58.8182   1076.5420  74.41      47471.5     2.175           25     2.061      3.635     28.97865  16.3589          6
 3.50   0.0007     79.1474    535.6800 -31.63     46274.52     2.065           25     2.038      3.562     28.95897  16.3866          7
 4.84   0.0154     74.1106    126.1760 -28.71       2041.7     1.305           25     1.181      3.402     28.97209  19.7750          8
 3.50   0.0005    120.8295    787.2147 -58.08     66615.14     2.150           25     2.099      3.587      28.9852  15.9911          9
 4.75   0.0106     95.5905     54.3364 -27.68      2970.48     1.351           25     1.329      3.507     28.99503  19.3679         10
 3.50   0.0008    161.3059   1466.3787 -62.07     39234.22     2.026           25     1.966      3.514     28.96881  16.5658         11
 3.85   0.0031    169.2919    875.3546 -28.78     10079.28     1.702           25     1.658      3.398     28.94913  18.0414         12
 6.52   0.0344    163.8865   1443.8348 -47.33       914.72     0.825           25     0.675      3.116     28.97209  20.6468         13
 8.23   0.0475    165.5255    102.4947 -41.09       661.94     0.502           25     0.497      2.757     28.95897  20.9980         14
 6.11   0.0248    191.5307   1348.5195 -74.90      1266.28     0.910           25     0.900      3.539     28.95897  20.2937         15
 4.65   0.0150    205.6836    547.0923 -76.92      2094.48     1.279           25     1.169      3.180     28.95569  19.7473         16
 6.40   0.0081    209.6087    825.6045  -2.25      3883.02     2.035           25     1.465      7.598     28.97209  19.0771         17
 4.82   0.0147    211.1547   1304.1129 -49.11      2140.96     1.246           25     1.170      3.296     28.96225  19.7235         18
 4.28   0.0127    223.0152   1224.1460 -67.58      2470.36     1.319           25     1.276      3.160      28.9852  19.5681         19
 7.64   0.0100    228.7648    560.0703 -18.88      3161.82     1.685           25     1.544      8.293     28.97865  19.3002         20
 3.50   0.0003    258.7745    995.5050 -59.32     110188.6     2.251           25     2.222      3.626     28.96553  15.4447         21
 6.76   0.0377    221.3294    772.9777  -2.38       834.72     0.739           25     0.664      3.141     28.98848  20.7461         22
 3.50   0.0004    264.9318     65.6790 -51.28     83827.84     2.183           25     2.146      3.576     28.95241  15.7415         23
 7.54   0.0207    242.8251    110.9827 -88.38      1522.76     0.934           25     0.763      4.527     28.97537  20.0934         24
 5.68   0.0082    254.3522    611.0402 -41.48      3840.52     1.764           25     1.490      5.635     28.98192  19.0890         25
 3.57   0.0014    286.5396   1484.5338 -58.61     21937.08     1.889           25     1.851      3.447     28.96225  17.1971         26
 4.01   0.0059    280.8940   1520.4062 -66.27      5346.74     1.539           25     1.482      3.301     28.96881  18.7298         27
 3.60   0.0019    302.1705    199.8169 -33.31     16735.66     1.841           25     1.788      3.399     28.97865  17.4909         28
 7.27   0.0268    292.2347   1473.7821 -45.12      1172.52     0.752           25     0.562      3.594     28.97865  20.3772         29
 6.49   0.0354    301.1283    561.6675  20.44       887.28     0.906           25     0.691      3.219     28.94913  20.6798         30
 3.64   0.0028    321.0754    695.3506 -21.83      11305.2     1.737           25     1.675      3.317     28.95569  17.9168         31
 5.92   0.0154    326.4922    593.4879 -14.35      2047.92     1.267           25     1.242      4.611     28.94913  19.7717         32
 6.09   0.0274    349.0164     52.5936  -2.28      1149.46     1.028           25     0.785      3.400     28.96225  20.3988         33
 3.90   0.0027    367.1353    759.1730 -21.22      11798.9     1.741           25     1.670      3.411     28.97865  17.8704         34
 4.81   0.0145    360.1096   1498.4897  -0.38       2167.4     1.295           25     1.181      3.377     28.94584  19.7102         35
 3.50   0.0006    394.2179    229.5092 -49.30      50461.3     2.084           25     2.043      3.542     28.97209  16.2926         36
 3.66   0.0038    396.0493   1459.2540 -64.52      8212.22     1.647           25     1.566      3.228     28.97537  18.2638         37
 3.74   0.0033    397.1829    352.6923 -26.62       9468.8     1.673           25     1.637      3.323     28.97537  18.1093         38
 4.64   0.0159    392.7892   1086.7902  72.91      1977.06     1.224           25     1.128      3.034     28.96225  19.8099         39
 3.55   0.0017    436.9729    250.1296 -28.30     18158.56     1.853           25     1.811      3.422     28.97865  17.4023         40
 3.50   0.0002    460.1093    805.6985 -60.18     131905.6     2.280           25     2.229      3.584     28.94584  15.2493         41
 4.69   0.0204    431.9568   1420.0211 -64.21      1542.58     1.151           25     1.135      3.201     28.98192  20.0794         42
 4.06   0.0051    449.4333     19.4063 -21.03      6135.48     1.574           25     1.519      3.333     28.98192  18.5804         43
 7.50   0.0495    438.8061    303.6031  71.70       635.18     0.737           25     0.454      2.795     28.96553  21.0428         44
 4.05   0.0045    456.8649     32.6100 -17.79      6978.12     1.591           25     1.551      3.409     28.99503  18.4407         45
 7.45   0.0322    444.1256    120.1454 -44.91       976.82     0.844           25     0.672      3.779     28.96225  20.5755         46
 6.45   0.0072    466.4256    848.3066  21.20       4383.5     3.916           25     1.499     12.741     28.96553  18.9454         47
 4.77   0.0143    462.7689    466.6361  54.43       2201.9     1.297           25     1.241      3.373     28.97865  19.6930         48
 7.52   0.0493    459.8168   1094.3976 -71.01       638.62     0.746           25     0.449      2.819     28.96553  21.0369         49
 4.54   0.0112    471.1284    732.8560 -10.69       2799.8     1.362           25     1.268      3.362     28.95897  19.4322         50
 5.06   0.0170    470.3182    252.2546 -29.35      1845.34     1.154           25     1.101      3.289     28.95241  19.8848         51
 4.13   0.0089    476.9845    921.0479 -30.47      3546.78     1.407           25     1.389      3.224     28.98192  19.1754         52
 5.06   0.0244    476.7859   1274.9120  62.47      1290.18     1.066           25     0.994      3.182     28.97537  20.2734         53
 5.20   0.0207    482.9602   1068.6731 -65.50      1521.34     1.133           25     1.017      3.301     28.97209  20.0944         54
 6.94   0.0142    494.9617     81.1165  32.83      2220.34     1.454           25     1.184      5.846     28.97209  19.6840         55
 8.08   0.0150    494.4965   1185.0063  -0.83      2098.12     1.192           25     0.976      6.184     28.97209  19.7454         56
 6.23   0.0360    500.9929    861.9526 -50.75       874.74     0.793           25     0.781      2.985     28.98848  20.6953         57
 8.15   0.0246    502.8831    760.8575 -45.88      1277.26     0.851           25     0.676      4.533     28.96225  20.2843         58
 6.86   0.0112    514.0340   1459.0259  22.98      2799.68     2.132           25     1.068      7.380     28.97865  19.4322         59
 6.69   0.0359    512.8486   1177.1847  46.69        877.1     0.807           25     0.684      3.196      28.9852  20.6924         60
 4.79   0.0155    539.2169    997.9527 -46.86      2029.74     1.203           25     1.180      3.161     28.98192  19.7814         61
 4.55   0.0110    557.9019   1039.7178  13.69      2853.78     1.318           25     1.284      3.298     28.94256  19.4114         62
 3.69   0.0028    579.7522    143.0125 -34.80     11317.06     1.723           25     1.662      3.333      28.9852  17.9157         63
 6.06   0.0176    570.1929     43.9884  38.64       1783.8     1.295           25     1.101      4.440     28.95897  19.9216         64
 3.69   0.0028    581.1976    317.2354 -13.26     11279.96     1.739           25     1.675      3.369     28.97537  17.9192         65
 7.61   0.0191    570.2397   1445.8368 -10.01       1650.1     1.131           25     0.854      5.151     28.98848  20.0062         66
 6.21   0.0065    595.8130    780.6463 -73.79      4831.56     2.170           25     1.887      7.940     28.97865  18.8398         67
 6.67   0.0443    583.6703     73.9975  -1.82       711.34     0.740           25     0.666      2.911     28.98848  20.9198         68
 5.47   0.0231   1000.5062   1553.5094 -46.39      1358.76     1.025           25     1.007      3.240     28.94913  20.2171         69
 5.55   0.0272   1560.2885    859.4815  -4.41         1155     0.980           25     0.953      3.143     28.95569  20.3935         70
 7.62   0.0313   1545.0062    861.4960   0.01      1005.14     0.833           25     0.705      3.912     28.96881  20.5444         71
 4.67   0.0109   1541.6366    652.6843 -40.52      2899.02     1.345           25     1.254      3.387     28.97209  19.3944         72
 4.19   0.0077   1540.8558    133.1579 -41.15      4103.44     1.457           25     1.371      3.239     28.96881  19.0171         73
 3.77   0.0031   1037.7163    523.4890 -20.28        10182     1.692           25     1.658      3.334     28.95897  18.0304         74
 5.76   0.0335    998.8245   1271.8403 -47.42       938.68     0.899           25     0.851      3.046     28.98848  20.6187         75
 3.50   0.0010    983.9032    556.5564 -26.13     30841.96     1.966           25     1.947      3.496     28.94913  16.8271         76
 7.39   0.0217    985.6390    452.0667 -75.12      1449.26     1.018           25     0.755      4.706     28.97537  20.1471         77
 7.35   0.0297    979.8876    795.8620 -46.32      1058.04     0.836           25     0.673      3.862     28.95897  20.4887         78
 4.75   0.0139    938.1644   1065.1890 -27.81      2264.96     1.273           25     1.173      3.355     28.98192  19.6623         79
 5.49   0.0258    927.3094   1320.5197 -34.14      1219.16     0.983           25     0.953      3.207     28.95569  20.3348         80
 5.35   0.0345    911.6586    836.6209  43.22          913     0.985           25     0.882      2.891     28.98192  20.6488         81
 3.67   0.0041    899.4852    300.8888 -15.56      7670.36     1.592           25     1.581      3.239     28.95569  18.3380         82
 7.22   0.0210    895.1354    536.3735 -12.64      1501.54     1.044           25     0.898      4.650     28.97537  20.1087         83
 3.50   0.0003    879.2342   1590.6615 -70.26     105885.8     2.236           25     2.190      3.619     28.97537  15.4879         84
 5.90   0.0306    884.6757   1498.1090 -76.86      1029.16     0.994           25     0.750      3.065     28.95569  20.5188         85
 7.37   0.0563    876.5884    959.1991 -19.45       559.14     0.745           25     0.451      2.700     28.97209  21.1812         86
 5.10   0.0103    868.3965   1101.6682 -44.60      3053.78     1.527           25     1.387      4.361     28.98848  19.3379         87
 7.23   0.0548    843.9849   1061.9991  -0.35       574.58     0.619           25     0.617      2.889     28.96881  21.1516         88
 6.45   0.0258    842.3638   1104.3356  41.73      1221.84     1.021           25     0.879      3.801     28.97537  20.3325         89
 4.97   0.0188    835.6928    296.7594 -36.48       1669.3     1.147           25     1.094      3.238     28.94584  19.9937         90
 3.82   0.0041    822.0398    652.4699 -86.95      7673.14     1.616           25     1.597      3.355     28.97537  18.3376         91
 3.89   0.0045    802.0800   1376.7468 -58.61      6988.38     1.580           25     1.539      3.277     28.95897  18.4391         92
 3.55   0.0016    797.5395    693.7547 -87.94     19311.84     2.475           25     1.824      4.223     28.96881  17.3354         93
 4.40   0.0094    799.7029     39.3045 -28.43      3347.12     1.401           25     1.317      3.332     28.94584  19.2383         94
 6.73   0.0123    773.1492   1425.3757 -86.53       2550.9     1.616           25     1.305      6.210     28.99175  19.5333         95
 4.87   0.0174    741.8272    554.4200 -15.52      1812.14     1.250           25     1.131      3.351     28.97537  19.9045         96
 6.71   0.0511    737.1573   1156.1470  44.42       615.62     0.748           25     0.572      2.940     28.97865  21.0767         97
 6.62   0.0472    735.0201    647.7151 -86.41       666.86     0.729           25     0.679      3.076     28.97865  20.9899         98
 3.50   0.0005    725.6161    846.5399 -41.26     66598.94     2.151           25     2.117      3.606     28.97537  15.9913         99
 5.29   0.0254    726.4120   1176.3781 -45.66         1240     1.042           25     0.952      3.008     28.96881  20.3164        100
 5.14   0.0198    714.8447    806.4806 -89.55         1592     1.155           25     0.995      3.181     28.96225  20.0451        101
 4.89   0.0196    707.9800   1161.9261 -49.22      1605.74     1.152           25     1.135      3.234     28.99175  20.0358        102
 5.47   0.0176    703.3814   1337.1163 -15.24      1789.46     1.178           25     0.958      3.966     28.97865  19.9182        103
 4.59   0.0104    701.7889    950.6255 -44.48      3033.48     1.350           25     1.257      3.313     28.97209  19.3451        104
 4.75   0.0128    684.6791    642.3289  -3.34      2453.52     1.271           25     1.269      3.397     28.95569  19.5755        105
 8.19   0.0308    685.6606   1211.6757 -45.66      1019.96     0.576           25     0.334      2.910     28.96553  20.5285        106
 3.50   0.0005    647.2854   1462.4448 -60.86     65187.12     2.138           25     2.086      3.577     28.96553  16.0146        107
 7.09   0.0466    653.5170    868.9907   0.17       675.26     0.784           25     0.500      2.812     28.97209  20.9763        108
 6.82   0.0411    629.6958    804.0479  -5.56       765.48     0.734           25     0.669      3.046     28.94584  20.8402        109
 5.42   0.0249    622.4357   1579.6312  48.23      1262.62     1.052           25     0.948      3.092     28.97865  20.2968        110
 5.03   0.0211   1583.9178   1106.8875 -27.11      1490.78     1.156           25     1.080      3.292     28.95897  20.1165        111
 4.67   0.0127   1565.6211     20.0057 -89.87      2476.86     1.295           25     1.177      3.279     28.97209  19.5652        112
 3.50   0.0005   1557.0254    485.7679 -34.20     58707.02     2.091           25     2.056      3.517     28.97209  16.1283        113
 3.50   0.0005   1562.6761    302.3063 -18.38     59090.86     2.085           25     2.054      3.531     28.95569  16.1212        114
 6.07   0.0217   1564.8615    782.5746 -74.15         1452     1.195           25     0.968      4.076     28.98192  20.1451        115
 4.60   0.0170   1569.4763     90.7731 -67.88      1849.12     1.229           25     1.134      3.131     28.97209  19.8826        116
 4.29   0.0017   1551.4945    680.2899 -25.16     18910.62     3.628           25     3.180      8.643     28.94584  17.3582        117
 3.50   0.0009   1078.9891    510.2593 -35.31     34627.46     2.005           25     1.967      3.495     28.99175  16.7014        118
 3.72   0.0034   1513.9259    390.7896   0.47      9184.42     1.662           25     1.640      3.303     28.99175  18.1424        119
 3.89   0.0038   1106.4930    426.0363  -2.85      8206.46     1.667           25     1.570      3.368     28.95897  18.2646        120
 3.50   0.0009   1506.1836    267.4439 -31.31     33662.54     1.973           25     1.946      3.466     28.97865  16.7321        121
 6.19   0.0380   1503.1226    721.3359 -21.64       828.54     0.898           25     0.694      2.930     28.95569  20.7542        122
 6.19   0.0135   1119.2373    327.7472  47.61       2334.9     1.502           25     1.240      5.439     28.97865  19.6293        123
 8.36   0.0238   1109.5096    476.9840  -0.15      1322.74     0.799           25     0.500      4.156     28.97537  20.2463        124
 6.84   0.0422   1128.0165    545.3074 -89.47        745.7     0.738           25     0.674      3.204     28.97537  20.8686        125
 5.12   0.0193   1150.1888     97.4742 -29.36      1631.62     1.135           25     1.118      3.361     28.99175  20.0185        126
 3.52   0.0017   1128.9912    181.6625 -18.64     18033.78     1.837           25     1.802      3.369     28.99503  17.4098        127
 4.45   0.0026   1271.7118    608.0491 -51.84     12137.46     3.065           25     2.182      6.758     28.96225  17.8397        128
 7.31   0.0323   1152.4878   1350.9922 -89.10       973.44     0.817           25     0.705      3.674     28.97537  20.5792        129
 3.83   0.0036   1387.7593   1426.6241 -31.56      8737.82     1.650           25     1.596      3.304      28.9852  18.1965        130
 4.23   0.0110   1407.2468    306.3777 -22.88      2854.56     1.320           25     1.248      3.039     28.98192  19.4112        131
 4.42   0.0104   1389.5114    711.4059 -21.67      3020.02     1.345           25     1.329      3.273     28.96881  19.3500        132
 5.71   0.0342   1291.8004    410.8340 -43.16          921     0.896           25     0.855      2.976     28.96881  20.6394        133
 7.78   0.0321   1399.6777   1029.0642  -5.73       980.48     0.741           25     0.676      3.844     28.95569  20.5714        134
 4.29   0.0101   1438.7970    617.2338  42.58      3104.96     1.324           25     1.301      3.130     28.97865  19.3199        135
 3.50   0.0004   1392.4169    112.5846 -48.83     78256.74     2.144           25     2.117      3.540     28.97537  15.8162        136
 5.10   0.0165   1414.3215   1384.6783  53.74      1910.28     1.132           25     1.114      3.200     28.96881  19.8473        137
 4.16   0.0074   1434.3160    222.8432 -45.56      4228.66     1.463           25     1.404      3.275     28.96881  18.9845        138
 7.90   0.0652   1405.3246    327.6860  45.54       482.26     0.565           25     0.340      2.433     28.95241  21.3418        139
 6.69   0.0162   1292.4796    740.3594   8.16      1945.56     1.107           25     1.014      5.278     28.96225  19.8274        140
 6.04   0.0365   1303.6771    890.8904 -67.27       861.46     0.895           25     0.691      2.909     28.95569  20.7119        141
 3.82   0.0031   1371.5684   1017.0208 -52.09     10262.02     1.712           25     1.659      3.424     28.97537  18.0219        142
 4.93   0.0153   1391.2039   1036.8888 -44.01      2053.42     1.199           25     1.120      3.237     28.96881  19.7688        143
 4.70   0.0073   1328.8429    653.9887 -77.07       4310.5     1.541           25     1.439      3.782     28.97865  18.9637        144
 3.50   0.0010   1319.0631    658.0717 -53.26     31799.66     2.034           25     1.946      3.488     28.95569  16.7939        145
 5.58   0.0343   1331.8839    105.3817 -13.50        916.4     0.997           25     0.747      2.923     28.97865  20.6448        146
 6.86   0.0484   1318.4823    261.9824  -0.70       650.78     0.785           25     0.500      2.612     28.97865  21.0164        147
 3.50   0.0002   1297.3992    722.9919 -51.64     174441.5     2.305           25     2.263      3.546     28.96225  14.9459        148
 4.18   0.0062   1277.0884   1329.4590  -4.61      5033.38     1.504           25     1.449      3.330     28.95897  18.7953        149
 4.78   0.0090   1306.4806    667.7038 -29.03       3504.8     1.400           25     1.317      3.524     28.94913  19.1883        150
 4.10   0.0039   1290.4766    760.0831 -19.86      8090.72     1.765           25     1.583      3.676     28.95897  18.2800        151
 4.17   0.0079   1264.4589    805.9575  -8.16      3958.18     1.461           25     1.386      3.248     28.96881  19.0563        152
 9.66   0.0243   1258.4841    430.5011 -36.47      1296.06     0.500           25     0.499      3.002     28.94256  20.2684        153
 4.88   0.0164   1236.0637   1551.5850  52.78       1915.8     1.205           25     1.162      3.367     28.97537  19.8441        154
 3.57   0.0019   1213.6100    511.1371 -12.85      16603.4     1.790           25     1.754      3.342     28.99503  17.4995        155
 8.21   0.0534   1179.6956    547.3405  43.23       589.26     0.567           25     0.338      2.516     28.95241  21.1242        156
 4.21   0.0099   1233.4143    302.8634 -28.24      3192.18     1.422           25     1.302      3.172     28.97537  19.2898        157
 4.83   0.0032   1208.9902   1276.7045 -83.80     9827.021     4.255           25     2.747      9.971     28.96553  18.0689        158
 3.92   0.0029   1217.8586   1192.9351 -29.04     11008.52     1.727           25     1.680      3.531     28.96225  17.9457        159
 7.25   0.0245   1199.8353   1440.1801  46.42      1283.92     0.914           25     0.882      4.307     28.98192  20.2787        160
 9.68   0.0222   1211.5016   1427.4957  47.76      1413.42     0.500           25     0.500      3.000     28.95241  20.1743        161
 4.74   0.0165   1206.6683    836.9462 -85.31      1904.62     1.213           25     1.185      3.157     28.96225  19.8505        162
 4.95   0.0164   1200.8713    337.1115 -48.89      1912.06     1.198           25     1.124      3.300     28.95569  19.8462        163
 6.48   0.0172   1194.0333    122.1328 -65.44      1828.16     1.223           25     1.120      4.868     28.98192  19.8950        164
 7.20   0.0416   1160.5088    885.9343  -0.57       756.72     0.787           25     0.500      3.109     28.96553  20.8527        165
 3.50   0.0010   1137.5363    146.1869 -16.24      32635.9     1.980           25     1.933      3.490      28.9852  16.7658        166
 3.97   0.0046   1156.8737    234.5136  19.06      6868.94     1.589           25     1.550      3.345     28.95241  18.4578        167
 3.50   0.0006   1164.1688   1297.8540 -48.39      50550.9     2.069           25     2.025      3.511     28.98192  16.2907        168
 5.52   0.0317   1094.3895   1524.6415 -48.17        992.2     0.993           25     0.876      2.975     28.97865  20.5585        169
 3.71   0.0028   1080.7781   1146.2617 -19.20     11137.52     1.711           25     1.655      3.325      28.9852  17.9330        170
 3.50   0.0007   1039.2559    631.1835 -26.78     43823.74     2.050           25     1.995      3.517     28.98192  16.4457        171
 6.38   0.0153   1070.9371   1217.1045 -51.59      2050.64     1.264           25     1.154      4.953     28.96225  19.7703        172
 6.96   0.0177   1029.1840    300.8105  45.54      1775.36     1.266           25     1.086      5.231     28.96553  19.9268        173
 3.52   0.0017   1008.8133    811.8144 -24.77     18415.84     1.861           25     1.813      3.396     28.97537  17.3870        174
 3.51   0.0015   1024.7626   1378.0526 -37.61     21104.02     1.871           25     1.837      3.381     28.97865  17.2391        175
 4.42   0.0107   1010.2997    342.8075   2.35      2937.38     1.359           25     1.308      3.296     28.96225  19.3801        176
 4.56   0.0096   1000.6539    540.6096 -25.66      3283.12     1.345           25     1.319      3.340     28.99175  19.2593        177
