#   1 KRON_RADIUS            Kron apertures in units of A or B                         
#   2 MAGERR_APER            RMS error vector for fixed aperture mag.                   [mag]
#   3 Y_IMAGE                Object position along y                                    [pixel]
#   4 X_IMAGE                Object position along x                                    [pixel]
#   5 THETA_IMAGE            Position angle (CCW/x)                                     [deg]
#   6 FLUX_APER              Flux vector within fixed circular aperture(s)              [count]
#   7 A_IMAGE                Profile RMS along major axis                               [pixel]
#   8 THRESHOLD              Detection threshold above background                       [count]
#   9 B_IMAGE                Profile RMS along minor axis                               [pixel]
#  10 FLUX_RADIUS            Fraction-of-light radii                                    [pixel]
#  11 FLUXERR_APER           RMS error vector for aperture flux(es)                     [count]
#  12 MAG_APER               Fixed aperture magnitude vector                            [mag]
#  13 NUMBER                 Running object number                                     
 4.66   0.0005     52.2203     61.8434   2.97     28851.85     3.763           25     3.445      9.499     13.11989  16.8996          1
 4.86   0.0030     15.3444    983.1082 -87.95      4763.37     3.030           25     1.495      6.861     13.11098  18.8552          2
 4.22   0.0036     17.0108     89.4072 -83.69     3933.073     1.457           25     1.344      3.161     13.11098  19.0632          3
 3.60   0.0014     13.6117   1443.8223 -70.72     10076.88     1.653           25     1.593      3.126     13.11395  18.0417          4
 6.31   0.0169     23.8520    365.1427  44.80     841.6884     0.815           25     0.678      2.926     13.11395  20.7371          5
 3.50   0.0003     58.7716   1076.5596  81.69     46063.13     2.055           25     1.909      3.338     13.12137  16.3916          6
 3.50   0.0003     79.0913    535.6887 -67.50      44489.7     1.953           25     1.895      3.284     13.10504  16.4293          7
 4.76   0.0086     74.0998    126.0801 -43.58     1662.235     1.144           25     1.129      3.112     13.10059  19.9983          8
 4.62   0.0058     95.5694     54.2289 -63.25     2441.304     1.280           25     1.249      3.193     13.11841  19.5809          9
 3.50   0.0002    120.7737    787.2263 -69.55     65855.67     2.022           25     1.963      3.314     13.11692  16.0035         10
 3.50   0.0004    161.2595   1466.3954 -78.27     37312.97     1.939           25     1.847      3.254     13.12582  16.6203         11
 3.81   0.0017    169.2694    875.3967 -78.43     8459.569     1.611           25     1.557      3.200     13.12286  18.2316         12
 6.61   0.0187    163.9993   1443.7097  89.96     761.5851     0.733           25     0.677      2.975     13.11247  20.8457         13
 8.11   0.0265    165.5284    102.4930 -38.08      537.634     0.501           25     0.498      2.703      13.1095  21.2238         14
 5.82   0.0134    191.5581   1348.5149 -78.80     1065.905     0.903           25     0.898      3.208     13.11395  20.4807         15
 4.71   0.0082    205.7970    547.1104 -44.16     1734.134     1.195           25     1.115      3.058      13.1095  19.9523         16
 6.38   0.0040    209.6034    825.7026  -3.05     3559.734     2.003           25     1.408      7.419     13.11395  19.1715         17
 4.63   0.0082    211.1527   1304.1151  49.23     1741.169     1.186           25     1.123      3.061     13.11247  19.9479         18
 4.50   0.0071    222.9538   1224.0917 -50.29     1996.911     1.188           25     1.126      3.002     13.10802  19.7991         19
 7.52   0.0045    228.9387    560.1448 -14.24     3132.855     1.708           25     1.532      8.100     13.11395  19.3101         20
 3.50   0.0001    258.7256    995.5002 -76.24     114553.9     2.139           25     2.068      3.369     13.10207  15.4025         21
 7.03   0.0208    221.5030    772.9891  -0.14     685.0895     0.784           25     0.500      2.714     13.11098  20.9606         22
 3.50   0.0002    264.8944     65.6658 -65.56     84202.95     2.059           25     2.015      3.326     13.11247  15.7367         23
 7.41   0.0100    243.0026    110.9911 -89.47     1425.768     1.061           25     0.734      4.665     13.11247  20.1649         24
 5.61   0.0042    254.3416    611.0714 -31.38     3404.996     1.662           25     1.481      5.333     13.11098  19.2197         25
 3.50   0.0007    286.5021   1484.5273 -80.21      19914.5     1.807           25     1.727      3.188     13.10802  17.3021         26
 4.04   0.0032    280.9511   1520.4191 -86.85         4386     1.450           25     1.360      3.097     13.11841  18.9448         27
 3.55   0.0010    302.1385    199.8049 -54.54     14613.86     1.712           25     1.668      3.176     13.12582  17.6381         28
 8.11   0.0154    292.4984   1473.5161 -60.32     923.3271     0.500           25     0.500      2.938     13.10059  20.6366         29
 6.84   0.0190    301.0591    561.6965 -82.37     750.1385     0.737           25     0.673      3.100     13.10653  20.8621         30
 3.67   0.0015    321.0505    695.3715 -82.09     9695.948     1.631           25     1.559      3.134     13.12137  18.0835         31
 6.03   0.0077    326.5257    593.5754 -25.60     1841.993     1.249           25     1.123      4.450     13.11692  19.8868         32
 6.00   0.0151    349.0202     52.7915  -0.90     941.4662     0.905           25     0.757      3.021     13.11247  20.6155         33
 3.78   0.0014    367.1181    759.1780 -64.03     10019.83     1.656           25     1.614      3.202     13.11692  18.0478         34
 5.03   0.0079    360.2217   1498.4973 -84.02     1806.667     1.123           25     1.114      3.212     13.11098  19.9078         35
 3.50   0.0003    394.1762    229.5104 -57.16     48950.68     1.949           25     1.913      3.280     13.11544  16.3256         36
 3.68   0.0021    396.0115   1459.2537 -61.37     6870.404     1.557           25     1.506      3.100     13.12434  18.4575         37
 3.72   0.0018    397.1568    352.6395 -71.42     7927.093     1.619           25     1.538      3.139     13.12137  18.3022         38
 4.62   0.0088    392.8230   1086.7617  78.92     1626.391     1.159           25     1.113      2.973     13.11989  20.0219         39
 3.54   0.0009    436.9323    250.1709 -80.71     15993.85     1.721           25     1.708      3.202     13.11841  17.5401         40
 3.50   0.0001    460.0580    805.6912 -72.13     138482.3     2.156           25     2.106      3.370     13.10802  15.1965         41
 4.71   0.0116    431.8409   1420.1593  57.10     1223.302     1.059           25     1.039      2.897     13.12286  20.3312         42
 4.05   0.0028    449.2840     19.3997 -39.25     5048.072     1.479           25     1.426      3.150     13.11692  18.7922         43
 7.41   0.0258    439.0044    303.7375  89.74     552.3235     0.673           25     0.440      2.537     13.12582  21.1945         44
 3.98   0.0025    456.8358     32.6495 -35.30      5713.64     1.515           25     1.447      3.148     13.11989  18.6577         45
 8.83   0.0164    444.4814    120.4871 -43.31     870.5284     0.501           25     0.498      3.008      13.1095  20.7005         46
 6.45   0.0034    466.5654    848.3380  21.64     4216.112     4.133           25     1.383     12.704     13.11692  18.9877         47
 4.82   0.0079    462.8370    466.7830  47.38     1798.052     1.202           25     1.123      3.204     13.12137  19.9130         48
 8.29   0.0244    460.3008   1094.3420 -42.95     582.9373     0.566           25     0.338      2.556     13.10356  21.1359         49
 5.10   0.0089    470.3825    252.2543   2.06     1595.298     1.129           25     1.064      3.158     13.12137  20.0429         50
 4.50   0.0064    471.1127    732.9656 -29.07     2225.841     1.179           25     1.170      3.007     13.11692  19.6813         51
 4.12   0.0050    476.8987    921.1418  89.42     2863.867     1.345           25     1.298      3.044     13.10504  19.4076         52
 5.59   0.0135    476.8779   1275.0015 -89.79     1055.327     0.896           25     0.759      2.888     13.11989  20.4915         53
 5.01   0.0117    483.0219   1068.5632 -89.23     1217.017     1.086           25     0.947      2.927     13.11989  20.3368         54
 7.00   0.0067    494.9876     81.0291  44.33     2120.922     1.418           25     1.156      5.883     13.11989  19.7337         55
 8.01   0.0070    494.5180   1185.0229  -1.03     2043.673     1.186           25     0.976      6.121     13.11692  19.7740         56
 6.16   0.0194    501.1074    861.8506  46.55     735.5731     0.821           25     0.674      2.813      13.1095  20.8834         57
 8.04   0.0116    503.1307    760.8720  44.68     1229.242     0.842           25     0.682      4.357     13.10504  20.3259         58
 6.77   0.0055    514.1002   1459.0000  23.05      2565.83     2.190           25     1.012      7.377     13.11098  19.5269         59
 6.57   0.0191    512.9520   1177.2953 -83.93     746.6245     0.734           25     0.672      2.920     13.10356  20.8672         60
 4.73   0.0083    539.1332    997.9645 -68.40     1712.083     1.142           25     1.130      3.046     13.11841  19.9662         61
 4.58   0.0061    557.9408   1039.7869 -25.58     2324.023     1.254           25     1.174      3.135     13.11692  19.6344         62
 3.69   0.0015    579.6681    143.0249 -31.43     9553.227     1.613           25     1.573      3.149     13.11989  18.0996         63
 6.04   0.0086    570.2593     43.9562  44.14     1646.981     1.332           25     1.025      4.367     13.11544  20.0083         64
 3.69   0.0015    581.1678    317.2628 -59.35     9519.168     1.638           25     1.591      3.176     13.11692  18.1035         65
 7.51   0.0091    570.3513   1446.1761  24.83     1561.125     1.148           25     0.899      5.202     13.12286  20.0664         66
 6.30   0.0031    595.9370    780.6804 -77.33     4630.757     2.115           25     1.863      7.912     13.10802  18.8859         67
 6.98   0.0221    583.5097     74.0154  -0.32     644.3033     0.783           25     0.500      2.623     13.11692  21.0273         68
 5.39   0.0126   1000.5763   1553.5684  45.52     1130.745     0.982           25     0.879      2.942     13.11544  20.4166         69
 4.42   0.0008   1551.5663    680.3027 -26.02     17284.55     3.599           25     3.134      8.799     13.10653  17.4559         70
 7.61   0.0144   1545.0188    861.6835 -89.83     986.2704     0.749           25     0.676      3.626     13.11841  20.5650         71
 4.52   0.0059   1541.5627    652.7603 -83.63     2424.512     1.275           25     1.249      3.154     13.12286  19.5884         72
 4.21   0.0042   1540.7905    133.2165 -77.80     3393.185     1.370           25     1.300      3.065     13.11247  19.2235         73
 6.08   0.0174    998.9802   1271.9437 -54.30     818.3331     0.786           25     0.781      2.933     13.11841  20.7677         74
 3.50   0.0005    983.8505    556.5651 -72.57     28819.83     1.876           25     1.829      3.239     13.12137  16.9008         75
 7.39   0.0103    985.7914    452.0210  88.28     1380.099     0.928           25     0.761      4.529     13.11395  20.2002         76
 7.12   0.0144    979.9879    795.9965 -61.08     986.7731     0.796           25     0.793      3.810     13.11098  20.5645         77
 4.62   0.0078    938.1579   1065.1525  49.13     1835.749     1.186           25     1.123      3.062     13.11989  19.8905         78
 5.46   0.0137    927.3708   1320.5822 -45.44     1037.874     0.988           25     0.877      3.029     13.11841  20.5096         79
 5.95   0.0184    911.8743    836.6525 -21.65     775.1624     0.891           25     0.693      2.786      13.1095  20.8265         80
 3.71   0.0022    899.4023    300.8877 -75.25     6346.418     1.553           25     1.466      3.114     13.11395  18.5437         81
 7.22   0.0101    895.2223    536.2795  17.65     1415.247     0.992           25     0.878      4.523     13.11692  20.1729         82
 3.50   0.0001    879.1808   1590.6716 -81.45       111046     2.145           25     2.040      3.355     13.12434  15.4362         83
 5.91   0.0175    884.9488   1498.0670  79.53     814.5785     0.784           25     0.781      2.788     13.11247  20.7727         84
 8.16   0.0287    876.6605    959.2995  47.03     495.6292     0.565           25     0.339      2.497     13.10653  21.3121         85
 5.05   0.0054    868.4930   1101.5835 -44.14     2616.358     1.426           25     1.371      4.075     13.11692  19.5058         86
 8.43   0.0142    867.0026    937.9951   0.08     1005.446     0.629           25     0.622      3.772     13.11395  20.5441         87
 6.83   0.0301    843.9943   1061.9921 -43.86     472.9779     0.616           25     0.616      2.645     13.11395  21.3629         88
 6.18   0.0129    842.3842   1104.3546  42.80     1100.765     1.023           25     0.876      3.598     13.11692  20.4458         89
 5.12   0.0098    835.6071    296.8472 -16.40     1451.041     1.133           25     0.955      3.060     13.12286  20.1458         90
 3.83   0.0022    821.9659    652.4639 -79.48     6424.405     1.528           25     1.509      3.135     13.11692  18.5304         91
 3.88   0.0024    802.0421   1376.8179 -73.42     5847.796     1.481           25     1.457      3.105     13.11989  18.6325         92
 3.50   0.0008    797.4998    693.7561 -87.18     17000.33     2.413           25     1.687      4.016     13.10504  17.4739         93
 4.50   0.0051    799.6810     39.2897  46.50     2785.064     1.322           25     1.262      3.167     13.10802  19.4379         94
 6.74   0.0058    773.2684   1425.3539 -88.93     2440.736     1.710           25     1.159      6.174     13.11544  19.5812         95
 4.98   0.0093    741.7953    554.3839 -84.09     1524.439     1.129           25     1.063      3.125     13.11247  20.0922         96
 7.96   0.0265    737.3165   1156.3153 -45.06     536.4872     0.562           25     0.341      2.445     13.10504  21.2261         97
 6.82   0.0234    735.0145    647.9684  82.50     609.4394     0.618           25     0.615      2.681     13.11989  21.0877         98
 3.50   0.0002    725.5569    846.5437 -79.42     66313.58     2.035           25     1.978      3.317     13.11544  15.9960         99
 5.36   0.0137    726.3994   1176.3663  46.26     1040.348     0.985           25     0.879      2.921     13.11395  20.5071        100
 5.04   0.0108    714.9418    806.4675 -89.83     1321.836     1.082           25     0.952      2.939     13.11247  20.2471        101
 4.81   0.0108    707.9236   1161.7723 -66.11     1323.876     1.123           25     1.020      2.953     13.11544  20.2454        102
 5.62   0.0089    703.4513   1337.0544  -2.96     1603.316     1.122           25     0.952      3.914     13.11395  20.0375        103
 4.42   0.0059    701.8024    950.5552  -0.82     2434.167     1.274           25     1.258      3.125     13.12434  19.5841        104
 4.73   0.0069    684.6674    642.2870 -64.21     2049.521     1.261           25     1.169      3.232     13.10653  19.7709        105
 3.50   0.0002    647.2357   1462.4583 -82.06     65285.63     2.034           25     1.948      3.303     13.11841  16.0130        106
 7.28   0.0243    653.6016    868.8044  18.52     586.1069     0.739           25     0.453      2.636     13.11395  21.1301        107
 6.64   0.0225    629.8016    804.1997 -44.84      632.369     0.749           25     0.565      2.718     13.11989  21.0476        108
 5.50   0.0136    622.4071   1579.6213 -47.00     1049.765     0.988           25     0.878      2.975     13.11544  20.4973        109
 5.11   0.0110   1583.8213   1106.8151 -57.51     1296.078     1.060           25     1.036      3.069     13.11395  20.2684        110
 4.61   0.0068   1565.6405     20.0277 -76.96     2095.465     1.265           25     1.163      3.091     13.12137  19.7468        111
 4.85   0.0088   1569.5154     90.7622 -60.91     1622.402     1.122           25     1.113      2.981     13.11544  20.0246        112
 3.50   0.0002   1556.9681    485.7669 -77.15     57221.04     1.995           25     1.947      3.294     13.12137  16.1561        113
 6.16   0.0101   1564.8563    782.5873 -76.14     1410.073     1.205           25     0.960      4.158     13.11989  20.1769        114
 3.50   0.0002   1562.6359    302.3035 -71.69     57914.16     1.988           25     1.946      3.266     13.10356  16.1430        115
 5.42   0.0137   1560.2771    859.4930  -6.24     1042.472     0.973           25     0.952      3.066     13.10802  20.5048        116
 3.79   0.0017   1037.6812    523.4899 -55.45     8528.186     1.589           25     1.559      3.175     13.10802  18.2229        117
 3.76   0.0018   1513.8411    390.7360  72.18     7701.035     1.555           25     1.521      3.097     13.11841  18.3336        118
 3.50   0.0004   1078.9111    510.2561 -71.73     32482.34     1.887           25     1.851      3.250      13.1095  16.7709        119
 3.50   0.0005   1506.1527    267.4587 -58.92     31262.24     1.866           25     1.836      3.224     13.11544  16.8124        120
 6.27   0.0178   1503.0424    721.4799  -0.03     799.5182     0.804           25     0.702      2.913     13.11247  20.7929        121
 8.53   0.0107   1109.5118    476.9964  -0.16     1334.099     0.801           25     0.500      4.189     13.11395  20.2370        122
 3.87   0.0021   1106.4174    426.0812 -82.51     6792.475     1.550           25     1.526      3.175     13.12137  18.4699        123
 6.35   0.0066   1119.2861    327.9167  61.02     2158.682     1.506           25     1.083      5.279     13.10802  19.7145        124
 3.50   0.0009   1128.9254    181.6353 -64.42      15967.8     1.740           25     1.696      3.169     13.11395  17.5419        125
 7.14   0.0209   1128.0461    545.4913 -89.79     680.4788     0.784           25     0.500      2.930     13.10802  20.9680        126
 5.25   0.0104   1150.0990     97.4864 -88.97     1374.252     1.083           25     0.951      3.072     13.10356  20.2048        127
 8.02   0.0107   1258.4460    430.6574  34.54     1326.303     1.005           25     0.701      4.531     13.11544  20.2434        128
 6.28   0.0181   1303.8435    890.8837 -43.88     788.5063     0.819           25     0.675      2.944     13.11395  20.8080        129
 4.20   0.0060   1407.1879    306.4219 -11.36     2379.229     1.269           25     1.247      2.963     13.11395  19.6089        130
 6.22   0.0088   1292.5006    740.4540 -46.29     1617.541     1.029           25     1.023      4.186     13.10207  20.0279        131
 5.92   0.0169   1291.9508    410.9497 -42.28     843.1773     0.785           25     0.783      2.809     13.12286  20.7352        132
 3.50   0.0002   1392.3542    112.5959 -74.03     78300.95     2.042           25     1.986      3.282     13.12434  15.8156        133
 4.25   0.0056   1438.7697    617.2417 -54.26      2524.42     1.264           25     1.261      3.000     13.12286  19.5446        134
 4.41   0.0056   1389.4479    711.3168 -63.42     2523.735     1.305           25     1.250      3.102      13.1095  19.5449        135
 4.88   0.0087   1414.3275   1384.6810  57.13      1639.52     1.128           25     1.101      3.066     13.10802  20.0132        136
 4.13   0.0041   1434.3054    222.8284 -29.90     3433.397     1.373           25     1.347      3.085     13.11098  19.2107        137
 7.60   0.0150   1399.7854   1029.7736  44.99     949.4036     0.762           25     0.564      3.423     13.11692  20.6064        138
 3.79   0.0019   1387.7007   1426.5947  66.98       7316.7     1.576           25     1.525      3.176     13.11395  18.3892        139
 3.50   0.0001   1297.3241    722.9832 -66.81     184000.2     2.217           25     2.145      3.392     13.12434  14.8880        140
 3.86   0.0017   1371.5438   1017.0339 -25.28     8598.613     1.598           25     1.575      3.259     13.11989  18.2139        141
 4.82   0.0081   1391.1819   1036.9004 -47.10     1757.518     1.195           25     1.118      3.168     13.11098  19.9377        142
 4.71   0.0039   1328.8165    653.9100 -40.15     3676.052     1.484           25     1.359      3.721     13.11841  19.1365        143
 3.50   0.0005   1319.0020    658.0884 -69.84     29594.73     1.928           25     1.827      3.288     13.11395  16.8720        144
 5.78   0.0169   1331.8181    105.4846  -0.26     840.6155     0.939           25     0.731      2.849     13.11841  20.7385        145
 7.30   0.0238   1318.3934    262.2036  18.07     597.1725     0.737           25     0.454      2.646     13.11247  21.1097        146
 6.64   0.0191   1314.0109    122.6814 -88.90     744.1552     0.738           25     0.672      2.864     13.11989  20.8708        147
 4.58   0.0013   1271.7086    608.1096 -54.77     10876.15     3.073           25     2.069      6.971     13.10356  17.9588        148
 4.70   0.0049   1306.4819    667.7043 -84.95     2902.225     1.319           25     1.268      3.309     13.10504  19.3932        149
 4.14   0.0021   1290.4141    760.0925 -29.71     6862.423     1.659           25     1.535      3.528     13.11395  18.4588        150
 4.22   0.0044   1264.4265    805.9307 -32.22     3262.367     1.361           25     1.310      3.088     13.11841  19.2662        151
 4.14   0.0034   1277.0439   1329.4644 -88.63      4139.34     1.466           25     1.334      3.145     13.11544  19.0077        152
 5.04   0.0087   1236.0367   1551.6836  89.32     1642.586     1.146           25     1.042      3.124     13.11692  20.0112        153
 3.50   0.0010   1213.5704    511.1222 -84.09     14424.22     1.722           25     1.690      3.156     13.11544  17.6523        154
 7.47   0.0153   1152.6887   1351.0236  -1.29      931.366     0.744           25     0.678      3.557     13.11544  20.6272        155
 4.34   0.0053   1233.3812    302.8222  71.95     2687.383     1.298           25     1.252      3.067     13.11989  19.4767        156
 4.80   0.0015   1209.1685   1276.7384 -84.24     9430.756     4.306           25     2.678      9.856     13.11692  18.1136        157
 3.91   0.0015   1217.8102   1192.9481 -73.34     9372.411     1.652           25     1.614      3.372     13.12434  18.1204        158
 7.22   0.0135   1199.9885   1440.0505  53.56     1058.567     0.803           25     0.792      3.695     13.12286  20.4882        159
 9.75   0.0097   1211.5070   1427.5072 -46.83     1465.938     0.500           25     0.500      3.000     13.10207  20.1347        160
 4.75   0.0091   1200.9170    337.0701 -35.00     1567.122     1.134           25     1.133      3.076     13.10653  20.0622        161
 4.88   0.0086   1206.7050    836.9615  -0.29     1647.279     1.138           25     1.048      3.041     13.10504  20.0081        162
 6.50   0.0082   1193.9993    122.2319 -87.32       1740.6     1.220           25     1.074      4.795     13.11544  19.9483        163
 8.07   0.0212   1160.5212    885.5291  65.97     672.6585     0.500           25     0.499      2.786     13.10802  20.9805        164
 3.50   0.0005   1137.4929    146.1910 -63.65     30513.78     1.881           25     1.827      3.239     13.11395  16.8388        165
 3.90   0.0025   1156.8295    234.5141 -44.05     5693.152     1.508           25     1.491      3.136     13.11692  18.6616        166
 3.50   0.0003   1164.1122   1297.8574 -78.84     49008.18     1.975           25     1.909      3.291      13.1095  16.3243        167
 3.70   0.0015   1080.7600   1146.2832  76.76     9400.823     1.619           25     1.575      3.153     13.11544  18.1171        168
 5.32   0.0169   1094.4938   1524.5629 -82.61     841.9684     0.905           25     0.895      2.844     13.10653  20.7368        169
 3.50   0.0003   1039.2008    631.1639 -65.33     41602.41     1.948           25     1.891      3.269     13.11247  16.5022        170
 6.38   0.0075   1071.0193   1217.0460 -81.03     1892.535     1.202           25     1.166      4.904     13.11989  19.8574        171
 3.50   0.0008   1024.7209   1378.0874 -73.88     18962.94     1.786           25     1.735      3.197     13.10653  17.3552        172
 3.50   0.0009   1008.7536    811.8029 -60.60     16295.95     1.753           25     1.713      3.195     13.12434  17.5198        173
 7.19   0.0081   1029.3247    300.7299  46.13     1748.663     1.255           25     0.998      5.193     13.10653  19.9432        174
 4.39   0.0058   1010.2984    342.7449 -59.28     2458.244     1.264           25     1.256      3.090     13.10356  19.5734        175
 4.51   0.0052   1000.6802    540.6669 -45.76     2720.424     1.336           25     1.254      3.234     13.10802  19.4634        176
