#   1 KRON_RADIUS            Kron apertures in units of A or B                         
#   2 MAGERR_APER            RMS error vector for fixed aperture mag.                   [mag]
#   3 Y_IMAGE                Object position along y                                    [pixel]
#   4 X_IMAGE                Object position along x                                    [pixel]
#   5 FLUX_APER              Flux vector within fixed circular aperture(s)              [count]
#   6 THRESHOLD              Detection threshold above background                       [count]
#   7 THETA_IMAGE            Position angle (CCW/x)                                     [deg]
#   8 A_IMAGE                Profile RMS along major axis                               [pixel]
#   9 B_IMAGE                Profile RMS along minor axis                               [pixel]
#  10 FLUX_RADIUS            Fraction-of-light radii                                    [pixel]
#  11 FLUXERR_APER           RMS error vector for aperture flux(es)                     [count]
#  12 MAG_APER               Fixed aperture magnitude vector                            [mag]
#  13 NUMBER                 Running object number                                     
 4.17   0.0006     53.2565     63.6428     58670.13      43.5463   1.98     5.123     4.572     10.352     32.28566  16.1290          1
 3.87   0.0036     16.4784    985.0769     9666.836      43.5463 -88.62     4.214     1.929      6.745     32.28201  18.0868          2
 3.94   0.0045     18.0460     91.3107     7870.626      43.5463 -21.89     1.737     1.698      2.834      32.2747  18.3100          3
 3.50   0.0017     14.6388   1445.7582     20418.99      43.5463 -57.14     1.867     1.780      2.786     32.30028  17.2749          4
 8.01   0.1353     10.3046   1183.6648     259.0791      43.5463  43.46     0.565     0.339      2.274     32.27835  22.0164          5
 7.29   0.0399      4.4737    145.2111      796.258      43.5463 -88.54     1.003     0.739      3.527     29.26842  20.7974          6
 6.79   0.0383     17.2495    384.5198     916.3939      43.5463  14.89     0.994     0.963      3.414     32.27835  20.6448          7
 5.10   0.0206     24.7656    367.2277     1701.768      43.5463 -21.08     1.302     1.279      3.061     32.29297  19.9727          8
 3.50   0.0004     59.7884   1078.4711     93338.54      43.5463  81.96     2.254     2.134      2.968     32.31489  15.6248          9
 8.47   0.0556     23.7820    383.3971      630.593      43.5463 -72.10     0.757     0.452      3.260     32.28201  21.0506         10
 6.25   0.0363     34.0507   1110.2819     965.1808      43.5463  62.34     1.556     0.820      3.498      32.2747  20.5885         11
 7.75   0.0523     33.6917    326.9680     670.8884      43.5463   4.05     0.746     0.680      3.110     32.27835  20.9834         12
 5.80   0.0905     37.8551   1521.1614     387.5865      43.5463  46.17     0.829     0.669      2.248     32.29663  21.5791         13
 7.09   0.0645     38.8824   1170.3628     543.7294      43.5463  19.36     0.930     0.690      2.834     32.29297  21.2115         14
 5.89   0.0630     42.2124    915.4865     556.7355      43.5463   0.03     0.960     0.732      2.412     32.29663  21.1859         15
 3.50   0.0004     80.1619    537.6298     89551.17      43.5463 -62.67     2.147     2.092      2.865     32.30028  15.6698         16
 9.34   0.0546     44.4960    440.5079     641.0874      43.5463 -45.27     0.502     0.498      3.014     32.26007  21.0327         17
 4.11   0.0108     75.1902    128.0414     3244.541      43.5463 -37.04     1.529     1.468      2.698     32.30028  19.2721         18
 6.49   0.0420     82.2800    421.5060     833.8226      43.5463 -72.84     0.994     0.983      3.148     32.27104  20.7473         19
 5.82   0.0196     90.8266    377.0053     1793.765      43.5463 -20.10     1.665     1.529      4.891     32.29663  19.9156         20
 3.50   0.0003    121.8114    789.1776     133057.9      43.5463 -58.05     2.229     2.157      2.881     32.28932  15.2399         21
 4.36   0.0071     96.6437     56.2313     4913.864      43.5463 -31.28     1.614     1.551      2.948     32.30759  18.8214         22
 5.99   0.0307     98.0480    452.9695     1144.688      43.5463 -14.64     1.446     1.005      3.748     32.30759  20.4033         23
 7.37   0.0701     91.5052    495.9703     500.3832      43.5463  -1.48     0.787     0.500      2.356     32.28201  21.3017         24
 3.50   0.0005    162.3181   1468.3154      75402.7      43.5463 -54.27     2.107     2.045      2.895     32.27104  15.8565         25
 6.96   0.0737    131.2889    418.0246     475.6222      43.5463   6.46     0.732     0.680      2.538     32.28566  21.3568         26
 3.51   0.0021    170.3064    877.3268     16967.33      43.5463 -37.22     1.862     1.820      2.818      32.2747  17.4760         27
 8.35   0.1015    151.4877   1280.4851     345.2327      43.5463 -45.63     0.501     0.498      2.633     32.27104  21.7047         28
 5.42   0.0230    164.9675   1445.6466     1527.617      43.5463  15.16     1.301     1.188      3.090     32.30759  20.0900         29
 4.31   0.0345    166.7818    104.4359     1015.615      43.5463 -17.88     1.262     1.144      2.397     32.30393  20.5332         30
 6.36   0.0572    169.3399   1368.8975     612.6417      43.5463  67.99     0.912     0.688      2.713     32.26738  21.0820         31
 7.84   0.0450    180.1621    574.8980     779.0271      43.5463  43.06     0.862     0.672      3.794     32.26373  20.8211         32
 7.46   0.0359    186.6548   1354.9116     976.5993      43.5463  76.16     1.037     0.755      4.547      32.2747  20.5757         33
 5.19   0.0179    192.5967   1350.5398     1962.849      43.5463 -13.63     1.363     1.306      3.350     32.31489  19.8178         34
 4.70   0.0048    210.7428    827.6968     7315.899      43.5463  -6.18     3.876     2.046      8.035     32.26373  18.3893         35
 4.00   0.0099    206.6966    549.0604     3523.739      43.5463 -49.71     1.513     1.492      2.727     32.27104  19.1825         36
 4.11   0.0100    212.1412   1306.0922     3498.926      43.5463  48.60     1.503     1.492      2.725     32.27104  19.1902         37
 5.41   0.0055    230.1308    562.3044     6383.248      43.5463 -39.65     3.208     3.006      8.942     32.27835  18.5374         38
 5.63   0.0333    210.9195    684.8603     1051.191      43.5463 -65.24     1.213     1.116      3.468     32.27835  20.4958         39
 3.50   0.0002    259.7673    997.4636     230701.4      43.5463 -49.22     2.326     2.227      2.915     32.29297  14.6424         40
 3.86   0.0087    223.9153   1226.0546     4016.387      43.5463  26.73     1.504     1.485      2.666     32.27104  19.0404         41
 4.85   0.0256    222.5792    774.9357     1370.132      43.5463 -38.99     1.212     1.165      2.561     32.30393  20.2081         42
 3.50   0.0002    265.9208     67.5955     170427.6      43.5463 -49.39     2.265     2.196      2.861     32.29663  14.9711         43
 5.43   0.0129    243.9537    112.8670     2712.027      43.5463 -87.80     1.944     1.539      5.190     32.28932  19.4668         44
 4.72   0.0051    255.4751    612.9941     6915.357      43.5463 -39.55     2.421     2.015      5.525     32.31124  18.4505         45
 6.41   0.0308    239.3534    838.8110     1138.402      43.5463  -5.01     1.207     1.103      3.986     32.30028  20.4093         46
 7.10   0.0321    250.5009    107.5042     1092.398      43.5463 -43.09     1.109     0.854      4.483     32.26738  20.4540         47
 3.50   0.0009    287.5338   1486.4602     40261.01      43.5463 -51.40     2.024     1.972      2.890     32.27835  16.5378         48
 3.59   0.0039    281.9197   1522.3905     8891.068      43.5463 -19.94     1.694     1.647      2.739     32.29297  18.1776         49
 6.53   0.0391    270.8847   1273.6149     898.0447      43.5463  14.10     1.033     0.744      3.414     32.29297  20.6668         50
 3.50   0.0012    303.1575    201.7498     29475.42      43.5463 -49.83     1.952     1.913      2.795     32.30028  16.8763         51
 6.10   0.0209    293.2261   1475.8163     1675.064      43.5463 -40.46     1.240     1.134      4.016     32.29663  19.9899         52
 4.59   0.0219    302.2395    563.7120     1604.136      43.5463  21.58     1.338     1.245      2.899     32.28566  20.0369         53
 8.77   0.0748    292.5020    248.4889     468.2044      43.5463 -46.51     0.501     0.499      2.722     32.26007  21.3739         54
 3.50   0.0018    322.0915    697.3416     19571.07      43.5463 -10.33     1.848     1.812      2.762     32.27104  17.3210         55
 7.71   0.0329    308.7028     85.3052     1064.736      43.5463  46.83     0.969     0.765      4.601     32.26007  20.4819         56
 6.02   0.0213    321.8692    641.5228     1647.247      43.5463 -65.00     1.773     1.200      4.617     32.27104  20.0081         57
 5.05   0.0093    327.5058    595.4429     3780.971      43.5463  10.57     1.724     1.717      4.568     32.26373  19.1060         58
 5.89   0.0558    329.2318   1546.0073     628.8723      43.5463 -87.79     0.902     0.759      2.648     32.30028  21.0536         59
 5.72   0.0416    332.2732     93.4231     843.3154      43.5463  16.80     0.992     0.954      2.579     32.30028  20.7350         60
 3.50   0.0017    368.3845    760.8975     20263.22      43.5463 -45.12     2.558     1.841      2.995     32.28566  17.2832         61
 4.69   0.0188    350.0923     54.7249     1868.261      43.5463 -36.82     1.357     1.328      2.843     32.27104  19.8714         62
 3.93   0.0097    361.1682   1500.3911     3610.473      43.5463 -15.61     1.577     1.452      2.931     32.29663  19.1561         63
 3.50   0.0004    395.2360    231.4487     99069.59      43.5463 -60.98     2.186     2.116      2.844     32.30028  15.5601         64
 5.51   0.0403    360.5753   1033.9026     869.9754      43.5463 -13.57     1.158     0.962      2.470     32.27835  20.7012         65
 7.31   0.0506    370.4859     71.9584     692.9086      43.5463 -87.89     0.815     0.701      3.418     32.28566  20.9483         66
 6.35   0.0410    373.5033   1083.8605     855.4159      43.5463 -17.55     1.103     0.982      3.834     32.27104  20.7196         67
 6.43   0.1056    380.6082      1.4856     253.7203      43.5463 -89.71     1.605     0.500      4.556     24.66536  22.0391         68
 3.50   0.0025    397.0699   1461.1993     14092.77      43.5463 -74.23     1.779     1.761      2.781     32.30759  17.6775         69
 3.50   0.0022    398.1953    354.6356     16067.77      43.5463 -38.67     1.844     1.807      2.767     32.29663  17.5351         70
 8.23   0.1228    375.6642     87.3029     285.3879      43.5463  46.67     0.565     0.339      2.163     32.28201  21.9114         71
 6.56   0.0549    380.1645    125.8450     639.1247      43.5463  44.75     0.820     0.679      2.451     32.30759  21.0360         72
 4.11   0.0106    393.8165   1088.7810     3323.743      43.5463 -37.44     1.519     1.447      2.684     32.29297  19.2459         73
 8.74   0.0625    382.4934     67.5072     560.5506      43.5463 -45.03     0.504     0.496      3.026     32.26007  21.1785         74
 8.20   0.1094    388.6971   1195.3385     320.4896      43.5463  43.22     0.566     0.339      2.316     32.27104  21.7855         75
 6.05   0.0591    412.0412      1.7690     463.1228      43.5463 -89.92     2.513     0.700      5.569     25.18608  21.3858         76
 7.56   0.0244    397.0254    626.6956     1433.928      43.5463 -65.30     1.341     1.083      5.585     32.28201  20.1587         77
 7.93   0.0364    403.4896    526.4983     962.9562      43.5463  89.32     1.090     0.500      4.277     32.26007  20.5910         78
 7.01   0.0782    407.0443    282.2940     447.9101      43.5463  89.42     0.737     0.674      2.540     32.26373  21.4220         79
 3.50   0.0011    437.9754    252.0879     32304.01      43.5463 -73.79     1.987     1.960      2.789     32.28932  16.7769         80
 3.50   0.0001    461.0806    807.6478     279863.7      43.5463 -61.03     2.345     2.265      2.922     32.28201  14.4326         81
 5.82   0.0184    420.8114    159.0276     1908.676      43.5463  31.01     1.646     1.399      4.497     32.29663  19.8482         82
 7.46   0.0799    419.5259   1580.4933     438.7266      43.5463  42.63     0.503     0.496      2.531     32.27104  21.4445         83
 4.09   0.0139    432.9641   1422.0618     2515.105      43.5463  10.78     1.426     1.390      2.756     32.29297  19.5486         84
 6.56   0.0337    426.6788   1179.2426     1041.031      43.5463   4.87     1.217     0.942      4.168     32.28566  20.5063         85
 6.30   0.0006    426.7638    432.9953     54077.71      43.5463  -1.33     2.306     0.724      4.546     32.29663  16.2175         86
 7.97   0.1105    426.3199    299.6852     317.1122      43.5463  45.26     0.563     0.340      2.018     32.27104  21.7970         87
 5.15   0.0348    434.2638    151.1026     1008.098      43.5463 -22.15     1.134     1.029      2.848     32.28201  20.5412         88
 3.83   0.0034    450.3487     21.3388     10241.18      43.5463 -48.98     1.765     1.732      2.809     32.28201  18.0241         89
 4.97   0.0041    467.8039    850.5261     8597.633      43.5463  22.58     7.410     2.036     14.395     32.31124  18.2141         90
 9.78   0.0313    430.5058    718.5177     1120.361      43.5463  46.24     0.503     0.497      3.018     32.27104  20.4266         91
 4.44   0.0329    439.9993    305.8438     1065.727      43.5463  43.70     1.155     1.138      2.471     32.30759  20.4809         92
 3.72   0.0030    457.8458     34.5835     11529.26      43.5463 -52.57     1.776     1.744      2.780     32.30028  17.8955         93
 5.37   0.0203    445.1875    122.3629      1729.14      43.5463 -18.75     1.407     1.262      3.646     32.30028  19.9554         94
 7.36   0.0753    443.7620    655.0262     465.9074      43.5463   1.24     0.687     0.426      2.401     32.30028  21.3792         95
 4.21   0.0095    463.6682    468.6435     3671.993      43.5463  53.82     1.598     1.540      2.911     32.28932  19.1377         96
 6.17   0.0680    452.9252   1533.0214     515.7755      43.5463 -29.49     0.791     0.773      2.513     32.30393  21.2688         97
 5.02   0.0306    461.0328   1096.1024     1144.785      43.5463  25.35     1.186     1.122      2.744     32.26373  20.4032         98
 3.93   0.0077    472.1450    734.9465     4549.541      43.5463  81.94     1.560     1.476      2.699     32.28932  18.9051         99
 4.57   0.0110    471.3524    254.2341     3187.061      43.5463 -43.46     1.496     1.431      2.950     32.30028  19.2915        100
 7.57   0.0414    461.8461    724.7260     845.7894      43.5463 -20.19     0.947     0.682      3.859     32.27835  20.7318        101
 3.65   0.0060    477.9322    923.0837      5827.44      43.5463 -33.10     1.669     1.599      2.666      32.2747  18.6363        102
 4.25   0.0160    477.2760   1276.4293     2191.245      43.5463 -44.94     1.341     0.920      2.934     32.28932  19.6983        103
 5.70   0.0255    488.8282    839.6331     1374.464      43.5463  88.79     2.086     0.973      4.755     32.29663  20.2047        104
 4.03   0.0146    484.0666   1070.6798     2399.072      43.5463 -55.90     1.426     1.366      2.540     32.27104  19.5999        105
 6.55   0.0951    476.0097   1168.3048     368.6183      43.5463  86.99     0.730     0.675      2.495     32.28201  21.6336        106
 5.24   0.0079    496.2249     82.9241     4418.685      43.5463  67.05     2.294     2.075      6.101     32.29297  18.9368        107
 6.75   0.0573    478.8782    682.8464     611.9283      43.5463 -45.71     0.818     0.680      2.828     32.27835  21.0832        108
 5.08   0.0084    495.6584   1186.8361     4172.876      43.5463 -15.84     2.977     1.887      6.745     32.29663  18.9989        109
 5.01   0.0137    504.2094    762.9064     2568.368      43.5463 -89.47     1.764     1.674      4.924     32.28566  19.5259        110
 4.68   0.0234    501.9949    863.7543     1499.146      43.5463   0.62     1.253     1.182      2.648     32.30759  20.1104        111
 4.47   0.0067    515.3533   1461.0763       5243.8      43.5463  24.01     4.103     1.634      7.492      32.2747  18.7509        112
 5.91   0.0562    498.0129    366.2479     624.6573      43.5463  -0.58     0.922     0.749      2.473     32.30393  21.0609        113
 6.00   0.0226    509.9556    165.0489     1550.598      43.5463 -10.41     1.837     1.020      4.750     32.30028  20.0738        114
 4.78   0.0237    513.9047   1179.2246     1476.654      43.5463  -5.57     1.244     1.182      2.748     32.28201  20.1268        115
 5.35   0.0317    519.1333    641.9204      1104.04      43.5463  20.46     1.195     1.114      3.302     32.27104  20.4425        116
 6.42   0.0726    518.1923   1519.1840     483.0697      43.5463  46.10     0.759     0.567      2.614      32.2747  21.3400        117
 4.07   0.0102    540.2014    999.9447     3439.505      43.5463  -7.60     1.478     1.467      2.704     32.31854  19.2088        118
 6.33   0.0412    536.3397    404.5272     851.3159      43.5463  39.13     1.182     0.788      3.488     32.27835  20.7248        119
 3.79   0.0074    558.9291   1041.7891     4743.069      43.5463   0.03     1.618     1.552      2.797     32.31124  18.8598        120
 4.65   0.0103    571.2954     45.8589     3387.238      43.5463  48.88     2.091     1.515      4.323     32.27104  19.2254        121
 5.98   0.0862    555.8099    778.7978     406.5166      43.5463  45.31     0.757     0.566      2.126     32.28201  21.5273        122
 3.50   0.0018    580.7115    144.9684     19358.35      43.5463 -70.14     1.859     1.826      2.760     32.28566  17.3328        123
 4.50   0.0112    571.3770   1447.8510     3146.204      43.5463  19.22     2.289     1.667      5.322     32.30759  19.3055        124
 5.72   0.0392    565.1072    139.5361     894.4451      43.5463 -68.23     1.046     0.976      3.014     32.28201  20.6711        125
 4.21   0.0037    596.6942    782.6355     9438.456      43.5463 -64.90     3.326     3.088      7.912     32.27104  18.1127        126
 3.50   0.0018    582.2111    319.2451     19327.01      43.5463   2.55     1.852     1.810      2.792     32.29663  17.3346        127
 6.15   0.0304    576.3021   1001.8055      1152.14      43.5463  28.92     1.220     1.022      3.748     32.28201  20.3962        128
 4.56   0.0267    584.5316     76.0103     1315.062      43.5463  -8.04     1.204     1.139      2.581     32.31124  20.2526        129
 4.04   0.0157   1001.5208   1555.4537     2238.073      43.5463  52.13     1.345     1.320      2.654      32.2747  19.6753        130
 4.65   0.0165   1597.6199    654.7779      1831.64      43.5463   2.77     1.652     1.432      3.980     27.75371  19.8929        131
 5.04   0.0291   1594.7402    374.1065     1164.599      43.5463  43.35     1.308     1.019      3.372     31.21159  20.3846        132
 3.98   0.0129   1584.9110   1108.9387     2722.563      43.5463 -13.63     1.428     1.352      2.769     32.27835  19.4626        133
 6.67   0.0540   1585.9336   1069.5111     649.2068      43.5463 -89.02     0.781     0.500      2.527     32.27835  21.0190        134
 3.53   0.0051   1541.8699    135.1601     6909.936      43.5463  70.30     1.663     1.606      2.666     32.29297  18.4513        135
 4.63   0.0411   1514.6406    483.6134     852.6341      43.5463 -43.54     1.049     0.948      2.460     32.29663  20.7231        136
 4.31   0.0402    912.4411   1001.0433     873.0629      43.5463   2.65     1.099     0.958      2.328     32.30393  20.6974        137
 3.50   0.0027    900.4877    302.8330     12818.97      43.5463  49.85     1.765     1.762      2.757     32.28932  17.7804        138
 4.77   0.0120    896.2084    538.5322     2926.773      43.5463   2.64     1.932     1.586      4.651     32.31124  19.3840        139
 5.28   0.0470    893.7969   1426.2902     746.3586      43.5463 -18.67     0.977     0.852      2.814     32.27835  20.8676        140
 3.50   0.0002    880.2279   1592.5995     225046.6      43.5463 -74.88     2.295     2.153      2.951     32.28566  14.6693        141
 5.85   0.0204    888.8192    325.9107      1718.49      43.5463  14.33     1.795     1.118      4.442     32.28932  19.9621        142
 4.32   0.0207    885.7714   1500.3190      1698.29      43.5463 -47.18     1.288     1.236      2.524     32.29297  19.9750        143
 6.69   0.0331    884.9854    339.2439     1059.682      43.5463   1.88     1.115     0.976      4.567     32.29663  20.4871        144
 4.41   0.0374    877.7620    961.1234     936.9141      43.5463  48.84     1.163     1.036      2.498     32.28566  20.6208        145
 7.36   0.0620    876.2601    541.5875     566.1099      43.5463 -71.99     0.730     0.460      2.568     32.29663  21.1677        146
 4.01   0.0066    869.4244   1103.6707     5308.809      43.5463 -53.80     1.974     1.805      3.830     32.29663  18.7375        147
 4.73   0.0172    867.9416    939.8662     2032.432      43.5463  40.92     1.861     1.340      4.112     32.27835  19.7800        148
 6.00   0.0639    869.3427    643.8574     548.4999      43.5463  68.51     0.903     0.685      2.377     32.27835  21.2021        149
 8.08   0.0972    860.4965   1554.4667     360.5764      43.5463  47.96     0.505     0.494      2.559     32.28201  21.6575        150
 4.48   0.0259    858.4943   1339.6819     1354.809      43.5463 -89.81     1.307     1.111      3.058     32.27104  20.2203        151
 9.04   0.0522    855.5130    545.4774     671.3303      43.5463 -47.85     0.501     0.498      3.008     32.26373  20.9827        152
 4.00   0.0364    844.9637   1063.9869     964.4634      43.5463   0.91     1.166     1.132      2.453     32.30028  20.5893        153
 4.48   0.0154    843.4077   1106.2847     2273.684      43.5463  32.29     1.633     1.312      3.530     32.28932  19.6582        154
 4.42   0.0119    836.6409    298.8359     2942.567      43.5463  13.40     1.461     1.389      2.795     32.30393  19.3782        155
 6.70   0.0888    836.6004   1520.7461     395.3482      43.5463  18.12     0.737     0.455      2.072     32.31489  21.5576        156
 5.61   0.0520    835.6668    819.2198     674.8044      43.5463 -71.79     0.963     0.856      2.447     32.30028  20.9771        157
 3.50   0.0027    823.0052    654.4105     13116.56      43.5463 -83.81     1.792     1.755      2.797      32.2747  17.7554        158
 7.85   0.1349    819.4944   1398.4906     259.6478      43.5463  46.57     0.500     0.499      2.248     32.26007  22.0140        159
 3.50   0.0029    803.0336   1378.7603     11917.16      43.5463 -69.40     1.795     1.721      2.793     32.30028  17.8596        160
 3.50   0.0010    798.4865    695.7316      34682.3      43.5463 -86.83     2.615     1.932      3.810     32.26738  16.6997        161
 4.07   0.0062    800.7063     41.1536     5660.109      43.5463 -21.76     1.693     1.566      2.899     32.26738  18.6679        162
 4.14   0.0070    774.2417   1427.3613     5011.426      43.5463  87.89     2.916     1.917      6.150     32.30028  18.8001        163
 7.08   0.0432    768.0103    140.0022     811.3735      43.5463  29.11     0.803     0.799      3.444     32.28201  20.7769        164
 4.13   0.0116    742.8445    556.3011     3019.835      43.5463 -34.92     1.481     1.410      2.870     32.26007  19.3500        165
 4.18   0.0326    738.1149   1158.1183     1074.311      43.5463  46.52     1.220     1.125      2.449     32.27104  20.4722        166
 5.08   0.0282    736.0377    649.8889     1242.646      43.5463 -14.78     1.149     1.126      2.593     32.28201  20.3141        167
 3.50   0.0003    726.6054    848.5026     134135.5      43.5463 -59.30     2.218     2.156      2.894     32.28566  15.2311        168
 3.76   0.0166    727.4673   1178.3390     2111.426      43.5463 -11.27     1.391     1.325      2.641     32.28201  19.7386        169
 4.97   0.0452    721.4175   1395.0933     776.7276      43.5463  16.86     1.087     0.945      2.903     32.29297  20.8243        170
 3.86   0.0130    715.8361    808.3896     2705.651      43.5463  44.55     1.417     1.392      2.689     32.29663  19.4693        171
 3.89   0.0130    708.9615   1163.8932     2685.436      43.5463  24.41     1.453     1.390      2.634     32.26739  19.4775        172
 4.36   0.0108    704.3986   1339.0472     3246.407      43.5463 -19.01     1.731     1.435      4.082     32.31489  19.2715        173
 3.58   0.0071    702.8040    952.5435     4961.332      43.5463   0.10     1.619     1.588      2.819     32.31854  18.8110        174
 6.22   0.0269    699.0404    582.8082     1305.714      43.5463   2.98     1.801     0.780      4.330     32.30028  20.2604        175
 5.68   0.0241    691.6804   1213.7858     1453.578      43.5463  77.71     1.495     1.232      4.092     32.30028  20.1439        176
 5.63   0.0338    686.6819   1213.8464      1037.66      43.5463 -21.78     1.110     0.991      3.063     32.27835  20.5099        177
 4.13   0.0084    685.6551    644.3333     4149.971      43.5463 -63.50     1.583     1.570      2.952     32.28201  19.0049        178
 5.64   0.0538    687.6524    130.9210     651.6273      43.5463  76.07     0.992     0.751      2.388      32.2747  21.0150        179
 7.15   0.0412    668.9968   1221.9562     852.4601      43.5463 -24.53     0.799     0.795      3.591     32.31124  20.7233        180
 3.50   0.0003    648.2855   1464.4170       132019      43.5463 -69.67     2.216     2.119      2.908     32.29297  15.2484        181
 4.97   0.0285    654.7122    870.9673     1232.197      43.5463   2.52     1.152     1.052      2.621     32.28932  20.3233        182
 6.73   0.0485    645.7885    653.0032     722.3524      43.5463 -88.03     0.910     0.757      2.977     32.27835  20.9031        183
 7.14   0.0622    641.2024    276.8073     563.9676      43.5463 -45.81     0.756     0.567      2.812     32.27835  21.1719        184
 4.00   0.0278    630.8334    806.1291     1263.682      43.5463 -32.81     1.204     1.121      2.487     32.29297  20.2959        185
 4.18   0.0163    623.4021   1581.5424     2147.957      43.5463 -70.30     1.343     1.334      2.781     32.31489  19.7199        186
 7.17   0.0352    618.3039   1151.0571     995.1584      43.5463 -56.98     1.011     0.847      4.484     32.26373  20.5553        187
 8.01   0.0878    609.5258    945.4915     399.1327      43.5463  43.32     0.505     0.495      2.332      32.2747  21.5472        188
 4.05   0.0082   1566.7317     22.0384     4287.624      43.5463 -82.69     1.558     1.536      2.786     32.29297  18.9695        189
 3.90   0.0070   1542.6284    654.7056     5012.615      43.5463 -20.66     1.560     1.526      2.804     32.27835  18.7998        190
 3.50   0.0003   1563.6940    304.2377       116942      43.5463 -66.29     2.153     2.092      2.826     32.26739  15.3801        191
 3.50   0.0003   1558.0250    487.6977     115988.9      43.5463 -66.03     2.143     2.087      2.824     32.27835  15.3890        192
 4.07   0.0106   1570.5496     92.7681     3315.659      43.5463   5.62     1.449     1.365      2.729     32.30393  19.2486        193
 4.35   0.0169   1546.1001    863.5326     2078.679      43.5463  60.65     1.555     1.323      3.700      32.2747  19.7555        194
 4.36   0.0166   1561.2551    861.5045     2109.132      43.5463  24.14     1.333     1.259      2.705     32.27104  19.7397        195
 4.29   0.0119   1565.7307    784.6671     2941.139      43.5463 -79.71     1.779     1.443      4.002     32.26738  19.3787        196
 4.98   0.0370   1550.8820   1221.9401     948.5667      43.5463  62.30     1.036     0.926      2.758      32.2747  20.6073        197
 3.52   0.0010   1552.6270    682.2676     35296.89      43.5463 -26.28     4.564     3.920      8.662     32.29663  16.6807        198
 7.78   0.0536   1535.9836   1429.0035     654.4493      43.5463 -45.74     0.928     0.527      3.676     32.28201  21.0103        199
 7.02   0.0338   1532.6090    415.6633     1039.092      43.5463  48.72     1.033     0.896      3.994     32.31489  20.5084        200
 7.52   0.0434   1519.9846   1100.6998     807.1548      43.5463  86.06     0.750     0.674      3.506     32.28566  20.7826        201
 3.93   0.0163    928.3964   1322.5002     2152.536      43.5463 -31.62     1.356     1.325      2.812     32.28566  19.7176        202
 3.50   0.0023   1514.9313    392.7249     15565.94      43.5463 -23.87     1.775     1.769      2.732     32.26739  17.5696        203
 5.93   0.0391   1515.3757   1547.3199     897.8804      43.5463  51.18     1.032     0.871      3.348     32.29297  20.6670        204
 3.50   0.0006   1507.2021    269.3686     63359.82      43.5463 -48.81     2.044     2.007      2.814     32.28932  16.0455        205
 5.06   0.0632   1498.3208    844.3195     554.2062      43.5463 -45.02     0.932     0.754      2.431      32.2747  21.1908        206
 4.39   0.0218   1504.1243    723.3888     1606.155      43.5463  12.61     1.292     1.159      2.656     32.31124  20.0355        207
 3.91   0.0094    939.1819   1067.1804     3717.017      43.5463 -23.57     1.513     1.435      2.659     32.29297  19.1245        208
 6.65   0.0514   1488.1456     78.1188     682.0981      43.5463 -45.13     0.829     0.671      2.713     32.26739  20.9654        209
 3.90   0.0225    912.9329    838.5873     1561.884      43.5463   2.45     1.314     1.169      2.518     32.31124  20.0659        210
 5.59   0.0214    950.8376    654.3040     1637.042      43.5463  78.79     1.551     1.317      4.375     32.26738  20.0149        211
 5.55   0.0435    947.8024    445.2863     806.2697      43.5463 -18.52     0.958     0.857      2.765     32.28932  20.7838        212
 5.14   0.0392    965.2233    416.4817     894.0284      43.5463   5.83     0.989     0.953      2.571     32.29297  20.6716        213
 7.34   0.0240    938.4374    516.3667     1463.877      43.5463  63.09     1.194     0.958      5.228     32.30393  20.1362        214
 7.70   0.0306   1474.8301    998.5100     1145.606      43.5463  -0.48     0.997     0.737      4.751     32.28201  20.4024        215
 6.32   0.0321   1482.4355    575.2174     1091.366      43.5463 -30.72     1.216     0.964      4.135     32.30393  20.4551        216
 5.63   0.0397   1438.6631   1271.3156     882.6426      43.5463 -44.30     0.991     0.877      2.858      32.2747  20.6855        217
 4.96   0.0090   1072.1385   1219.1556     3893.465      43.5463 -73.38     2.045     1.693      5.271     32.29663  19.0742        218
 5.54   0.0521   1066.6794    569.0623     672.0327      43.5463 -72.69     1.026     0.751      3.071     32.27104  20.9815        219
 3.80   0.0106   1415.3887   1386.6190     3313.486      43.5463  66.37     1.447     1.403      2.666     32.28566  19.2493        220
 6.18   0.0218   1090.9879    468.1757     1605.866      43.5463 -62.80     1.759     1.038      5.268     32.28932  20.0357        221
 5.13   0.0334   1079.4308    330.0719     1051.388      43.5463   1.88     1.105     0.946      2.628     32.29297  20.4956        222
 4.95   0.0435   1065.6902   1597.3223     702.8154      43.5463 -41.45     0.991     0.875      2.293     28.14632  20.9329        223
 7.25   0.0038   1441.0599   1082.6106     9293.265      43.5463  43.18     3.004     0.678      5.935     32.31124  18.1296        224
 3.50   0.0051   1435.3345    224.8122     6934.487      43.5463   8.56     1.647     1.603      2.651     32.30759  18.4475        225
 3.50   0.0018   1081.8091   1148.2362     19032.09      43.5463 -80.95     1.837     1.797      2.800     32.30028  17.3513        226
 3.50   0.0026   1107.4955    428.0776     13655.74      43.5463  43.66     1.787     1.762      2.788     32.26373  17.7117        227
 4.56   0.0248   1411.0604    350.0138     1411.982      43.5463  44.64     1.362     1.124      3.514     32.29297  20.1754        228
 8.25   0.1649   1453.4999    391.5077     212.3832      43.5463  45.62     0.501     0.499      2.023     32.25275  22.2322        229
 3.53   0.0069   1439.8121    619.2056     5110.592      43.5463 -60.99     1.553     1.539      2.562     32.27104  18.7788        230
 3.50   0.0002   1393.4231    114.5192     158459.9      43.5463 -67.20     2.208     2.138      2.849     32.29297  15.0502        231
 4.54   0.0080   1120.3519    329.9191     4397.135      43.5463  56.42     2.461     1.649      5.280     32.28201  18.9421        232
 6.48   0.0128   1110.6660    479.0210     2731.939      43.5463   1.27     1.761     1.526      7.339     32.30028  19.4588        233
 4.68   0.0261   1129.2065    547.2877     1346.052      43.5463  71.54     1.175     1.119      2.816     32.28932  20.2273        234
 6.13   0.0404   1432.1282    340.5711     868.8472      43.5463  14.13     1.053     0.904      3.485     32.29297  20.7026        235
 6.31   0.0830   1436.1823   1347.1876     422.4547      43.5463  46.94     0.750     0.568      2.307     32.28566  21.4855        236
 3.50   0.0070   1408.2489    308.3757     4984.998      43.5463 -14.66     1.549     1.501      2.581     32.30759  18.8058        237
 5.08   0.0190   1400.5464   1031.5115     1842.031      43.5463  39.22     1.427     1.369      3.610      32.2747  19.8868        238
 3.50   0.0024   1388.7075   1428.5374     14823.19      43.5463  70.62     1.772     1.749      2.815     32.27835  17.6226        239
 6.64   0.1868   1412.1656      1.3077     141.5473      43.5463 -77.75     1.080     0.410      3.681     24.34274  22.6727        240
 4.84   0.0337   1406.4120    329.8513     1041.231      43.5463  15.98     1.142     0.958      2.384     32.30759  20.5061        241
 4.30   0.0382   1330.4430    386.8843     918.7631      43.5463  16.06     1.156     0.951      2.563     32.28566  20.6420        242
 4.52   0.0131   1259.4530    432.5583     2680.759      43.5463 -48.56     1.842     1.798      4.807     32.28932  19.4794        243
 3.59   0.0042   1278.0834   1331.4264     8441.729      43.5463 -36.64     1.689     1.649      2.816     32.28932  18.2339        244
 3.73   0.0068   1390.4573    713.3554     5119.463      43.5463  38.34     1.571     1.545      2.777     32.28932  18.7769        245
 5.82   0.0441   1388.9025    806.6617     794.5894      43.5463  12.93     0.989     0.752      2.553     32.27104  20.7996        246
 4.22   0.0100   1392.2563   1038.8906     3515.245      43.5463  16.23     1.460     1.440      2.850      32.2747  19.1851        247
 3.50   0.0019   1218.8794   1194.9824     18954.15      43.5463  53.40     1.952     1.914      2.938     32.30393  17.3557        248
 3.50   0.0020   1372.5548   1019.0366     17457.34      43.5463 -48.58     1.920     1.818      2.861     32.30393  17.4451        249
 3.50   0.0018   1210.6853   1279.0161     19282.77      43.5463  83.11     5.652     3.435      9.655     32.29297  17.3371        250
 3.50   0.0006   1320.0603    660.0400     59897.82      43.5463 -67.20     2.078     2.029      2.860     32.29663  16.1065        251
 8.46   0.1092   1262.3207    216.3079      321.091      43.5463 -45.69     0.561     0.342      2.185      32.2747  21.7834        252
 7.40   0.0772   1379.2585    319.0047     454.2809      43.5463  -0.27     0.675     0.438      2.503     32.31124  21.4067        253
 6.95   0.0665   1291.8110    546.1641     527.5668      43.5463 -45.23     0.757     0.568      2.644     32.30028  21.2443        254
 8.13   0.0275   1352.4635    152.3469     1272.745      43.5463 -72.28     0.978     0.845      5.211     32.27835  20.2881        255
 3.63   0.0198   1292.8221    412.6759     1773.195      43.5463 -24.73     1.324     1.261      2.560     32.29663  19.9281        256
 6.90   0.0616   1346.3254    605.1124       569.24      43.5463 -69.53     0.937     0.687      2.856     32.26738  21.1618        257
 3.95   0.0050   1329.8258    655.8967     7011.838      43.5463  -2.69     1.799     1.727      3.092     32.28201  18.4354        258
 3.94   0.0204   1332.9427    107.4934     1720.887      43.5463  -1.49     1.316     1.165      2.559     32.27104  19.9606        259
 3.50   0.0001   1298.3925    724.9255     373026.9      43.5463 -52.23     2.372     2.270      2.897     32.30759  14.1206        260
 4.02   0.0222   1304.6865    892.9958     1579.025      43.5463 -76.52     1.296     1.169      2.547     32.28932  20.0540        261
 3.89   0.0289   1319.2695    264.1481     1213.168      43.5463   7.88     1.176     1.120      2.457     32.27835  20.3402        262
 4.19   0.0060   1307.5225    669.7191      5835.48      43.5463 -50.89     1.592     1.575      2.946     32.28201  18.6348        263
 3.59   0.0016   1272.7434    610.0253     22200.77      43.5463 -57.80     4.137     2.553      6.797     32.30028  17.1841        264
 5.97   0.0541   1299.1758     54.0958     648.4686      43.5463 -43.69     0.828     0.676      2.443     32.28566  21.0203        265
 3.50   0.0025   1291.3833    762.2225     13873.75      43.5463 -25.39     2.258     1.792      3.166     32.28566  17.6945        266
 3.50   0.0053   1265.4619    807.9507     6569.422      43.5463 -30.51     1.645     1.596      2.682     32.28566  18.5062        267
 5.79   0.0113   1293.5248    742.2045     3109.579      43.5463  -4.43     1.542     1.369      5.347     32.31124  19.3182        268
 6.79   0.0520   1273.5171    697.9951     674.9936      43.5463  89.49     0.823     0.701      3.338     32.28932  20.9767        269
 4.93   0.0425   1228.6475   1153.6614     824.2668      43.5463  44.30     0.997     0.870      2.568     32.28201  20.7598        270
 5.25   0.0445   1262.1740    855.1698      788.594      43.5463 -45.68     0.891     0.860      2.635     32.29297  20.8079        271
 3.50   0.0012   1214.6323    513.0753      29239.4      43.5463 -14.07     1.919     1.891      2.788     32.28566  16.8851        272
 3.96   0.0105   1237.0515   1553.6429     3328.618      43.5463 -66.85     1.468     1.444      2.826     32.29663  19.2443        273
 6.19   0.0186   1229.7683    599.1210     1888.458      43.5463 -25.30     1.417     1.266      5.426     32.28566  19.8597        274
 3.50   0.0065   1234.4177    304.8783     5406.618      43.5463  -6.79     1.613     1.551      2.623     32.30393  18.7177        275
 5.08   0.0415   1237.6338     48.3471     846.3267      43.5463  43.28     1.036     0.959      2.533     32.30393  20.7312        276
 6.91   0.0749   1204.2040   1217.4023     468.0659      43.5463  71.26     0.742     0.453      2.483     32.28566  21.3742        277
 5.67   0.0118   1212.7019   1429.5331     2966.014      43.5463  69.15     2.054     1.789      6.549     32.28566  19.3696        278
 4.02   0.0162   1200.8488   1442.2327      2159.23      43.5463 -76.12     1.572     1.483      3.588     32.30393  19.7143        279
 4.18   0.0103   1207.6141    838.9321     3393.953      43.5463 -17.13     1.467     1.426      2.747     32.30759  19.2232        280
 5.00   0.0097   1194.9594    124.1157     3602.835      43.5463 -81.32     1.958     1.640      5.173     32.28932  19.1584        281
 3.80   0.0109   1201.9172    339.1206     3203.923      43.5463  43.10     1.498     1.455      2.682      32.2747  19.2858        282
 4.92   0.0276   1130.2356    219.7730     1269.613      43.5463 -10.18     1.218     1.127      3.076     32.30028  20.2908        283
 3.50   0.0006   1138.5403    148.1239     61882.17      43.5463 -74.17     2.078     2.043      2.833     32.28201  16.0711        284
 5.84   0.0603   1181.8572    176.1720     581.9797      43.5463  42.81     0.901     0.856      2.392     32.30393  21.1377        285
 5.01   0.0303   1180.9396    549.3316     1155.859      43.5463  63.60     1.141     1.029      2.846     32.27835  20.3927        286
 4.39   0.0188   1153.5300   1353.1674     1868.068      43.5463  13.79     1.506     1.347      3.504     32.29297  19.8715        287
 3.50   0.0004   1165.1499   1299.8224     99269.41      43.5463 -75.74     2.142     2.082      2.872     32.30393  15.5580        288
 3.50   0.0011   1130.0022    183.5886     32252.72      43.5463 -33.06     1.954     1.929      2.800     32.28201  16.7786        289
 3.50   0.0030   1157.8748    236.4912     11496.08      43.5463 -42.72     1.764     1.750      2.756     32.27104  17.8986        290
 5.10   0.0272   1161.8063    887.7887     1290.022      43.5463  84.17     1.165     1.128      2.731      32.2747  20.2735        291
 3.94   0.0124   1151.2523     99.4780     2815.642      43.5463   0.03     1.470     1.407      2.707      32.2747  19.4261        292
 6.52   0.0628   1131.0277    359.2787      558.467      43.5463  81.37     0.729     0.679      2.709     32.28566  21.1825        293
 7.49   0.0541   1086.2960   1452.9686     647.7592      43.5463  -2.22     0.739     0.684      3.229     32.27104  21.0215        294
 3.90   0.0204   1095.4277   1526.6780     1719.656      43.5463  63.44     1.318     1.254      2.533     32.28932  19.9614        295
 7.28   0.0008   1090.2825    783.0780      44695.2      43.5463  44.32     1.415     0.516      3.954      32.2747  16.4243        296
 3.50   0.0005   1079.9761    512.1813     65629.75      43.5463 -43.96     2.092     2.065      2.855     32.29297  16.0072        297
 5.73   0.0641   1094.6826   1136.2802     546.5829      43.5463  44.82     0.932     0.755      2.527      32.2747  21.2059        298
 7.58   0.0822    982.2479   1486.9852     426.7755      43.5463   0.75     0.683     0.432      2.468     32.30028  21.4745        299
 8.90   0.0612   1088.4893    397.4680     572.2553      43.5463  50.26     0.502     0.497      2.929      32.2747  21.1560        300
 5.96   0.0165   1065.3254   1563.1619     2121.335      43.5463 -58.63     1.805     1.363      5.754     32.28932  19.7335        301
 3.50   0.0006    984.9092    558.5052      58551.5      43.5463 -62.58     2.059     2.017      2.871     32.26007  16.1312        302
 3.50   0.0011   1009.8051    813.7728     32931.28      43.5463 -49.24     1.950     1.934      2.806     32.29297  16.7560        303
 7.09   0.0311    978.4369    452.7353     1126.115      43.5463 -88.40     0.993     0.959      4.277     32.29663  20.4210        304
 5.38   0.0170    980.8336    797.9319      2058.72      43.5463 -89.10     1.448     1.289      4.260     32.29663  19.7660        305
 3.50   0.0004   1040.2742    633.1237     84306.02      43.5463 -73.45     2.131     2.083      2.839      32.2747  15.7354        306
 3.50   0.0020   1038.7018    525.4651     17194.28      43.5463 -66.52     1.860     1.813      2.802     32.28566  17.4615        307
 4.55   0.0098   1030.4423    302.6757     3592.389      43.5463  64.08     2.394     1.661      5.089     32.28566  19.1615        308
 5.70   0.0129    986.7168    454.0870     2720.122      43.5463  64.37     1.736     1.543      5.529     32.27104  19.4635        309
 8.63   0.0718   1014.5037    453.4631      488.031      43.5463 -59.83     0.501     0.498      2.674      32.2747  21.3289        310
 6.24   0.0728    998.0503    233.3297     481.6009      43.5463  84.06     0.736     0.665      2.566      32.2747  21.3433        311
 3.50   0.0009   1025.7133   1380.0258     38363.29      43.5463 -81.64     2.027     1.933      2.848     32.29297  16.5902        312
 3.71   0.0069   1011.3628    344.7765     5077.965      43.5463 -46.20     1.590     1.544      2.726     32.29663  18.7858        313
 8.15   0.0503   1011.2456    267.9750     697.3649      43.5463   1.18     0.695     0.430      3.016     32.30759  20.9413        314
 4.10   0.0213    999.9547   1273.7301      1646.66      43.5463 -24.21     1.320     1.164      2.610     32.28201  20.0085        315
 4.00   0.0063   1001.6890    542.7207     5538.571      43.5463  11.48     1.644     1.579      2.864     32.27104  18.6915        316
