#   1 KRON_RADIUS            Kron apertures in units of A or B                         
#   2 MAGERR_APER            RMS error vector for fixed aperture mag.                   [mag]
#   3 Y_IMAGE                Object position along y                                    [pixel]
#   4 X_IMAGE                Object position along x                                    [pixel]
#   5 FLUX_APER              Flux vector within fixed circular aperture(s)              [count]
#   6 THRESHOLD              Detection threshold above background                       [count]
#   7 THETA_IMAGE            Position angle (CCW/x)                                     [deg]
#   8 A_IMAGE                Profile RMS along major axis                               [pixel]
#   9 B_IMAGE                Profile RMS along minor axis                               [pixel]
#  10 FLUX_RADIUS            Fraction-of-light radii                                    [pixel]
#  11 FLUXERR_APER           RMS error vector for aperture flux(es)                     [count]
#  12 MAG_APER               Fixed aperture magnitude vector                            [mag]
#  13 NUMBER                 Running object number                                     
 4.23   0.0000     53.2652     63.6543     89543.39      43.5214   3.17     5.181     4.630      3.423   0.01037208  15.6699          1
 3.95   0.0000     16.5149    985.0804     14196.14      43.5214 -88.61     4.203     1.941      2.970   0.01036856  17.6696          2
 4.06   0.0000     18.0504     91.3141     11843.46      43.5214   0.42     1.768     1.716      1.996   0.01037091  17.8663          3
 3.50   0.0000     14.6167   1445.7477     27464.24      43.5214 -47.82     1.890     1.819      2.065   0.01037913  16.9531          4
 8.12   0.0000     10.2946   1183.6542     519.1435      43.5214  42.42     0.565     0.339      2.145   0.01036856  21.2618          5
 7.36   0.0000      4.2259    145.0241     659.7732      43.5214  89.83     0.957     0.768      2.620    0.0092957  21.0015          6
 6.64   0.0000     17.2495    384.5071     1187.095      43.5214  19.99     0.993     0.952      2.005   0.01036739  20.3638          7
 5.14   0.0000     24.7971    367.2085     2484.707      43.5214  13.81     1.305     1.234      2.015   0.01037208  19.5618          8
 3.50   0.0000     59.7850   1078.4766     107538.8      43.5214  77.02     2.287     2.159      2.124   0.01038265  15.4711          9
 8.57   0.0000     23.7800    383.3999     1316.383      43.5214 -71.85     0.755     0.452      2.147   0.01037561  20.2515         10
 6.41   0.0000     33.9023   1110.1802      1264.22      43.5214  68.24     1.657     0.778      2.264   0.01037091  20.2954         11
 7.88   0.0000     33.3076    326.9492      908.333      43.5214  -6.92     0.747     0.677      2.265   0.01036974  20.6544         12
 5.98   0.0000     37.8655   1521.1591     808.1179      43.5214  46.72     0.834     0.669      2.155   0.01037561  20.7813         13
 7.05   0.0000     38.8750   1170.6508     807.3093      43.5214 -19.52     0.923     0.691      2.114   0.01036856  20.7824         14
 5.87   0.0000     42.4605    915.4996     1067.039      43.5214 -77.10     0.913     0.907      1.981   0.01036739  20.4795         15
 3.50   0.0000     80.1536    537.6561     101328.9      43.5214 -59.56     2.145     2.122      2.023   0.01037443  15.5357         16
 9.02   0.0000     44.6655    440.6699     990.7776      43.5214 -45.19     0.576     0.334      1.877   0.01036974  20.5601         17
 4.26   0.0000     75.2162    128.0142     4938.773      43.5214  -5.75     1.516     1.469      2.139   0.01037561  18.8160         18
 6.64   0.0000     82.2787    421.5101     1091.858      43.5214 -15.66     0.994     0.986      2.218   0.01036739  20.4546         19
 3.50   0.0000    121.8120    789.2006     154986.9      43.5214 -62.81     2.230     2.179      2.066   0.01037561  15.0743         20
 6.02   0.0000     90.7295    376.9918      2746.18      43.5214   4.47     1.628     1.442      2.623    0.0103803  19.4532         21
 4.42   0.0000     96.6151     56.2576     7306.207      43.5214 -38.95     1.639     1.566      1.992   0.01037678  18.3908         22
 6.10   0.0000     98.0585    452.9797     1744.955      43.5214 -14.82     1.454     1.005      2.168   0.01037913  19.9455         23
 7.39   0.0000     91.4945    495.9650     872.5958      43.5214  -1.40     0.788     0.500      2.121   0.01036856  20.6980         24
 3.50   0.0000    162.2989   1468.3301     84327.59      43.5214 -48.48     2.111     2.074      2.069   0.01036974  15.7351         25
 6.85   0.0000    131.2865    418.0175      759.657      43.5214   5.64     0.729     0.681      2.207   0.01037443  20.8485         26
 3.55   0.0000    170.2996    877.3505     22377.36      43.5214  -8.96     1.882     1.865      2.029   0.01036151  17.1755         27
 8.52   0.0000    151.4999   1280.4825     570.2915      43.5214 -47.88     0.501     0.498      1.893   0.01036268  21.1598         28
 5.51   0.0000    164.9741   1445.6677     2092.489      43.5214  17.35     1.303     1.186      2.097   0.01037678  19.7483         29
 4.82   0.0000    166.8505    104.4303     1597.116      43.5214 -46.35     1.196     1.124      1.958   0.01037913  20.0417         30
 6.42   0.0000    169.3397   1368.8977     815.5159      43.5214  68.06     0.910     0.689      2.120   0.01036739  20.7714         31
 7.68   0.0000    180.3316    574.9897     1059.208      43.5214  53.18     1.039     0.643      2.142   0.01038148  20.4875         32
 7.49   0.0000    186.6387   1354.8976     1155.859      43.5214  75.59     1.045     0.753      2.387   0.01036621  20.3927         33
 5.30   0.0000    192.6023   1350.5554     2678.846      43.5214 -19.15     1.368     1.305      2.030   0.01038148  19.4801         34
 4.77   0.0000    210.7202    827.6749     10592.12      43.5214  -5.78     3.810     2.091      2.941   0.01037091  17.9875         35
 4.14   0.0000    206.7225    549.0807     5087.264      43.5214   3.37     1.545     1.484      2.063   0.01037208  18.7838         36
 4.19   0.0000    212.1664   1306.1005     5133.475      43.5214 -64.54     1.516     1.487      2.103   0.01036386  18.7740         37
 5.52   0.0000    230.1494    562.2775     9718.549      43.5214 -37.31     3.231     3.004      4.244   0.01036856  18.0810         38
 5.76   0.0000    210.8939    684.8484     1568.255      43.5214 -66.39     1.218     1.115      2.183   0.01036739  20.0615         39
 3.50   0.0000    259.7588    997.4791     283701.4      43.5214 -48.81     2.331     2.263      2.072   0.01037326  14.4178         40
 3.92   0.0000    223.9121   1226.0618     5992.518      43.5214  25.89     1.523     1.479      2.080   0.01036974  18.6060         41
 4.86   0.0000    222.6267    774.9695     2139.714      43.5214  81.57     1.224     1.191      2.021   0.01037678  19.7241         42
 3.50   0.0000    265.9002     67.6173     195744.4      43.5214 -49.31     2.268     2.237      2.046   0.01037091  14.8208         43
 5.52   0.0000    243.9732    112.8913     3688.372      43.5214 -88.19     1.951     1.539      2.642   0.01037208  19.1329         44
 4.81   0.0000    255.4885    613.0098      9851.53      43.5214 -41.01     2.436     2.028      2.419   0.01037561  18.0662         45
 6.52   0.0000    239.3535    838.8231     1648.985      43.5214  -5.84     1.203     1.102      2.221   0.01037795  20.0070         46
 7.18   0.0000    250.5180    107.4840     1304.645      43.5214 -42.78     1.108     0.852      2.143   0.01036856  20.2613         47
 3.50   0.0000    287.5196   1486.4733     48244.08      43.5214 -43.97     2.033     1.992      2.084   0.01036974  16.3414         48
 3.66   0.0000    281.9236   1522.4003     13085.32      43.5214   3.77     1.701     1.668      1.997   0.01037678  17.7580         49
 6.46   0.0000    270.7727   1273.6278     1092.251      43.5214  16.49     1.000     0.849      1.950   0.01037795  20.4542         50
 3.50   0.0000    303.1506    201.7659      36842.7      43.5214 -78.11     1.968     1.942      2.061   0.01037678  16.6341         51
 6.27   0.0000    293.2967   1475.8354     1397.934      43.5214 -33.66     1.250     1.086      1.989   0.01036504  20.1863         52
 4.64   0.0000    302.2875    563.6751     2122.501      43.5214  31.81     1.325     1.283      2.080   0.01036739  19.7329         53
 3.50   0.0000    322.0853    697.3419     26296.72      43.5214   1.78     1.882     1.848      1.974   0.01037091  17.0002         54
 7.64   0.0000    308.7069     85.2985     1056.588      43.5214  45.78     0.969     0.767      2.259   0.01036621  20.4902         55
 6.05   0.0000    321.9905    641.4783     2614.568      43.5214 -64.00     1.799     1.232      2.791   0.01037795  19.5065         56
 5.16   0.0000    327.5369    595.4523       5162.8      43.5214 -52.10     1.728     1.694      2.210   0.01037208  18.7678         57
 6.07   0.0000    329.2517   1546.0168     986.8035      43.5214 -87.78     0.913     0.756      2.192   0.01037913  20.5644         58
 5.83   0.0000    332.2679     93.4347     1415.195      43.5214  20.40     0.992     0.948      1.967   0.01037678  20.1730         59
 4.78   0.0000    350.1319     54.7084     2768.125      43.5214  -8.51     1.366     1.298      1.973   0.01036856  19.4445         60
 3.50   0.0000    368.1670    761.1217     25335.25      43.5214 -26.12     1.940     1.871      2.039   0.01037443  17.0407         61
 4.02   0.0000    361.1491   1500.4037     5245.533      43.5214 -15.08     1.586     1.464      2.116   0.01038265  18.7505         62
 3.50   0.0000    395.2009    231.4691     109734.9      43.5214 -63.05     2.184     2.143      2.025    0.0103803  15.4491         63
 5.78   0.0000    360.5269   1034.0070     1558.816      43.5214  -1.40     1.111     0.957      2.107    0.0103803  20.0680         64
 6.91   0.0000    375.4792    754.0627     1507.985      43.5214  56.22     1.715     0.961      2.005   0.01036856  20.1040         65
 7.68   0.0000    370.3091     71.9499      1048.39      43.5214 -10.89     0.743     0.672      2.119   0.01037208  20.4987         66
 6.47   0.0000    373.4826   1083.8826     1235.155      43.5214 -17.84     1.100     0.990      2.292   0.01036856  20.3207         67
 6.41   0.0001    380.6161      1.4882     71.13622      43.5214 -89.79     1.601     0.500      3.001  0.007927959  23.4198         68
 3.50   0.0000    397.0519   1461.2017     19125.86      43.5214 -44.85     1.804     1.797      2.079   0.01038265  17.3459         69
 3.50   0.0000    398.1799    354.6261     20959.33      43.5214 -13.53     1.890     1.844      1.999   0.01037561  17.2466         70
 8.09   0.0000    375.6552     87.2937     783.1566      43.5214  47.61     0.564     0.339      1.946   0.01036974  20.8154         71
 6.71   0.0000    380.1594    125.8447     922.1699      43.5214  44.65     0.818     0.680      1.923   0.01037795  20.6380         72
 4.22   0.0000    393.8183   1088.7736      4679.43      43.5214 -35.06     1.516     1.449      1.919   0.01037678  18.8745         73
 8.89   0.0000    382.4900     67.5055     685.5757      43.5214 -44.69     0.503     0.497      1.853   0.01036504  20.9599         74
 8.07   0.0000    388.6902   1195.3347     464.8064      43.5214  43.77     0.567     0.338      2.272   0.01037208  21.3818         75
 6.14   0.0001    412.0432      1.7727     168.5835      43.5214  90.00     2.505     0.701      4.387  0.008093696  22.4830         76
 7.90   0.0000    396.8768    626.5975     1900.428      43.5214 -73.71     1.239     0.985      2.778   0.01037678  19.8529         77
 8.16   0.0000    403.6928    526.4366     1039.515      43.5214  81.17     1.023     0.476      2.273   0.01036974  20.5079         78
 7.54   0.0000    407.0518    282.4902      659.101      43.5214 -88.59     0.787     0.500      2.006   0.01037208  21.0026         79
 3.50   0.0000    437.9478    252.1072      39985.1      43.5214 -87.21     2.006     1.974      2.096   0.01036974  16.5453         80
 3.50   0.0000    461.0704    807.6703       273873      43.5214 -68.51     2.341     2.304      2.039   0.01036386  14.4561         81
 5.83   0.0000    420.9021    159.0900     2536.677      43.5214  37.62     1.694     1.421      2.136   0.01036504  19.5393         82
 7.67   0.0000    419.5386   1580.4929     688.7272      43.5214  40.47     0.504     0.495      2.102   0.01036974  20.9549         83
 4.17   0.0000    432.9492   1422.0629     3660.396      43.5214   6.85     1.427     1.396      2.031   0.01037208  19.1412         84
 6.72   0.0000    426.5748   1179.2787     1288.038      43.5214  26.35     1.188     0.957      2.065   0.01037561  20.2752         85
 6.42   0.0000    426.8329    433.0970     101646.2      43.5214  -3.27     2.183     0.735      4.269   0.01036739  15.5323         86
 5.15   0.0000    434.2586    151.1154     1344.079      43.5214 -20.05     1.138     1.034      1.979   0.01037091  20.2289         87
 3.88   0.0000    450.3392     21.3603     14698.33      43.5214 -27.47     1.777     1.769      2.013   0.01037678  17.6318         88
 5.07   0.0000    467.7993    850.4810     12490.53      43.5214  22.59     7.403     2.054      4.782   0.01037678  17.8085         89
 9.05   0.0000    430.6650    719.3185     1491.718      43.5214  45.76     0.572     0.336      1.827   0.01036739  20.1158         90
 4.48   0.0000    440.0043    305.8401     1673.364      43.5214  22.45     1.160     1.136      1.914   0.01037678  19.9910         91
 5.42   0.0000    445.2589    122.3780     2502.262      43.5214 -23.52     1.401     1.309      2.159   0.01037913  19.5542         92
 3.80   0.0000    457.8408     34.5939     16899.68      43.5214 -30.83     1.779     1.767      1.962   0.01037795  17.4803         93
 8.05   0.0000    443.6886    655.3237     993.5115      43.5214  44.36     0.563     0.340      2.051   0.01036621  20.5571         94
 4.32   0.0000    463.6414    468.6490     5277.074      43.5214  70.99     1.619     1.558      2.082   0.01037913  18.7440         95
 6.24   0.0000    452.9206   1533.0249     866.5275      43.5214 -31.03     0.792     0.774      2.163   0.01037561  20.7055         96
 5.22   0.0000    460.9918   1096.1410     1864.179      43.5214  47.71     1.191     1.080      2.143   0.01038265  19.8738         97
 4.60   0.0000    471.3581    254.2742     4439.738      43.5214 -79.51     1.510     1.439      2.033   0.01037326  18.9316         98
 4.03   0.0000    472.1380    734.9207     6606.673      43.5214  75.27     1.566     1.511      2.069   0.01036856  18.5000         99
 7.71   0.0000    461.8358    724.7247     981.6458      43.5214 -20.12     0.949     0.683      2.247   0.01037326  20.5701        100
 3.70   0.0000    477.9271    923.0840       8746.3      43.5214 -28.67     1.679     1.612      2.017   0.01036856  18.1954        101
 4.34   0.0000    477.2791   1276.4363     3193.704      43.5214 -44.53     1.334     0.920      2.969   0.01037326  19.2893        102
 5.84   0.0000    488.9431    839.6031      1715.79      43.5214  87.10     2.059     0.959      2.664   0.01038265  19.9638        103
 4.14   0.0000    484.0388   1070.6680     4043.158      43.5214 -80.82     1.429     1.400      2.019   0.01037561  19.0332        104
 7.10   0.0000    475.9789   1168.4807     663.6155      43.5214  89.68     0.781     0.500      1.959   0.01037678  20.9952        105
 5.40   0.0000    496.2654     82.9187      6260.75      43.5214  66.13     2.311     2.046      3.008   0.01036739  18.5584        106
 6.87   0.0000    478.8629    682.8434     1090.738      43.5214 -46.10     0.819     0.679      1.954   0.01037326  20.4557        107
 5.12   0.0000    495.7248   1186.8407     6130.614      43.5214 -15.71     2.996     1.931      3.276   0.01037326  18.5812        108
 5.26   0.0000    504.0796    762.8668     2981.175      43.5214 -10.71     1.688     1.646      2.454   0.01036739  19.3640        109
 4.77   0.0000    502.0138    863.8067     2258.225      43.5214  64.62     1.201     1.192      2.119   0.01036974  19.6656        110
 4.57   0.0000    515.3623   1461.0657      7377.52      43.5214  23.93     4.115     1.649      3.048   0.01037678  18.3802        111
 6.08   0.0000    498.0054    366.2516     919.0137      43.5214   0.37     0.926     0.749      2.173   0.01038265  20.6417        112
 6.08   0.0000    509.9191    164.8152      2090.17      43.5214  -5.95     1.820     1.073      2.739   0.01037795  19.7495        113
 4.83   0.0000    513.8598   1179.1876     2177.042      43.5214  24.06     1.285     1.178      2.061   0.01037795  19.7053        114
 5.52   0.0000    519.1540    641.9484     1511.078      43.5214  22.36     1.200     1.120      2.126    0.0103803  20.1018        115
 6.45   0.0000    518.1915   1519.1722     810.0962      43.5214  45.74     0.761     0.567      2.198   0.01037678  20.7787        116
 4.09   0.0000    540.2067    999.9378     5146.805      43.5214  61.15     1.534     1.490      2.092   0.01038148  18.7712        117
 6.53   0.0000    536.3547    404.5305     1164.899      43.5214  38.93     1.195     0.786      1.937   0.01037208  20.3843        118
 3.90   0.0000    558.9035   1041.7982     6793.162      43.5214   6.20     1.633     1.563      1.999   0.01037443  18.4698        119
 4.74   0.0000    571.3472     45.9143     4988.441      43.5214  46.17     2.084     1.522      2.183   0.01036974  18.8051        120
 5.98   0.0000    555.8228    778.8107     655.3699      43.5214  44.57     0.756     0.567      2.069   0.01037443  21.0088        121
 3.50   0.0000    580.7163    144.9663     26398.78      43.5214  83.47     1.885     1.868      2.051   0.01037561  16.9960        122
 4.85   0.0000    571.3085   1447.7944     4306.636      43.5214  19.43     2.258     1.637      2.726   0.01037091  18.9647        123
 5.88   0.0000    565.0881    139.5546     1219.337      43.5214 -69.74     1.052     0.977      1.892   0.01037091  20.3347        124
 3.50   0.0000    582.1971    319.2584     24158.05      43.5214   7.31     1.887     1.830      1.996   0.01038265  17.0923        125
 4.29   0.0000    596.7602    782.6867     14453.95      43.5214 -62.08     3.302     3.182      3.564   0.01037443  17.6500        126
 5.97   0.0000    576.2225   1001.8235     1481.728      43.5214  40.80     1.216     1.076      2.218   0.01037678  20.1231        127
 4.64   0.0000    584.5398     76.0209     1851.228      43.5214  -0.84     1.205     1.138      2.059   0.01037913  19.8813        128
 4.19   0.0000   1001.5298   1555.4829     3540.358      43.5214  54.97     1.346     1.330      2.053   0.01036739  19.1774        129
 4.71   0.0000   1597.6036    654.7847     631.7258      43.5214   1.75     1.659     1.434      2.336  0.008921257  21.0487        130
 5.16   0.0000   1594.7568    374.1190     875.3675      43.5214  42.74     1.307     1.027      1.585   0.01002452  20.6945        131
 4.05   0.0000   1584.9181   1108.9316     3872.374      43.5214 -15.59     1.433     1.357      1.991   0.01036974  19.0801        132
 6.78   0.0000   1585.9497   1069.5099     929.5029      43.5214 -88.96     0.783     0.500      2.048   0.01037091  20.6294        133
 3.60   0.0000   1541.8564    135.1745     10437.04      43.5214  54.68     1.663     1.623      1.993   0.01037795  18.0036        134
 8.74   0.0000   1519.3268     85.3294     761.4639      43.5214 -44.88     0.573     0.336      1.731   0.01036621  20.8459        135
 4.79   0.0000   1514.6519    483.6263      1235.98      43.5214 -43.74     1.049     0.951      2.108   0.01037913  20.3200        136
 4.90   0.0000    912.4185   1001.2366     1303.395      43.5214  73.44     0.989     0.957      1.994   0.01037795  20.2623        137
 3.50   0.0000    900.4997    302.8331     17899.81      43.5214 -64.19     1.794     1.787      2.043   0.01036504  17.4179        138
 4.92   0.0000    896.1861    538.5018     3873.735      43.5214   6.05     1.942     1.608      2.106   0.01037208  19.0797        139
 5.31   0.0000    893.7880   1426.2821     1010.089      43.5214 -16.60     0.974     0.854      1.910   0.01037795  20.5391        140
 3.50   0.0000    880.2065   1592.6320     191108.8      43.5214 -83.52     2.300     2.188      2.017   0.01037913  14.8468        141
 6.04   0.0000    888.8303    325.8213     2278.486      43.5214  17.19     1.767     1.100      2.284   0.01037561  19.6559        142
 8.02   0.0000    888.6788    681.3232     802.0071      43.5214  44.90     0.568     0.338      1.940   0.01037208  20.7896        143
 4.51   0.0000    885.7850   1500.2664     2474.565      43.5214  10.00     1.303     1.227      2.079    0.0103803  19.5663        144
 7.04   0.0000    885.0953    339.2578      1279.87      43.5214  -2.69     1.149     0.882      2.081   0.01036739  20.2821        145
 4.70   0.0000    877.6797    961.0908     1617.265      43.5214  27.86     1.126     1.034      2.083   0.01036974  20.0280        146
 6.46   0.0000    876.3213    541.9203     707.2061      43.5214  -7.28     0.737     0.667      1.983   0.01036974  20.9261        147
 4.13   0.0000    869.4717   1103.7170     7485.197      43.5214 -55.22     1.983     1.793      2.150   0.01036739  18.3645        148
 4.96   0.0000    867.9886    939.9118     3044.345      43.5214  41.19     1.806     1.355      2.126   0.01037561  19.3413        149
 6.15   0.0000    869.3575    643.8528     926.6281      43.5214  68.50     0.904     0.687      2.125   0.01037678  20.6327        150
 8.15   0.0000    860.4996   1554.4683     531.0027      43.5214  48.21     0.504     0.495      2.011   0.01037091  21.2373        151
 4.53   0.0000    858.5098   1339.6924     1930.204      43.5214 -89.55     1.308     1.113      2.152   0.01036621  19.8360        152
 9.07   0.0000    855.5103    545.4817     931.8416      43.5214 -46.32     0.502     0.497      2.206   0.01036856  20.6266        153
 4.16   0.0000    844.9837   1063.9657     1604.673      43.5214   1.03     1.169     1.133      1.991   0.01037678  20.0365        154
 4.40   0.0000    843.3248   1106.2646     3159.917      43.5214  40.34     1.667     1.341      2.015   0.01036739  19.3008        155
 4.56   0.0000    836.6466    298.8450     4180.204      43.5214  11.92     1.467     1.396      2.009   0.01037913  18.9970        156
 6.83   0.0000    836.6003   1520.7371     671.1455      43.5214  18.11     0.733     0.456      2.024   0.01038265  20.9830        157
 5.73   0.0000    835.6805    819.1954     1139.804      43.5214 -72.93     0.960     0.861      2.030   0.01037678  20.4079        158
 3.50   0.0000    822.9877    654.4249     18470.03      43.5214  74.96     1.838     1.773      1.955   0.01037443  17.3838        159
 7.91   0.0000    819.4906   1398.4888     534.0029      43.5214  46.70     0.500     0.500      2.129   0.01036621  21.2311        160
 3.50   0.0000    803.0379   1378.7590     17406.19      43.5214 -72.46     1.796     1.752      1.980   0.01037913  17.4482        161
 3.50   0.0000    798.4418    695.7374     43027.16      43.5214 -88.12     2.639     1.966      2.657   0.01037443  16.4656        162
 4.17   0.0000    800.7010     41.1932     8523.745      43.5214 -23.53     1.671     1.577      2.094   0.01037208  18.2234        163
 4.28   0.0000    774.2634   1427.3890      7516.65      43.5214  89.63     2.902     1.909      3.002   0.01038265  18.3599        164
 7.20   0.0000    768.0129    140.0102     980.7729      43.5214  44.98     0.806     0.795      2.083   0.01037208  20.5711        165
 4.24   0.0000    742.8162    556.3451     4437.614      43.5214 -57.68     1.449     1.420      2.006   0.01037913  18.9321        166
 4.32   0.0000    738.1102   1158.1116     1782.457      43.5214  47.36     1.221     1.121      2.127   0.01036504  19.9225        167
 5.08   0.0000    736.0913    649.8519     1889.384      43.5214 -38.54     1.206     1.123      1.962   0.01037091  19.8592        168
 3.50   0.0000    726.6004    848.5243     159648.2      43.5214 -72.04     2.212     2.178      2.020   0.01037795  15.0421        169
 3.87   0.0000    727.4650   1178.3309     3175.845      43.5214 -10.14     1.394     1.328      2.025   0.01036974  19.2954        170
 5.23   0.0000    721.4345   1395.1035     1259.406      43.5214  16.01     1.086     0.953      2.027   0.01036739  20.2996        171
 3.96   0.0000    715.8315    808.4100     3872.397      43.5214  51.69     1.425     1.393      2.001   0.01037678  19.0800        172
 3.99   0.0000    708.9626   1163.8940     4138.562      43.5214  20.90     1.464     1.393      2.034   0.01036739  19.0079        173
 4.42   0.0000    704.4229   1339.0634     4695.024      43.5214 -25.11     1.700     1.462      2.216   0.01037913  18.8709        174
 3.68   0.0000    702.8209    952.5522     7200.423      43.5214  -9.41     1.630     1.577      2.008   0.01037795  18.4066        175
 6.02   0.0000    699.1675    582.7174     1724.979      43.5214   5.06     1.844     0.873      2.225   0.01037443  19.9580        176
 5.87   0.0000    691.6353   1213.6743     2602.098      43.5214  87.83     1.432     1.241      2.686   0.01037326  19.5117        177
 6.00   0.0000    686.6937   1213.8435     1596.874      43.5214 -47.21     1.217     0.958      1.871   0.01036621  20.0418        178
 4.18   0.0000    685.6500    644.3535     6148.981      43.5214 -73.12     1.594     1.581      2.017   0.01037913  18.5780        179
 5.68   0.0000    687.6556    130.9231     965.8624      43.5214  76.35     0.983     0.752      2.097   0.01037208  20.5877        180
 7.44   0.0000    668.9944   1221.5293     1089.295      43.5214  -0.05     0.827     0.706      2.318   0.01037913  20.4571        181
 3.50   0.0000    648.2678   1464.4448     155705.3      43.5214 -76.52     2.214     2.143      2.057   0.01037326  15.0692        182
 5.07   0.0000    654.6734    870.9016     2013.401      43.5214  21.01     1.193     1.057      2.050   0.01036739  19.7902        183
 6.84   0.0000    645.7944    653.0030     1066.728      43.5214 -88.71     0.912     0.756      2.069   0.01037208  20.4799        184
 7.26   0.0000    641.1874    276.8223     775.1429      43.5214 -45.77     0.755     0.569      2.122   0.01037326  20.8265        185
 4.14   0.0000    630.8300    806.1274     1964.431      43.5214 -34.12     1.204     1.125      2.130   0.01037561  19.8169        186
 4.30   0.0000    623.4095   1581.5348     3070.579      43.5214  49.39     1.346     1.338      2.076   0.01038265  19.3319        187
 7.18   0.0000    618.1836   1151.1306      1234.11      43.5214 -37.45     0.897     0.874      2.187   0.01038148  20.3216        188
 8.09   0.0000    609.5256    945.4929     724.0458      43.5214  42.34     0.503     0.496      2.125   0.01036974  20.9006        189
 3.50   0.0000   1563.6936    304.2686     138169.7      43.5214 -77.52     2.157     2.117      2.038   0.01036974  15.1990        190
 4.14   0.0000   1566.7208     22.0779     6010.238      43.5214  75.11     1.574     1.553      1.964   0.01037091  18.6028        191
 3.94   0.0000   1542.6152    654.7387     7321.679      43.5214  29.79     1.579     1.560      1.990   0.01037561  18.3885        192
 3.50   0.0000   1558.0082    487.7251     125042.5      43.5214 -78.65     2.166     2.125      2.062    0.0103803  15.3074        193
 4.16   0.0000   1570.5596     92.7663     4898.901      43.5214  -2.72     1.453     1.398      1.956    0.0103803  18.8248        194
 4.48   0.0000   1546.1006    863.5362     2703.028      43.5214  60.15     1.564     1.328      2.125   0.01037091  19.4704        195
 4.36   0.0000   1561.3612    861.4875     3123.114      43.5214  19.18     1.352     1.338      1.943   0.01037326  19.3135        196
 4.38   0.0000   1565.7378    784.6730     4045.395      43.5214 -79.11     1.769     1.443      2.208   0.01037091  19.0326        197
 5.18   0.0000   1550.8444   1221.8484      1247.24      43.5214  42.51     1.082     0.925      2.174   0.01037795  20.3101        198
 3.57   0.0000   1552.6281    682.2971     53788.38      43.5214 -26.44     4.582     3.959      3.313   0.01036856  16.2233        199
 7.80   0.0000   1535.9841   1428.9976     1053.318      43.5214 -45.55     0.927     0.527      2.680   0.01037326  20.4936        200
 7.00   0.0000   1532.4937    415.7445     1298.062      43.5214 -84.33     1.017     0.979      2.180   0.01036974  20.2668        201
 7.59   0.0000   1519.9943   1100.7047     879.9221      43.5214  89.07     0.749     0.679      2.511   0.01037326  20.6889        202
 4.09   0.0000    928.4031   1322.5200     3046.824      43.5214 -44.27     1.357     1.342      2.002   0.01037795  19.3404        203
 3.50   0.0000   1514.9222    392.7349      21806.9      43.5214  66.54     1.807     1.797      1.969   0.01036856  17.2035        204
 6.00   0.0000   1515.4878   1547.1486     1426.882      43.5214  74.03     1.048     0.871      2.133   0.01036974  20.1640        205
 3.50   0.0000   1507.1836    269.3994     72116.68      43.5214 -82.06     2.049     2.030      2.001   0.01037326  15.9049        206
 5.55   0.0000   1498.4597    844.2532     1020.167      43.5214 -25.00     0.883     0.757      2.199   0.01037208  20.5283        207
 4.56   0.0000   1504.1298    723.3583     2460.488      43.5214  14.84     1.297     1.162      2.095   0.01037561  19.5724        208
 3.97   0.0000    939.1798   1067.2053     5690.458      43.5214 -23.40     1.522     1.452      2.066   0.01037443  18.6621        209
 6.96   0.0000   1488.2819     78.0035     937.7927      43.5214  -1.74     0.735     0.681      2.217   0.01037561  20.6197        210
 3.92   0.0000    912.8765    838.6033     2471.108      43.5214  -0.15     1.305     1.218      1.918   0.01037678  19.5678        211
 5.67   0.0000    950.7991    654.3572     2305.532      43.5214  65.98     1.507     1.354      2.259    0.0103803  19.6431        212
 5.84   0.0000    947.8477    445.1833     1196.773      43.5214  47.70     0.889     0.856      2.108   0.01037795  20.3550        213
 5.26   0.0000   1065.7639   1597.2657     304.4487      43.5214 -14.20     0.952     0.861      1.064  0.009080941  21.8412        214
 7.26   0.0000    938.5413    516.3163     1898.239      43.5214  57.72     1.300     0.997      2.416   0.01036974  19.8541        215
 7.66   0.0000   1474.9158    998.3757     1634.122      43.5214 -14.25     1.054     0.754      3.097   0.01037561  20.0168        216
 6.42   0.0000   1482.4310    575.2145     1642.204      43.5214 -30.81     1.204     0.969      2.788   0.01037913  20.0114        217
 5.80   0.0000   1438.6464   1271.3108         1347      43.5214 -45.87     0.991     0.878      2.017   0.01036974  20.2266        218
 5.08   0.0000   1072.1349   1219.1719     5503.607      43.5214 -73.97     2.049     1.696      2.345   0.01037561  18.6984        219
 4.97   0.0000   1079.4351    330.1989     1553.512      43.5214   1.47     1.167     0.990      1.946   0.01037326  20.0717        220
 3.95   0.0000   1415.4110   1386.6447     4900.935      43.5214  75.55     1.498     1.406      2.006   0.01037678  18.8243        221
 3.55   0.0000   1107.4796    428.0644     19767.08      43.5214  29.41     1.816     1.783      2.015   0.01036739  17.3101        222
 3.50   0.0000   1081.7991   1148.2404      25718.6      43.5214  77.56     1.859     1.838      2.062   0.01037795  17.0244        223
 5.70   0.0000   1066.6768    569.0727     954.7352      43.5214 -72.74     1.032     0.751      2.276   0.01036974  20.6003        224
 6.53   0.0000   1110.7510    479.0507     3417.766      43.5214  19.20     1.749     1.562      2.911    0.0103803  19.2156        225
 3.54   0.0000   1435.3314    224.8159     10454.45      43.5214  21.04     1.687     1.611      2.004    0.0103803  18.0017        226
 6.26   0.0000   1090.9882    468.1736     2236.932      43.5214 -62.75     1.759     1.048      2.872   0.01037561  19.6759        227
 7.39   0.0000   1441.0785   1082.6284      319.967      43.5214  43.16     2.974     0.680      5.863   0.01037326  21.7872        228
 4.76   0.0000   1411.0619    350.0085     1911.524      43.5214  44.81     1.366     1.125      2.083   0.01038265  19.8465        229
 8.08   0.0000   1453.3318    391.6697     565.4848      43.5214  45.06     0.575     0.334      2.193   0.01036739  21.1689        230
 3.54   0.0000   1439.7888    619.2131     7905.159      43.5214 -62.85     1.575     1.554      2.020   0.01037326  18.3052        231
 3.50   0.0000   1393.4050    114.5455     182819.8      43.5214 -80.89     2.215     2.169      2.070   0.01038382  14.8949        232
 6.42   0.0000   1436.1945   1347.1851     873.6391      43.5214  46.04     0.748     0.567      2.270   0.01037208  20.6967        233
 4.63   0.0000   1120.3417    329.8551     6533.396      43.5214  55.81     2.503     1.644      2.367   0.01037091  18.5122        234
 6.70   0.0000   1431.9259    340.6477     1495.887      43.5214  15.34     1.044     0.753      2.130   0.01037091  20.1128        235
 4.82   0.0000   1129.1801    547.4301     1836.196      43.5214  54.92     1.192     1.121      1.940   0.01037678  19.8902        236
 3.50   0.0000   1408.2377    308.3844     7414.145      43.5214  -7.03     1.547     1.510      1.967   0.01037913  18.3748        237
 5.35   0.0000   1400.5464   1031.5027     2364.249      43.5214  31.11     1.429     1.368      2.002   0.01036621  19.6158        238
 3.50   0.0000   1388.6937   1428.5571     20979.76      43.5214  55.76     1.789     1.763      2.001   0.01036621  17.2455        239
 6.79   0.0031   1412.1804      1.3059     2.727453      43.5214 -77.74     1.083     0.409      2.541  0.007822784  26.9606        240
 4.72   0.0000   1406.3345    329.8578     1451.772      43.5214  26.69     1.130     1.025      2.120   0.01037091  20.1453        241
 4.65   0.0000   1330.5002    386.9715     1606.401      43.5214   3.29     1.098     0.952      2.011   0.01036856  20.0354        242
 4.79   0.0000   1259.4657    432.5281     3995.354      43.5214  25.38     1.823     1.760      2.487   0.01036856  19.0461        243
 3.68   0.0000   1278.0730   1331.4478     12539.45      43.5214  82.55     1.714     1.699      1.933   0.01037091  17.8043        244
 3.79   0.0000   1390.4578    713.3802     7561.701      43.5214  43.10     1.588     1.550      2.027   0.01037913  18.3535        245
 5.96   0.0000   1388.9021    806.6555     1236.631      43.5214  13.85     0.984     0.753      1.971   0.01036621  20.3194        246
 4.34   0.0000   1392.2596   1038.8943     5180.733      43.5214   8.71     1.474     1.451      2.060   0.01037091  18.7640        247
 3.53   0.0000   1218.8743   1195.0033     25342.05      43.5214  54.82     1.997     1.952      1.895   0.01038148  17.0404        248
 6.99   0.0000   1291.8092    546.1708     690.7272      43.5214 -44.88     0.757     0.568      1.815   0.01037678  20.9517        249
 3.56   0.0000   1210.6931   1279.0286     29492.84      43.5214  82.87     5.696     3.445      4.468   0.01037208  16.8757        250
 3.82   0.0000   1292.8365    412.6910     2795.293      43.5214 -22.03     1.326     1.267      2.156   0.01037091  19.4339        251
 8.47   0.0000   1262.3208    216.3072     686.8704      43.5214 -45.74     0.560     0.342      2.010   0.01036974  20.9578        252
 8.25   0.0000   1379.3267    319.3086     853.1139      43.5214 -45.93     0.563     0.340      1.838   0.01036974  20.7225        253
 8.27   0.0000   1352.4868    152.2023     1377.057      43.5214 -89.11     1.011     0.738      2.558   0.01037326  20.2026        254
 3.50   0.0000   1372.5312   1019.0457     23502.35      43.5214 -41.64     1.951     1.869      2.015   0.01037443  17.1222        255
 3.50   0.0000   1320.0488    660.0613     70569.01      43.5214  75.91     2.093     2.039      2.048   0.01037208  15.9285        256
 5.87   0.0000   1293.5828    742.1906     3596.731      43.5214 -15.99     1.535     1.440      2.169   0.01037208  19.1602        257
 7.00   0.0000   1346.3284    605.1111     904.5356      43.5214 -68.97     0.936     0.689      2.206   0.01036974  20.6589        258
 3.97   0.0000   1329.8187    655.9049     9920.097      43.5214  67.51     1.921     1.813      2.059   0.01037326  18.0587        259
 4.12   0.0000   1332.9294    107.4837     2551.075      43.5214  -2.81     1.329     1.158      1.866   0.01036739  19.5332        260
 3.50   0.0000   1298.3828    724.9477     424637.4      43.5214 -51.40     2.371     2.297      2.113   0.01037913  13.9800        261
 4.19   0.0000   1304.7047    892.9962     2199.856      43.5214 -75.91     1.297     1.172      2.004   0.01037208  19.6940        262
 4.08   0.0000   1319.2585    264.1429     1847.022      43.5214   6.39     1.181     1.123      2.045   0.01037091  19.8838        263
 4.31   0.0000   1307.5262    669.7034     8107.783      43.5214 -32.49     1.629     1.592      1.983   0.01036856  18.2777        264
 3.65   0.0000   1272.7618    610.0184     34148.81      43.5214 -58.16     4.190     2.580      2.927   0.01037913  16.7166        265
 5.69   0.0000   1299.3568     54.0625     865.2848      43.5214 -68.39     0.901     0.697      2.030   0.01037443  20.7071        266
 3.52   0.0000   1291.4148    762.2641     18348.63      43.5214 -23.95     2.297     1.839      1.898   0.01037561  17.3910        267
 3.56   0.0000   1265.4564    807.9594      10150.8      43.5214  -7.96     1.661     1.612      2.019   0.01037326  18.0337        268
 6.36   0.0000   1273.6595    698.0986     769.7427      43.5214  68.67     0.919     0.693      2.345   0.01036739  20.8341        269
 4.97   0.0000   1228.6499   1153.6350      1134.93      43.5214  43.00     0.997     0.872      2.058   0.01037795  20.4126        270
 5.85   0.0000   1262.1962    855.0399     1060.973      43.5214 -88.04     0.907     0.755      2.203   0.01037561  20.4857        271
 5.76   0.0000   1212.7454   1429.5703     4359.545      43.5214  66.31     2.076     1.803      3.038   0.01037913  18.9514        272
 4.06   0.0000   1237.0374   1553.6448     4813.765      43.5214 -72.17     1.471     1.442      1.955   0.01037913  18.8438        273
 6.33   0.0000   1229.7732    599.1249     2617.721      43.5214 -25.96     1.422     1.267      2.338   0.01037443  19.5052        274
 3.50   0.0000   1234.4055    304.8864     8367.438      43.5214   0.76     1.619     1.566      2.003   0.01037443  18.2435        275
 5.14   0.0000   1237.6368     48.3455     1282.267      43.5214  42.97     1.043     0.951      1.995   0.01037678  20.2801        276
 4.28   0.0000   1207.6377    838.9413      4944.65      43.5214  35.87     1.470     1.451      2.024   0.01037678  18.8147        277
 3.50   0.0000   1214.6141    513.0945     37620.21      43.5214  -0.90     1.943     1.918      2.024   0.01037326  16.6114        278
 4.24   0.0000   1200.8662   1442.2368     2823.395      43.5214 -76.41     1.564     1.485      2.251   0.01037561  19.4231        279
 7.93   0.0000   1204.4742   1217.4802     626.4658      43.5214  43.31     0.502     0.497      1.826   0.01036974  21.0578        280
 5.08   0.0000   1194.9722    124.1294     5211.569      43.5214 -83.39     1.957     1.669      2.530   0.01037678  18.7576        281
 3.91   0.0000   1201.8915    339.0921     4552.753      43.5214  41.67     1.528     1.455      2.051   0.01036504  18.9043        282
 5.34   0.0000   1130.2582    219.7123     1759.347      43.5214  22.28     1.184     1.117      2.011   0.01037091  19.9366        283
 3.50   0.0000   1138.5420    148.1507     73870.99      43.5214  77.75     2.097     2.062      2.014   0.01037443  15.8788        284
 5.95   0.0000   1181.9745    176.1647     946.9562      43.5214   3.89     0.910     0.759      2.055   0.01037795  20.6092        285
 4.90   0.0000   1180.9506    549.4130     1604.123      43.5214  37.05     1.159     1.067      2.032    0.0103803  20.0369        286
 4.68   0.0000   1153.5942   1353.1537     2448.455      43.5214  23.71     1.498     1.327      2.068    0.0103803  19.5778        287
 3.50   0.0000   1165.1395   1299.8351       112572      43.5214 -78.19     2.141     2.108      2.088   0.01037678  15.4214        288
 3.50   0.0000   1129.9851    183.6115     39628.36      43.5214  -6.31     1.968     1.954      1.947   0.01037443  16.5550        289
 3.53   0.0000   1157.8691    236.5205     17109.94      43.5214 -59.07     1.775     1.768      1.960   0.01036856  17.4669        290
 5.31   0.0000   1161.7438    887.7606     2199.271      43.5214 -40.77     1.157     1.096      2.018   0.01037678  19.6943        291
 4.11   0.0000   1151.2296     99.5155     4072.715      43.5214   1.70     1.475     1.409      1.944   0.01037561  19.0253        292
 6.72   0.0000   1131.0312    359.2770      789.537      43.5214  79.06     0.733     0.682      1.922   0.01037443  20.8066        293
 3.50   0.0000   1079.9672    512.2063     80275.38      43.5214  74.02     2.099     2.081      2.038   0.01037678  15.7885        294
 4.04   0.0000   1095.4258   1526.6967     2911.315      43.5214  64.24     1.332     1.261      2.058   0.01037208  19.3898        295
 7.24   0.0000   1086.1484   1452.8627     908.9146      43.5214  46.36     0.838     0.678      2.217   0.01037208  20.6537        296
 7.41   0.0000   1090.0991    782.8873     64077.32      43.5214  45.01     1.234     0.538      3.721   0.01036504  16.0332        297
 5.92   0.0000   1094.6758   1136.2837     873.2635      43.5214  42.84     0.939     0.754      1.994   0.01036856  20.6971        298
 7.13   0.0000    978.4573    452.7135     1190.358      43.5214 -88.97     0.999     0.961      2.113   0.01037091  20.3608        299
 7.77   0.0000   1088.0132    397.0000     928.8505      43.5214  90.00     0.850     0.289      2.000   0.01037561  20.6301        300
 5.99   0.0000   1065.1993   1563.2179     3160.525      43.5214 -50.91     1.822     1.345      3.003   0.01037443  19.3006        301
 3.50   0.0000    984.8825    558.5286     70495.66      43.5214  86.99     2.062     2.035      1.990   0.01036739  15.9296        302
 3.50   0.0000   1009.8115    813.7941     41228.89      43.5214 -23.06     1.976     1.963      1.945   0.01036856  16.5120        303
 5.37   0.0000    965.2351    416.4796     1329.255      43.5214   9.67     0.991     0.951      1.948   0.01037326  20.2410        304
 5.22   0.0000    980.8171    797.9382     2821.914      43.5214 -22.95     1.473     1.417      2.308   0.01037443  19.4236        305
 3.50   0.0000   1040.2435    633.1321     98571.85      43.5214 -86.88     2.148     2.116      2.069   0.01037443  15.5656        306
 3.50   0.0000   1038.7074    525.4634     23763.03      43.5214 -89.92     1.895     1.851      1.968   0.01037091  17.1102        307
 4.72   0.0000   1030.4277    302.7162     5052.088      43.5214  61.98     2.411     1.679      2.653   0.01037443  18.7913        308
 5.83   0.0000    986.6929    454.0457     4024.193      43.5214  71.21     1.721     1.537      2.576   0.01036621  19.0383        309
 8.75   0.0000   1014.5078    453.4610     740.2641      43.5214 -62.89     0.500     0.498      1.843   0.01037091  20.8765        310
 6.43   0.0000    998.0614    233.3179     673.4536      43.5214  83.83     0.736     0.671      2.307   0.01036856  20.9792        311
 3.50   0.0000   1025.7098   1380.0499     49903.23      43.5214  87.42     2.054     1.952      2.101   0.01037091  16.3047        312
 3.80   0.0000   1011.3396    344.7471     7580.151      43.5214 -55.24     1.591     1.561      2.018   0.01037208  18.3508        313
 8.38   0.0000   1011.2415    267.9928     973.9611      43.5214   0.33     0.699     0.428      1.902   0.01037795  20.5786        314
 4.30   0.0000    999.9335   1273.7820     2427.051      43.5214 -27.04     1.275     1.172      1.996   0.01037678  19.5873        315
 4.10   0.0000   1001.6805    542.7173     7924.288      43.5214  12.75     1.658     1.575      1.956   0.01036856  18.3026        316
