#   1 KRON_RADIUS            Kron apertures in units of A or B                         
#   2 MAGERR_APER            RMS error vector for fixed aperture mag.                   [mag]
#   3 Y_IMAGE                Object position along y                                    [pixel]
#   4 X_IMAGE                Object position along x                                    [pixel]
#   5 FLUX_APER              Flux vector within fixed circular aperture(s)              [count]
#   6 THRESHOLD              Detection threshold above background                       [count]
#   7 THETA_IMAGE            Position angle (CCW/x)                                     [deg]
#   8 A_IMAGE                Profile RMS along major axis                               [pixel]
#   9 B_IMAGE                Profile RMS along minor axis                               [pixel]
#  10 FLUX_RADIUS            Fraction-of-light radii                                    [pixel]
#  11 FLUXERR_APER           RMS error vector for aperture flux(es)                     [count]
#  12 MAG_APER               Fixed aperture magnitude vector                            [mag]
#  13 NUMBER                 Running object number                                     
 4.23   0.0000     53.2652     63.6543     86354.02      43.5214   3.17     5.181     4.630      3.528   0.01608622  15.7093          1
 3.95   0.0000     16.5149    985.0804     13731.01      43.5214 -88.61     4.203     1.941      3.102   0.01608075  17.7057          2
 4.06   0.0000     18.0504     91.3141     11432.37      43.5214   0.42     1.768     1.716      2.122   0.01608439  17.9047          3
 3.50   0.0000     14.6167   1445.7477     26810.44      43.5214 -47.82     1.890     1.819      2.241   0.01609714  16.9792          4
 8.12   0.0000     10.2946   1183.6542     496.8318      43.5214  42.42     0.565     0.339      2.259   0.01608075  21.3095          5
 7.36   0.0000      4.2259    145.0241     628.5793      43.5214  89.83     0.957     0.768      2.674   0.01441684  21.0541          6
 6.64   0.0000     17.2495    384.5071     1176.359      43.5214  19.99     0.993     0.952      2.201   0.01607893  20.3736          7
 5.14   0.0000     24.7971    367.2085     2405.266      43.5214  13.81     1.305     1.234      2.101   0.01608622  19.5971          8
 3.50   0.0000     59.7850   1078.4766     103435.6      43.5214  77.02     2.287     2.159      2.298    0.0161026  15.5133          9
 8.57   0.0000     23.7800    383.3999     1335.976      43.5214 -71.85     0.755     0.452      2.175   0.01609168  20.2355         10
 6.41   0.0000     33.9023   1110.1802     1229.145      43.5214  68.24     1.657     0.778      2.404   0.01608439  20.3260         11
 7.88   0.0000     33.3076    326.9492      881.921      43.5214  -6.92     0.747     0.677      2.362   0.01608257  20.6864         12
 5.98   0.0000     37.8655   1521.1591     803.4134      43.5214  46.72     0.834     0.669      2.259   0.01609168  20.7877         13
 7.05   0.0000     38.8750   1170.6508     784.4885      43.5214 -19.52     0.923     0.691      2.265   0.01608075  20.8135         14
 5.87   0.0000     42.4605    915.4996     1034.276      43.5214 -77.10     0.913     0.907      2.128   0.01607893  20.5134         15
 3.50   0.0000     80.1536    537.6561     98844.89      43.5214 -59.56     2.145     2.122      2.180   0.01608986  15.5626         16
 9.02   0.0000     44.6655    440.6699     957.7237      43.5214 -45.19     0.576     0.334      1.969   0.01608257  20.5969         17
 4.26   0.0000     75.2162    128.0142     4772.177      43.5214  -5.75     1.516     1.469      2.218   0.01609168  18.8532         18
 6.64   0.0000     82.2787    421.5101     1066.731      43.5214 -15.66     0.994     0.986      2.361   0.01607893  20.4799         19
 3.50   0.0000    121.8120    789.2006     151146.4      43.5214 -62.81     2.230     2.179      2.185   0.01609168  15.1015         20
 6.02   0.0000     90.7295    376.9918     2619.896      43.5214   4.47     1.628     1.442      2.687   0.01609896  19.5043         21
 4.42   0.0000     96.6151     56.2576     7068.799      43.5214 -38.95     1.639     1.566      2.090    0.0160935  18.4266         22
 6.10   0.0000     98.0585    452.9797     1689.168      43.5214 -14.82     1.454     1.005      2.264   0.01609714  19.9808         23
 7.39   0.0000     91.4945    495.9650     839.8611      43.5214  -1.40     0.788     0.500      2.230   0.01608075  20.7395         24
 3.50   0.0000    162.2989   1468.3301     83607.51      43.5214 -48.48     2.111     2.074      2.213   0.01608257  15.7444         25
 6.85   0.0000    131.2865    418.0175     724.3626      43.5214   5.64     0.729     0.681      2.249   0.01608986  20.9001         26
 3.55   0.0000    170.2996    877.3505     21996.43      43.5214  -8.96     1.882     1.865      2.126   0.01606981  17.1941         27
 8.52   0.0000    151.4999   1280.4825     546.7391      43.5214 -47.88     0.501     0.498      2.059   0.01607164  21.2055         28
 5.51   0.0000    164.9741   1445.6677     2032.657      43.5214  17.35     1.303     1.186      2.262    0.0160935  19.7798         29
 4.82   0.0000    166.8505    104.4303     1558.506      43.5214 -46.35     1.196     1.124      2.059   0.01609714  20.0682         30
 6.42   0.0000    169.3397   1368.8977     782.7427      43.5214  68.06     0.910     0.689      2.239   0.01607893  20.8160         31
 7.68   0.0000    180.3316    574.9897     1018.851      43.5214  53.18     1.039     0.643      2.243   0.01610078  20.5297         32
 7.49   0.0000    186.6387   1354.8976      1128.37      43.5214  75.59     1.045     0.753      2.528    0.0160771  20.4189         33
 5.30   0.0000    192.6023   1350.5554     2564.833      43.5214 -19.15     1.368     1.305      2.192   0.01610078  19.5274         34
 4.77   0.0000    210.7202    827.6749     10212.74      43.5214  -5.78     3.810     2.091      3.016   0.01608439  18.0271         35
 4.14   0.0000    206.7225    549.0807       4942.5      43.5214   3.37     1.545     1.484      2.168   0.01608622  18.8151         36
 4.19   0.0000    212.1664   1306.1005      4962.01      43.5214 -64.54     1.516     1.487      2.192   0.01607346  18.8109         37
 5.52   0.0000    230.1494    562.2775     9333.369      43.5214 -37.31     3.231     3.004      4.273   0.01608075  18.1249         38
 5.76   0.0000    210.8939    684.8484     1527.772      43.5214 -66.39     1.218     1.115      2.308   0.01607893  20.0899         39
 3.50   0.0000    259.7588    997.4791     293600.3      43.5214 -48.81     2.331     2.263      2.186   0.01608804  14.3806         40
 3.92   0.0000    223.9121   1226.0618     5782.924      43.5214  25.89     1.523     1.479      2.172   0.01608257  18.6446         41
 4.86   0.0000    222.6267    774.9695     2068.646      43.5214  81.57     1.224     1.191      2.145    0.0160935  19.7608         42
 3.50   0.0000    265.9002     67.6173     190187.1      43.5214 -49.31     2.268     2.237      2.202   0.01608439  14.8520         43
 5.52   0.0000    243.9732    112.8913     3624.879      43.5214 -88.19     1.951     1.539      2.822   0.01608622  19.1518         44
 4.81   0.0000    255.4885    613.0098     9531.181      43.5214 -41.01     2.436     2.028      2.529   0.01609168  18.1021         45
 6.52   0.0000    239.3535    838.8231     1589.415      43.5214  -5.84     1.203     1.102      2.340   0.01609532  20.0469         46
 7.18   0.0000    250.5180    107.4840     1260.447      43.5214 -42.78     1.108     0.852      2.277   0.01608075  20.2987         47
 3.50   0.0000    287.5196   1486.4733     47467.84      43.5214 -43.97     2.033     1.992      2.224   0.01608257  16.3590         48
 3.66   0.0000    281.9236   1522.4003     12782.69      43.5214   3.77     1.701     1.668      2.106    0.0160935  17.7834         49
 6.46   0.0000    270.7727   1273.6278     1067.431      43.5214  16.49     1.000     0.849      2.051   0.01609532  20.4791         50
 3.50   0.0000    303.1506    201.7659     36103.03      43.5214 -78.11     1.968     1.942      2.223    0.0160935  16.6561         51
 6.27   0.0000    293.2967   1475.8354     1360.643      43.5214 -33.66     1.250     1.086      2.103   0.01607528  20.2156         52
 4.64   0.0000    302.2875    563.6751     2064.976      43.5214  31.81     1.325     1.283      2.206   0.01607893  19.7627         53
 3.50   0.0000    322.0853    697.3419     25843.11      43.5214   1.78     1.882     1.848      2.077   0.01608439  17.0191         54
 7.64   0.0000    308.7069     85.2985     1002.182      43.5214  45.78     0.969     0.767      2.431    0.0160771  20.5476         55
 6.05   0.0000    321.9905    641.4783     2518.211      43.5214 -64.00     1.799     1.232      2.902   0.01609532  19.5473         56
 5.16   0.0000    327.5369    595.4523     5013.473      43.5214 -52.10     1.728     1.694      2.337   0.01608622  18.7997         57
 6.07   0.0000    329.2517   1546.0168     949.9293      43.5214 -87.78     0.913     0.756      2.273   0.01609714  20.6058         58
 5.83   0.0000    332.2679     93.4347     1368.392      43.5214  20.40     0.992     0.948      2.097    0.0160935  20.2095         59
 4.78   0.0000    350.1319     54.7084     2677.397      43.5214  -8.51     1.366     1.298      2.139   0.01608075  19.4807         60
 3.50   0.0000    368.1670    761.1217     24977.42      43.5214 -26.12     1.940     1.871      2.139   0.01608986  17.0561         61
 4.02   0.0000    361.1491   1500.4037     5137.501      43.5214 -15.08     1.586     1.464      2.274    0.0161026  18.7731         62
 3.50   0.0000    395.2009    231.4691       107367      43.5214 -63.05     2.184     2.143      2.191   0.01609896  15.4728         63
 5.78   0.0000    360.5269   1034.0070      1505.07      43.5214  -1.40     1.111     0.957      2.250   0.01609896  20.1061         64
 6.91   0.0000    375.4792    754.0627     1456.356      43.5214  56.22     1.715     0.961      2.109   0.01608075  20.1418         65
 7.68   0.0000    370.3091     71.9499     1008.913      43.5214 -10.89     0.743     0.672      2.222   0.01608622  20.5404         66
 6.47   0.0000    373.4826   1083.8826     1177.719      43.5214 -17.84     1.100     0.990      2.381   0.01608075  20.3724         67
 6.41   0.0002    380.6161      1.4882     81.52104      43.5214 -89.79     1.601     0.500      3.001   0.01229559  23.2718         68
 3.50   0.0000    397.0519   1461.2017     18731.07      43.5214 -44.85     1.804     1.797      2.171    0.0161026  17.3686         69
 3.50   0.0000    398.1799    354.6261     20643.67      43.5214 -13.53     1.890     1.844      2.186   0.01609168  17.2630         70
 8.09   0.0000    375.6552     87.2937     763.4374      43.5214  47.61     0.564     0.339      2.072   0.01608257  20.8431         71
 6.71   0.0000    380.1594    125.8447     891.7477      43.5214  44.65     0.818     0.680      2.063   0.01609532  20.6744         72
 4.22   0.0000    393.8183   1088.7736     4514.035      43.5214 -35.06     1.516     1.449      2.116    0.0160935  18.9136         73
 8.89   0.0000    382.4900     67.5055     658.2686      43.5214 -44.69     0.503     0.497      1.960   0.01607528  21.0040         74
 8.07   0.0000    388.6902   1195.3347     451.1543      43.5214  43.77     0.567     0.338      2.375   0.01608622  21.4142         75
 6.14   0.0001    412.0432      1.7727     181.9306      43.5214  90.00     2.505     0.701      4.321   0.01255263  22.4002         76
 7.90   0.0000    396.8768    626.5975     1832.289      43.5214 -73.71     1.239     0.985      2.886    0.0160935  19.8925         77
 8.16   0.0000    403.6928    526.4366     985.4212      43.5214  81.17     1.023     0.476      2.381   0.01608257  20.5659         78
 7.54   0.0000    407.0518    282.4902     641.3749      43.5214 -88.59     0.787     0.500      2.039   0.01608622  21.0322         79
 3.50   0.0000    437.9478    252.1072     39191.67      43.5214 -87.21     2.006     1.974      2.189   0.01608257  16.5670         80
 3.50   0.0000    461.0704    807.6703     270979.8      43.5214 -68.51     2.341     2.304      2.195   0.01607346  14.4677         81
 5.83   0.0000    420.9021    159.0900     2451.786      43.5214  37.62     1.694     1.421      2.231   0.01607528  19.5763         82
 7.67   0.0000    419.5386   1580.4929     683.9972      43.5214  40.47     0.504     0.495      2.242   0.01608257  20.9624         83
 4.17   0.0000    432.9492   1422.0629      3541.53      43.5214   6.85     1.427     1.396      2.121   0.01608622  19.1770         84
 6.72   0.0000    426.5748   1179.2787     1249.402      43.5214  26.35     1.188     0.957      2.197   0.01609168  20.3082         85
 6.42   0.0000    426.8329    433.0970      95180.5      43.5214  -3.27     2.183     0.735      4.310   0.01607893  15.6036         86
 5.15   0.0000    434.2586    151.1154     1307.737      43.5214 -20.05     1.138     1.034      2.087   0.01608439  20.2587         87
 3.88   0.0000    450.3392     21.3603     14393.32      43.5214 -27.47     1.777     1.769      2.127    0.0160935  17.6546         88
 5.07   0.0000    467.7993    850.4810     11988.66      43.5214  22.59     7.403     2.054      4.797    0.0160935  17.8531         89
 9.05   0.0000    430.6650    719.3185     1399.973      43.5214  45.76     0.572     0.336      1.906   0.01607893  20.1847         90
 4.48   0.0000    440.0043    305.8401     1624.912      43.5214  22.45     1.160     1.136      2.069    0.0160935  20.0229         91
 5.42   0.0000    445.2589    122.3780     2402.121      43.5214 -23.52     1.401     1.309      2.305   0.01609714  19.5985         92
 3.80   0.0000    457.8408     34.5939     16441.66      43.5214 -30.83     1.779     1.767      2.147   0.01609532  17.5101         93
 8.05   0.0000    443.6886    655.3237     956.9572      43.5214  44.36     0.563     0.340      2.122    0.0160771  20.5978         94
 4.32   0.0000    463.6414    468.6490     5115.555      43.5214  70.99     1.619     1.558      2.250   0.01609714  18.7778         95
 6.24   0.0000    452.9206   1533.0249     840.5281      43.5214 -31.03     0.792     0.774      2.269   0.01609168  20.7386         96
 5.22   0.0000    460.9918   1096.1410     1807.849      43.5214  47.71     1.191     1.080      2.263    0.0161026  19.9071         97
 4.60   0.0000    471.3581    254.2742     4319.452      43.5214 -79.51     1.510     1.439      2.164   0.01608804  18.9614         98
 4.03   0.0000    472.1380    734.9207     6375.173      43.5214  75.27     1.566     1.511      2.170   0.01608075  18.5388         99
 7.71   0.0000    461.8358    724.7247     937.8101      43.5214 -20.12     0.949     0.683      2.356   0.01608804  20.6197        100
 3.70   0.0000    477.9271    923.0840      8457.28      43.5214 -28.67     1.679     1.612      2.131   0.01608075  18.2319        101
 4.34   0.0000    477.2791   1276.4363     3085.954      43.5214 -44.53     1.334     0.920      3.048   0.01608804  19.3265        102
 5.84   0.0000    488.9431    839.6031     1650.679      43.5214  87.10     2.059     0.959      2.807    0.0161026  20.0058        103
 4.14   0.0000    484.0388   1070.6680     3900.385      43.5214 -80.82     1.429     1.400      2.193   0.01609168  19.0722        104
 7.10   0.0000    475.9789   1168.4807     645.3174      43.5214  89.68     0.781     0.500      2.106    0.0160935  21.0256        105
 5.40   0.0000    496.2654     82.9187     6021.873      43.5214  66.13     2.311     2.046      3.131   0.01607893  18.6007        106
 6.87   0.0000    478.8629    682.8434     1057.149      43.5214 -46.10     0.819     0.679      2.178   0.01608804  20.4897        107
 5.12   0.0000    495.7248   1186.8407     5866.724      43.5214 -15.71     2.996     1.931      3.343   0.01608804  18.6290        108
 5.26   0.0000    504.0796    762.8668       2875.4      43.5214 -10.71     1.688     1.646      2.583   0.01607893  19.4033        109
 4.77   0.0000    502.0138    863.8067     2156.847      43.5214  64.62     1.201     1.192      2.260   0.01608257  19.7155        110
 4.57   0.0000    515.3623   1461.0657     7119.832      43.5214  23.93     4.115     1.649      3.114    0.0160935  18.4188        111
 6.08   0.0000    498.0054    366.2516     886.1062      43.5214   0.37     0.926     0.749      2.326    0.0161026  20.6813        112
 6.08   0.0000    509.9191    164.8152     2027.738      43.5214  -5.95     1.820     1.073      2.836   0.01609532  19.7825        113
 4.83   0.0000    513.8598   1179.1876     2121.259      43.5214  24.06     1.285     1.178      2.163   0.01609532  19.7335        114
 5.52   0.0000    519.1540    641.9484     1470.474      43.5214  22.36     1.200     1.120      2.263   0.01609896  20.1314        115
 6.45   0.0000    518.1915   1519.1722     788.2975      43.5214  45.74     0.761     0.567      2.268    0.0160935  20.8083        116
 4.09   0.0000    540.2067    999.9378     4941.307      43.5214  61.15     1.534     1.490      2.200   0.01610078  18.8154        117
 6.53   0.0000    536.3547    404.5305     1120.922      43.5214  38.93     1.195     0.786      2.052   0.01608622  20.4261        118
 3.90   0.0000    558.9035   1041.7982     6557.712      43.5214   6.20     1.633     1.563      2.169   0.01608986  18.5081        119
 4.74   0.0000    571.3472     45.9143      4845.52      43.5214  46.17     2.084     1.522      2.311   0.01608257  18.8366        120
 5.98   0.0000    555.8228    778.8107      638.171      43.5214  44.57     0.756     0.567      2.236   0.01608986  21.0377        121
 3.50   0.0000    580.7163    144.9663     25927.61      43.5214  83.47     1.885     1.868      2.190   0.01609168  17.0156        122
 4.85   0.0000    571.3085   1447.7944     4152.931      43.5214  19.43     2.258     1.637      2.805   0.01608439  19.0041        123
 5.88   0.0000    565.0881    139.5546     1189.704      43.5214 -69.74     1.052     0.977      2.080   0.01608439  20.3614        124
 3.50   0.0000    582.1971    319.2584     23791.68      43.5214   7.31     1.887     1.830      2.079    0.0161026  17.1089        125
 4.29   0.0000    596.7602    782.6867     13906.56      43.5214 -62.08     3.302     3.182      3.631   0.01608986  17.6919        126
 5.97   0.0000    576.2225   1001.8235     1452.567      43.5214  40.80     1.216     1.076      2.326    0.0160935  20.1447        127
 4.64   0.0000    584.5398     76.0209     1788.884      43.5214  -0.84     1.205     1.138      2.209   0.01609714  19.9185        128
 4.19   0.0000   1001.5298   1555.4829     3453.167      43.5214  54.97     1.346     1.330      2.195   0.01607893  19.2045        129
 4.71   0.0000   1597.6036    654.7847     621.4985      43.5214   1.75     1.659     1.434      2.401   0.01383611  21.0664        130
 5.16   0.0000   1594.7568    374.1190     867.0133      43.5214  42.74     1.307     1.027      1.790   0.01554717  20.7049        131
 4.05   0.0000   1584.9181   1108.9316     3739.025      43.5214 -15.59     1.433     1.357      2.160   0.01608257  19.1181        132
 6.78   0.0000   1585.9497   1069.5099     909.6747      43.5214 -88.96     0.783     0.500      2.224   0.01608439  20.6528        133
 3.60   0.0000   1541.8564    135.1745     10097.39      43.5214  54.68     1.663     1.623      2.099   0.01609532  18.0395        134
 8.74   0.0000   1519.3268     85.3294     737.2855      43.5214 -44.88     0.573     0.336      1.825    0.0160771  20.8809        135
 4.79   0.0000   1514.6519    483.6263     1190.071      43.5214 -43.74     1.049     0.951      2.272   0.01609714  20.3611        136
 4.90   0.0000    912.4185   1001.2366     1259.352      43.5214  73.44     0.989     0.957      2.096   0.01609532  20.2996        137
 3.50   0.0000    900.4997    302.8331     17644.89      43.5214 -64.19     1.794     1.787      2.183   0.01607528  17.4335        138
 4.92   0.0000    896.1861    538.5018     3752.943      43.5214   6.05     1.942     1.608      2.219   0.01608622  19.1141        139
 5.31   0.0000    893.7880   1426.2821     981.4459      43.5214 -16.60     0.974     0.854      2.006   0.01609532  20.5703        140
 3.50   0.0000    880.2065   1592.6320     176838.4      43.5214 -83.52     2.300     2.188      2.059   0.01609714  14.9311        141
 6.04   0.0000    888.8303    325.8213     2199.467      43.5214  17.19     1.767     1.100      2.394   0.01609168  19.6942        142
 8.02   0.0000    888.6788    681.3232     776.9532      43.5214  44.90     0.568     0.338      2.115   0.01608622  20.8240        143
 4.51   0.0000    885.7850   1500.2664     2406.875      43.5214  10.00     1.303     1.227      2.153   0.01609896  19.5964        144
 7.04   0.0000    885.0953    339.2578     1240.576      43.5214  -2.69     1.149     0.882      2.213   0.01607893  20.3159        145
 4.70   0.0000    877.6797    961.0908     1575.421      43.5214  27.86     1.126     1.034      2.178   0.01608257  20.0565        146
 6.46   0.0000    876.3213    541.9203     685.3369      43.5214  -7.28     0.737     0.667      2.131   0.01608257  20.9602        147
 4.13   0.0000    869.4717   1103.7170     7288.625      43.5214 -55.22     1.983     1.793      2.274   0.01607893  18.3934        148
 4.96   0.0000    867.9886    939.9118     2956.436      43.5214  41.19     1.806     1.355      2.225   0.01609168  19.3731        149
 6.15   0.0000    869.3575    643.8528     888.6193      43.5214  68.50     0.904     0.687      2.245    0.0160935  20.6782        150
 8.15   0.0000    860.4996   1554.4683     512.6229      43.5214  48.21     0.504     0.495      2.066   0.01608439  21.2755        151
 4.53   0.0000    858.5098   1339.6924     1876.772      43.5214 -89.55     1.308     1.113      2.269    0.0160771  19.8665        152
 9.07   0.0000    855.5103    545.4817     899.5581      43.5214 -46.32     0.502     0.497      2.327   0.01608075  20.6649        153
 4.16   0.0000    844.9837   1063.9657     1545.833      43.5214   1.03     1.169     1.133      2.135    0.0160935  20.0771        154
 4.40   0.0000    843.3248   1106.2646     3075.793      43.5214  40.34     1.667     1.341      2.110   0.01607893  19.3301        155
 4.56   0.0000    836.6466    298.8450     4043.815      43.5214  11.92     1.467     1.396      2.162   0.01609714  19.0330        156
 6.83   0.0000    836.6003   1520.7371     651.8402      43.5214  18.11     0.733     0.456      2.188    0.0161026  21.0146        157
 5.73   0.0000    835.6805    819.1954     1120.609      43.5214 -72.93     0.960     0.861      2.169    0.0160935  20.4264        158
 3.50   0.0000    822.9877    654.4249     18127.44      43.5214  74.96     1.838     1.773      2.082   0.01608986  17.4042        159
 7.91   0.0000    819.4906   1398.4888     510.0968      43.5214  46.70     0.500     0.500      2.270    0.0160771  21.2809        160
 3.50   0.0000    803.0379   1378.7590     17150.14      43.5214 -72.46     1.796     1.752      2.160   0.01609714  17.4643        161
 3.50   0.0000    798.4418    695.7374     42376.69      43.5214 -88.12     2.639     1.966      2.747   0.01608986  16.4822        162
 4.17   0.0000    800.7010     41.1932     8278.307      43.5214 -23.53     1.671     1.577      2.230   0.01608622  18.2551        163
 4.28   0.0000    774.2634   1427.3890     7270.113      43.5214  89.63     2.902     1.909      3.104    0.0161026  18.3961        164
 7.20   0.0000    768.0129    140.0102     955.7301      43.5214  44.98     0.806     0.795      2.239   0.01608622  20.5992        165
 4.24   0.0000    742.8162    556.3451     4332.956      43.5214 -57.68     1.449     1.420      2.141   0.01609714  18.9580        166
 4.32   0.0000    738.1102   1158.1116     1733.597      43.5214  47.36     1.221     1.121      2.208   0.01607528  19.9526        167
 5.08   0.0000    736.0913    649.8519     1820.603      43.5214 -38.54     1.206     1.123      2.156   0.01608439  19.8995        168
 3.50   0.0000    726.6004    848.5243     155623.8      43.5214 -72.04     2.212     2.178      2.171   0.01609532  15.0698        169
 3.87   0.0000    727.4650   1178.3309     3103.308      43.5214 -10.14     1.394     1.328      2.141   0.01608257  19.3204        170
 5.23   0.0000    721.4345   1395.1035     1220.582      43.5214  16.01     1.086     0.953      2.109   0.01607893  20.3336        171
 3.96   0.0000    715.8315    808.4100     3779.459      43.5214  51.69     1.425     1.393      2.111    0.0160935  19.1064        172
 3.99   0.0000    708.9626   1163.8940     3983.413      43.5214  20.90     1.464     1.393      2.182   0.01607893  19.0494        173
 4.42   0.0000    704.4229   1339.0634     4543.033      43.5214 -25.11     1.700     1.462      2.338   0.01609714  18.9066        174
 3.68   0.0000    702.8209    952.5522     7002.626      43.5214  -9.41     1.630     1.577      2.153   0.01609532  18.4368        175
 6.02   0.0000    699.1675    582.7174     1669.104      43.5214   5.06     1.844     0.873      2.317   0.01608986  19.9938        176
 5.87   0.0000    691.6353   1213.6743     2749.616      43.5214  87.83     1.432     1.241      2.902   0.01608804  19.4518        177
 6.00   0.0000    686.6937   1213.8435     1628.348      43.5214 -47.21     1.217     0.958      2.055    0.0160771  20.0206        178
 4.18   0.0000    685.6500    644.3535     5992.931      43.5214 -73.12     1.594     1.581      2.134   0.01609714  18.6059        179
 5.68   0.0000    687.6556    130.9231     931.8727      43.5214  76.35     0.983     0.752      2.218   0.01608622  20.6266        180
 7.44   0.0000    668.9944   1221.5293       1031.2      43.5214  -0.05     0.827     0.706      2.470   0.01609714  20.5166        181
 3.50   0.0000    648.2678   1464.4448     153413.2      43.5214 -76.52     2.214     2.143      2.187   0.01608804  15.0853        182
 5.07   0.0000    654.6734    870.9016     1931.499      43.5214  21.01     1.193     1.057      2.201   0.01607893  19.8353        183
 6.84   0.0000    645.7944    653.0030     1035.782      43.5214 -88.71     0.912     0.756      2.192   0.01608622  20.5118        184
 7.26   0.0000    641.1874    276.8223     753.6016      43.5214 -45.77     0.755     0.569      2.242   0.01608804  20.8571        185
 4.14   0.0000    630.8300    806.1274     1901.228      43.5214 -34.12     1.204     1.125      2.247   0.01609168  19.8524        186
 4.30   0.0000    623.4095   1581.5348     2975.465      43.5214  49.39     1.346     1.338      2.212    0.0161026  19.3661        187
 7.18   0.0000    618.1836   1151.1306     1175.807      43.5214 -37.45     0.897     0.874      2.293   0.01610078  20.3742        188
 8.09   0.0000    609.5256    945.4929     701.9564      43.5214  42.34     0.503     0.496      2.249   0.01608257  20.9342        189
 3.50   0.0000   1563.6936    304.2686     134408.5      43.5214 -77.52     2.157     2.117      2.180   0.01608257  15.2289        190
 4.14   0.0000   1566.7208     22.0779     5833.709      43.5214  75.11     1.574     1.553      2.087   0.01608439  18.6351        191
 3.94   0.0000   1542.6152    654.7387     7095.672      43.5214  29.79     1.579     1.560      2.149   0.01609168  18.4225        192
 3.50   0.0000   1558.0082    487.7251     123050.7      43.5214 -78.65     2.166     2.125      2.190   0.01609896  15.3248        193
 4.16   0.0000   1570.5596     92.7663     4738.068      43.5214  -2.72     1.453     1.398      2.118   0.01609896  18.8610        194
 4.48   0.0000   1546.1006    863.5362     2628.526      43.5214  60.15     1.564     1.328      2.244   0.01608439  19.5007        195
 4.36   0.0000   1561.3612    861.4875     3038.117      43.5214  19.18     1.352     1.338      2.072   0.01608804  19.3435        196
 4.38   0.0000   1565.7378    784.6730     3932.227      43.5214 -79.11     1.769     1.443      2.370   0.01608439  19.0634        197
 5.18   0.0000   1550.8444   1221.8484      1209.54      43.5214  42.51     1.082     0.925      2.346   0.01609532  20.3434        198
 3.57   0.0000   1552.6281    682.2971     51939.66      43.5214 -26.44     4.582     3.959      3.369   0.01608075  16.2613        199
 7.80   0.0000   1535.9841   1428.9976     1013.649      43.5214 -45.55     0.927     0.527      2.704   0.01608804  20.5353        200
 7.00   0.0000   1532.4937    415.7445     1253.917      43.5214 -84.33     1.017     0.979      2.302   0.01608257  20.3043        201
 7.59   0.0000   1519.9943   1100.7047      844.691      43.5214  89.07     0.749     0.679      2.671   0.01608804  20.7333        202
 4.09   0.0000    928.4031   1322.5200     2958.645      43.5214 -44.27     1.357     1.342      2.160   0.01609532  19.3723        203
 3.50   0.0000   1514.9222    392.7349     21375.72      43.5214  66.54     1.807     1.797      2.170   0.01608075  17.2252        204
 6.00   0.0000   1515.4878   1547.1486     1366.453      43.5214  74.03     1.048     0.871      2.248   0.01608257  20.2110        205
 3.50   0.0000   1507.1836    269.3994     70941.97      43.5214 -82.06     2.049     2.030      2.161   0.01608804  15.9227        206
 5.55   0.0000   1498.4597    844.2532     988.8607      43.5214 -25.00     0.883     0.757      2.351   0.01608622  20.5622        207
 4.56   0.0000   1504.1298    723.3583      2392.09      43.5214  14.84     1.297     1.162      2.210   0.01609168  19.6031        208
 3.97   0.0000    939.1798   1067.2053     5523.712      43.5214 -23.40     1.522     1.452      2.161   0.01608986  18.6944        209
 6.96   0.0000   1488.2819     78.0035      899.988      43.5214  -1.74     0.735     0.681      2.333   0.01609168  20.6644        210
 3.92   0.0000    912.8765    838.6033     2398.502      43.5214  -0.15     1.305     1.218      2.127    0.0160935  19.6001        211
 5.67   0.0000    950.7991    654.3572     2234.346      43.5214  65.98     1.507     1.354      2.379   0.01609896  19.6771        212
 5.84   0.0000    947.8477    445.1833     1171.366      43.5214  47.70     0.889     0.856      2.195   0.01609532  20.3783        213
 5.26   0.0001   1065.7639   1597.2657     211.7293      43.5214 -14.20     0.952     0.861      0.915   0.01408376  22.2355        214
 7.26   0.0000    938.5413    516.3163     1815.777      43.5214  57.72     1.300     0.997      2.531   0.01608257  19.9023        215
 7.66   0.0000   1474.9158    998.3757     1552.834      43.5214 -14.25     1.054     0.754      3.182   0.01609168  20.0722        216
 6.42   0.0000   1482.4310    575.2145     1586.233      43.5214 -30.81     1.204     0.969      2.863   0.01609714  20.0491        217
 5.80   0.0000   1438.6464   1271.3108     1301.918      43.5214 -45.87     0.991     0.878      2.105   0.01608257  20.2635        218
 5.08   0.0000   1072.1349   1219.1719     5321.855      43.5214 -73.97     2.049     1.696      2.465   0.01609168  18.7348        219
 4.97   0.0000   1079.4351    330.1989     1503.536      43.5214   1.47     1.167     0.990      2.056   0.01608804  20.1072        220
 3.95   0.0000   1415.4110   1386.6447     4744.377      43.5214  75.55     1.498     1.406      2.171    0.0160935  18.8596        221
 3.55   0.0000   1107.4796    428.0644     19416.45      43.5214  29.41     1.816     1.783      2.121   0.01607893  17.3296        222
 3.50   0.0000   1081.7991   1148.2404     25157.84      43.5214  77.56     1.859     1.838      2.147   0.01609532  17.0483        223
 5.70   0.0000   1066.6768    569.0727     926.3122      43.5214 -72.74     1.032     0.751      2.382   0.01608257  20.6331        224
 6.53   0.0000   1110.7510    479.0507     3279.258      43.5214  19.20     1.749     1.562      2.939   0.01609896  19.2606        225
 3.54   0.0000   1435.3314    224.8159     10093.75      43.5214  21.04     1.687     1.611      2.153   0.01609896  18.0399        226
 6.26   0.0000   1090.9882    468.1736     2173.434      43.5214 -62.75     1.759     1.048      2.982   0.01609168  19.7071        227
 7.39   0.0001   1441.0785   1082.6284       251.35      43.5214  43.16     2.974     0.680      5.893   0.01608804  22.0493        228
 4.76   0.0000   1411.0619    350.0085     1858.271      43.5214  44.81     1.366     1.125      2.219    0.0161026  19.8772        229
 8.08   0.0000   1453.3318    391.6697     547.7247      43.5214  45.06     0.575     0.334      2.313   0.01607893  21.2036        230
 3.54   0.0000   1439.7888    619.2131     7665.145      43.5214 -62.85     1.575     1.554      2.125   0.01608804  18.3387        231
 3.50   0.0000   1393.4050    114.5455     180805.4      43.5214 -80.89     2.215     2.169      2.221   0.01610442  14.9070        232
 6.42   0.0000   1436.1945   1347.1851     845.3441      43.5214  46.04     0.748     0.567      2.397   0.01608622  20.7324        233
 4.63   0.0000   1120.3417    329.8551     6309.112      43.5214  55.81     2.503     1.644      2.469   0.01608439  18.5501        234
 6.70   0.0000   1431.9259    340.6477     1440.129      43.5214  15.34     1.044     0.753      2.279   0.01608439  20.1540        235
 4.82   0.0000   1129.1801    547.4301     1783.804      43.5214  54.92     1.192     1.121      2.082    0.0160935  19.9216        236
 3.50   0.0000   1408.2377    308.3844     7211.025      43.5214  -7.03     1.547     1.510      2.080   0.01609714  18.4050        237
 5.35   0.0000   1400.5464   1031.5027     2289.755      43.5214  31.11     1.429     1.368      2.155    0.0160771  19.6505        238
 3.50   0.0000   1388.6937   1428.5571     20646.04      43.5214  55.76     1.789     1.763      2.173    0.0160771  17.2629        239
 6.79   0.0040   1412.1804      1.3059     3.289176      43.5214 -77.74     1.083     0.409      2.541   0.01213247  26.7573        240
 4.72   0.0000   1406.3345    329.8578     1394.355      43.5214  26.69     1.130     1.025      2.211   0.01608439  20.1891        241
 4.65   0.0000   1330.5002    386.9715     1552.432      43.5214   3.29     1.098     0.952      2.123   0.01608075  20.0725        242
 4.79   0.0000   1259.4657    432.5281     3836.919      43.5214  25.38     1.823     1.760      2.572   0.01608075  19.0900        243
 3.68   0.0000   1278.0730   1331.4478     12253.98      43.5214  82.55     1.714     1.699      2.048   0.01608439  17.8293        244
 3.79   0.0000   1390.4578    713.3802     7377.953      43.5214  43.10     1.588     1.550      2.131   0.01609714  18.3802        245
 5.96   0.0000   1388.9021    806.6555     1180.396      43.5214  13.85     0.984     0.753      2.176    0.0160771  20.3699        246
 4.34   0.0000   1392.2596   1038.8943     4952.751      43.5214   8.71     1.474     1.451      2.208   0.01608439  18.8129        247
 3.53   0.0000   1218.8743   1195.0033      24880.7      43.5214  54.82     1.997     1.952      2.071   0.01610078  17.0603        248
 6.99   0.0000   1291.8092    546.1708     651.6292      43.5214 -44.88     0.757     0.568      1.947    0.0160935  21.0150        249
 3.56   0.0000   1210.6931   1279.0286     28297.78      43.5214  82.87     5.696     3.445      4.507   0.01608622  16.9206        250
 3.82   0.0000   1292.8365    412.6910     2695.742      43.5214 -22.03     1.326     1.267      2.311   0.01608439  19.4733        251
 8.47   0.0000   1262.3208    216.3072     671.4034      43.5214 -45.74     0.560     0.342      2.129   0.01608257  20.9825        252
 8.25   0.0000   1379.3267    319.3086     823.6918      43.5214 -45.93     0.563     0.340      1.930   0.01608257  20.7606        253
 8.27   0.0000   1352.4868    152.2023     1337.491      43.5214 -89.11     1.011     0.738      2.657   0.01608804  20.2343        254
 3.50   0.0000   1372.5312   1019.0457     23097.32      43.5214 -41.64     1.951     1.869      2.141   0.01608986  17.1411        255
 3.50   0.0000   1320.0488    660.0613     69182.39      43.5214  75.91     2.093     2.039      2.170   0.01608622  15.9500        256
 5.87   0.0000   1293.5828    742.1906     3506.091      43.5214 -15.99     1.535     1.440      2.268   0.01608622  19.1879        257
 7.00   0.0000   1346.3284    605.1111      871.691      43.5214 -68.97     0.936     0.689      2.408   0.01608257  20.6991        258
 3.97   0.0000   1329.8187    655.9049     9574.542      43.5214  67.51     1.921     1.813      2.209   0.01608804  18.0972        259
 4.12   0.0000   1332.9294    107.4837     2489.488      43.5214  -2.81     1.329     1.158      2.013   0.01607893  19.5597        260
 3.50   0.0000   1298.3828    724.9477     412333.7      43.5214 -51.40     2.371     2.297      2.204   0.01609714  14.0119        261
 4.19   0.0000   1304.7047    892.9962     2125.464      43.5214 -75.91     1.297     1.172      2.206   0.01608622  19.7314        262
 4.08   0.0000   1319.2585    264.1429     1787.447      43.5214   6.39     1.181     1.123      2.140   0.01608439  19.9194        263
 4.31   0.0000   1307.5262    669.7034     7853.542      43.5214 -32.49     1.629     1.592      2.137   0.01608075  18.3123        264
 3.65   0.0000   1272.7618    610.0184     32979.48      43.5214 -58.16     4.190     2.580      3.021   0.01609714  16.7544        265
 5.69   0.0000   1299.3568     54.0625     836.5972      43.5214 -68.39     0.901     0.697      2.170   0.01608986  20.7437        266
 3.52   0.0000   1291.4148    762.2641     17903.81      43.5214 -23.95     2.297     1.839      1.997   0.01609168  17.4176        267
 3.56   0.0000   1265.4564    807.9594     9803.985      43.5214  -7.96     1.661     1.612      2.133   0.01608804  18.0715        268
 6.36   0.0000   1273.6595    698.0986     743.2269      43.5214  68.67     0.919     0.693      2.456   0.01607893  20.8722        269
 4.97   0.0000   1228.6499   1153.6350     1096.024      43.5214  43.00     0.997     0.872      2.209   0.01609532  20.4504        270
 5.85   0.0000   1262.1962    855.0399     1022.929      43.5214 -88.04     0.907     0.755      2.345   0.01609168  20.5254        271
 5.76   0.0000   1212.7454   1429.5703     4191.649      43.5214  66.31     2.076     1.803      3.136   0.01609714  18.9940        272
 4.06   0.0000   1237.0374   1553.6448     4655.735      43.5214 -72.17     1.471     1.442      2.136   0.01609714  18.8800        273
 6.33   0.0000   1229.7732    599.1249     2520.431      43.5214 -25.96     1.422     1.267      2.432   0.01608986  19.5463        274
 3.50   0.0000   1234.4055    304.8864     8072.325      43.5214   0.76     1.619     1.566      2.136   0.01608986  18.2825        275
 5.14   0.0000   1237.6368     48.3455     1253.545      43.5214  42.97     1.043     0.951      2.093    0.0160935  20.3046        276
 4.28   0.0000   1207.6377    838.9413     4788.085      43.5214  35.87     1.470     1.451      2.169    0.0160935  18.8496        277
 3.50   0.0000   1214.6141    513.0945     36979.75      43.5214  -0.90     1.943     1.918      2.157   0.01608804  16.6301        278
 4.24   0.0000   1200.8662   1442.2368      2732.67      43.5214 -76.41     1.564     1.485      2.371   0.01609168  19.4585        279
 7.93   0.0000   1204.4742   1217.4802     598.8342      43.5214  43.31     0.502     0.497      1.960   0.01608257  21.1067        280
 5.08   0.0000   1194.9722    124.1294     5043.049      43.5214 -83.39     1.957     1.669      2.666    0.0160935  18.7933        281
 3.91   0.0000   1201.8915    339.0921     4428.341      43.5214  41.67     1.528     1.455      2.159   0.01607528  18.9344        282
 5.34   0.0000   1130.2582    219.7123     1704.491      43.5214  22.28     1.184     1.117      2.134   0.01608439  19.9710        283
 3.50   0.0000   1138.5420    148.1507     71594.23      43.5214  77.75     2.097     2.062      2.143   0.01608986  15.9128        284
 5.95   0.0000   1181.9745    176.1647     917.8018      43.5214   3.89     0.910     0.759      2.202   0.01609532  20.6431        285
 4.90   0.0000   1180.9506    549.4130     1550.572      43.5214  37.05     1.159     1.067      2.169   0.01609896  20.0738        286
 4.68   0.0000   1153.5942   1353.1537     2383.208      43.5214  23.71     1.498     1.327      2.212   0.01609896  19.6071        287
 3.50   0.0000   1165.1395   1299.8351     110147.5      43.5214 -78.19     2.141     2.108      2.213    0.0160935  15.4451        288
 3.50   0.0000   1129.9851    183.6115     38930.88      43.5214  -6.31     1.968     1.954      2.148   0.01608986  16.5743        289
 3.53   0.0000   1157.8691    236.5205     16669.91      43.5214 -59.07     1.775     1.768      2.093   0.01608075  17.4952        290
 5.31   0.0000   1161.7438    887.7606     2115.796      43.5214 -40.77     1.157     1.096      2.201    0.0160935  19.7363        291
 4.11   0.0000   1151.2296     99.5155     3946.671      43.5214   1.70     1.475     1.409      2.099   0.01609168  19.0594        292
 6.72   0.0000   1131.0312    359.2770     764.0757      43.5214  79.06     0.733     0.682      2.036   0.01608986  20.8422        293
 3.50   0.0000   1079.9672    512.2063     78496.16      43.5214  74.02     2.099     2.081      2.133    0.0160935  15.8129        294
 4.04   0.0000   1095.4258   1526.6967      2814.91      43.5214  64.24     1.332     1.261      2.204   0.01608622  19.4263        295
 7.24   0.0000   1086.1484   1452.8627     883.7375      43.5214  46.36     0.838     0.678      2.382   0.01608622  20.6842        296
 7.41   0.0000   1090.0991    782.8873     65100.45      43.5214  45.01     1.234     0.538      3.736   0.01607528  16.0160        297
 5.92   0.0000   1094.6758   1136.2837     853.6022      43.5214  42.84     0.939     0.754      2.150   0.01608075  20.7219        298
 7.13   0.0000    978.4573    452.7135     1170.644      43.5214 -88.97     0.999     0.961      2.276   0.01608439  20.3789        299
 7.77   0.0000   1088.0132    397.0000      895.631      43.5214  90.00     0.850     0.289      2.103   0.01609168  20.6697        300
 5.99   0.0000   1065.1993   1563.2179     3045.055      43.5214 -50.91     1.822     1.345      3.080   0.01608986  19.3410        301
 3.50   0.0000    984.8825    558.5286     68154.57      43.5214  86.99     2.062     2.035      2.153   0.01607893  15.9663        302
 3.50   0.0000   1009.8115    813.7941     40440.51      43.5214 -23.06     1.976     1.963      2.151   0.01608075  16.5330        303
 5.37   0.0000    965.2351    416.4796     1283.463      43.5214   9.67     0.991     0.951      2.076   0.01608804  20.2790        304
 5.22   0.0000    980.8171    797.9382     2729.413      43.5214 -22.95     1.473     1.417      2.408   0.01608986  19.4598        305
 3.50   0.0000   1040.2435    633.1321     96607.76      43.5214 -86.88     2.148     2.116      2.166   0.01608986  15.5875        306
 3.50   0.0000   1038.7074    525.4634     23234.15      43.5214 -89.92     1.895     1.851      2.137   0.01608439  17.1347        307
 4.72   0.0000   1030.4277    302.7162     4889.495      43.5214  61.98     2.411     1.679      2.762   0.01608986  18.8268        308
 5.83   0.0000    986.6929    454.0457      3897.41      43.5214  71.21     1.721     1.537      2.754    0.0160771  19.0731        309
 8.75   0.0000   1014.5078    453.4610     715.0941      43.5214 -62.89     0.500     0.498      1.940   0.01608439  20.9141        310
 6.43   0.0000    998.0614    233.3179     656.1273      43.5214  83.83     0.736     0.671      2.480   0.01608075  21.0075        311
 3.50   0.0000   1025.7098   1380.0499     48921.24      43.5214  87.42     2.054     1.952      2.203   0.01608439  16.3263        312
 3.80   0.0000   1011.3396    344.7471     7316.487      43.5214 -55.24     1.591     1.561      2.182   0.01608622  18.3892        313
 8.38   0.0000   1011.2415    267.9928     947.0618      43.5214   0.33     0.699     0.428      2.060   0.01609532  20.6091        314
 4.30   0.0000    999.9335   1273.7820     2339.589      43.5214 -27.04     1.275     1.172      2.166    0.0160935  19.6271        315
 4.10   0.0000   1001.6805    542.7173      7710.07      43.5214  12.75     1.658     1.575      2.101   0.01608075  18.3324        316
