#   1 KRON_RADIUS            Kron apertures in units of A or B                         
#   2 MAGERR_APER            RMS error vector for fixed aperture mag.                   [mag]
#   3 Y_IMAGE                Object position along y                                    [pixel]
#   4 X_IMAGE                Object position along x                                    [pixel]
#   5 THETA_IMAGE            Position angle (CCW/x)                                     [deg]
#   6 FLUX_APER              Flux vector within fixed circular aperture(s)              [count]
#   7 A_IMAGE                Profile RMS along major axis                               [pixel]
#   8 THRESHOLD              Detection threshold above background                       [count]
#   9 B_IMAGE                Profile RMS along minor axis                               [pixel]
#  10 FLUX_RADIUS            Fraction-of-light radii                                    [pixel]
#  11 FLUXERR_APER           RMS error vector for aperture flux(es)                     [count]
#  12 MAG_APER               Fixed aperture magnitude vector                            [mag]
#  13 NUMBER                 Running object number                                     
 3.77   0.0006     52.3656     61.8381  -4.11     152003.3     5.767           25     5.156     10.446     83.79352  15.0954          1
 3.50   0.0036     15.7502    983.4642 -87.95     25083.91     4.430           25     1.919      6.639     83.76508  17.0515          2
 3.50   0.0045     17.0166     89.5020 -27.30     20374.69     1.584           25     1.535      2.678     83.75559  17.2773          3
 3.50   0.0017     13.8130   1444.2402 -50.19     52877.43     1.667           25     1.653      2.635     83.79352  16.2418          4
 4.41   0.0450     16.2316    382.9453 -68.30     2023.088     1.179           25     1.108      2.545       83.803  19.7850          5
 6.18   0.0830     12.9454    839.5240 -53.69     1095.848     1.159           25     0.755      3.642     83.74611  20.4506          6
 6.27   0.1859      5.8499   1467.8611 -42.10     467.1044     0.830           25     0.681      2.599     79.97167  21.3765          7
 4.92   0.0381      3.4645    143.1826 -89.94      2060.25     1.495           25     1.267      3.676     72.31514  19.7652          8
 6.83   0.1002      3.8580    183.6363 -19.12     799.7261     0.927           25     0.685      3.308     73.79377  20.7926          9
 3.50   0.1345      9.2221   1182.3053  14.57     676.5548     0.946           25     0.830      2.089     83.76508  20.9742         10
 7.11   0.1423      1.5458    302.4866  39.07     490.3778     0.504           25     0.494      2.685     64.26669  21.3237         11
 3.50   0.0004     58.9477   1076.9407  75.51     241544.7     2.045           25     1.922      2.807     83.75559  14.5925         12
 3.88   0.0207     23.8041    365.4746  73.25     4399.268     1.319           25     1.260      2.721     83.83143  18.9415         13
 5.46   0.2941     17.0724   1213.4948  89.94     309.2206     0.771           25     0.500      1.938     83.73663  21.8243         14
 7.67   0.3591     14.5140   1561.4911 -11.76     253.1579     0.500           25     0.500      2.193     83.69868  22.0415         15
 4.90   0.0608     23.0687    381.3569  68.74     1495.979     1.192           25     1.060      3.156     83.77456  20.1127         16
 3.84   0.0365     32.9996   1108.4679  65.17      2494.37     1.995           25     1.108      3.427     83.82195  19.5576         17
 5.84   0.0995     22.8925    696.8405 -45.60      913.509     0.813           25     0.665      2.619     83.69868  20.6482         18
 4.81   0.0527     32.3472    325.0265 -20.34     1728.531     1.271           25     1.126      3.128     83.81248  19.9558         19
 3.50   0.0937     37.1702   1519.9764 -87.99     971.0594     1.004           25     0.908      2.048     83.78404  20.5819         20
 3.50   0.0620     37.9992   1169.0452  15.42     1467.323     1.136           25     1.112      2.556     83.83143  20.1337         21
 6.78   0.1255     33.7591     14.6046  71.89     725.4017     0.734           25     0.455      2.456       83.803  20.8986         22
 5.40   0.0547     43.4825    438.4967 -73.85     1661.503     1.314           25     1.121      3.898     83.69868  19.9987         23
 3.50   0.0004     79.0643    535.8630 -57.44     231905.2     1.925           25     1.904      2.760     83.75559  14.6367         24
 4.38   0.0620     41.5828    913.7358 -33.51     1468.082     1.061           25     0.919      2.291       83.803  20.1331         25
 5.75   0.3445     38.6411   1224.6516 -43.67     264.1286     0.867           25     0.523      2.367     83.78404  21.9955         26
 5.56   0.0860     49.4918   1433.8137 -65.21     1057.886     0.954           25     0.923      2.734     83.77456  20.4889         27
 5.18   0.0823     49.4587    263.5749 -66.18     1105.357     1.195           25     0.955      3.415     83.81248  20.4412         28
 7.80   0.2571     42.3415    226.6744  45.68     353.7302     0.577           25     0.333      2.509     83.74611  21.6783         29
 7.05   1.6085     41.6549    999.6901 -46.62     56.53709     0.572           25     0.336      1.832     83.73663  23.6692         30
 8.16   0.1534     46.6941    664.6706 -43.78     592.7408     0.563           25     0.340      2.560     83.73663  21.1178         31
 6.12   0.0913     64.8561   1146.4165  14.61     997.1474     1.051           25     0.890      3.401       83.803  20.5531         32
 3.50   0.0108     74.1151    126.4486 -21.43     8407.062     1.427           25     1.348      2.539     83.75559  18.2384         33
 6.35  99.0000     65.5015   1514.5056 -45.72    -67.40585     0.501           25     0.499      1.886     83.68919  99.0000         34
 8.49   0.1858     66.5318   1414.4746 -44.06      489.341     0.505           25     0.494      2.745     83.70817  21.3260         35
 6.53   0.2980     70.9779   1320.5319 -89.11      305.464     0.789           25     0.499      2.269     83.81248  21.8376         36
 4.15   0.0422     81.3945    419.8273  85.88     2156.921     1.391           25     1.173      3.165     83.78404  19.7154         37
 3.50   0.0003    120.9218    787.4944 -42.80     344531.6     1.968           25     1.946      2.777     83.71765  14.2069         38
 4.45   0.0196     89.6612    375.3125  -8.91     4639.518     2.201           25     1.789      4.814     83.73663  18.8838         39
 6.18   0.1781     78.6917   1031.9766  -2.38     510.7284     0.736           25     0.670      2.750     83.75559  21.2795         40
 3.56   0.0071     95.6111     54.3885  -6.13     12721.48     1.499           25     1.459      2.705     83.74611  17.7887         41
 7.29   0.0817     82.9674    930.9600  44.16     1114.532     0.895           25     0.533      3.557     83.81248  20.4323         42
 5.73   0.0706     87.5743    757.3250  46.61     1288.791     1.080           25     0.936      3.415     83.77456  20.2745         43
 6.11   0.2161     87.1081   1358.1217 -47.31     420.7109     0.830           25     0.673      2.885     83.72714  21.4900         44
 6.78   0.0935     90.7097   1043.9907  53.54     972.8648     1.023           25     0.635      3.670     83.75559  20.5799         45
 4.26   0.0700     90.5881    494.1471 -16.01     1301.236     1.006           25     0.941      2.504     83.82195  20.2641         46
 9.28   0.0948     86.4881    862.0151 -32.06     959.6556     0.798           25     0.313      3.243     83.78404  20.5947         47
 7.82   0.1578     87.6720    810.6771 -45.24     576.2984     0.570           25     0.337      2.598     83.73663  21.1484         48
 4.33   0.0308     97.0989    451.1919 -14.65     2955.568     1.886           25     1.112      3.795     83.74611  19.3734         49
 7.09   0.2127     94.3153    387.6701  44.29     427.3534     0.568           25     0.338      1.880     83.71765  21.4730         50
 8.24   0.1165    101.5233    517.4830  44.00     780.9615     0.503           25     0.496      2.931     83.74611  20.8184         51
 4.85   0.1593    107.1691    861.1779 -44.69     571.1631     0.793           25     0.684      2.277     83.78404  21.1581         52
 6.49   0.0913    114.3650    414.1011  78.71     995.3693     0.993           25     0.745      3.792     83.69868  20.5550         53
 7.57   0.5813    109.7253   1513.3552  40.66       156.46     0.559           25     0.340      1.982     83.74611  22.5640         54
 3.86   0.1183    116.2039    989.3252  17.90     769.5811     0.959           25     0.862      2.524     83.83143  20.8344         55
 3.92   0.1490    116.6458    152.3968 -48.96     610.9523     0.987           25     0.861      2.187     83.83143  21.0850         56
 4.90   0.0679    116.3229     65.0629   2.91     1339.586     1.238           25     0.962      3.596     83.73663  20.2326         57
 5.23   0.0724    125.3040    492.6458   3.72     1256.233     1.313           25     0.899      3.517     83.69868  20.3023         58
 3.50   0.0005    161.4527   1466.8275 -62.60     195301.8     1.887           25     1.855      2.745     83.81248  14.8232         59
 4.88   0.0740    130.2532    416.4069  19.77     1229.851     0.953           25     0.914      2.378     83.85037  20.3254         60
 5.93   0.1553    128.2914    884.0579   6.49     585.6363     0.731           25     0.675      2.483     83.72714  21.1309         61
 5.03   0.4008    127.2593   1476.9744   1.55      227.074     0.661           25     0.438      1.714     83.81248  22.1596         62
 7.12   0.0658    142.3000    885.0659  72.53     1382.482     1.010           25     0.747      4.711     83.75559  20.1984         63
 3.50   0.0021    169.2886    875.6515 -60.73     43930.66     1.717           25     1.674      2.738     83.73663  16.4431         64
 3.50   0.1026    150.5815   1278.7736  82.35      886.576     0.961           25     0.925      2.233     83.79352  20.6807         65
 4.49   0.1594    154.5294     80.6534 -67.71     570.7157     0.937           25     0.808      2.222     83.74611  21.1589         66
 4.01   0.0227    164.1869   1444.2914  47.23     4004.024     1.315           25     1.220      2.705     83.77456  19.0438         67
 5.87   0.2253    155.0629   1578.6616 -89.90     403.8002     0.730           25     0.649      2.651     83.76508  21.5346         68
 3.50   0.0345    165.7468    102.6053 -27.35     2639.502     1.257           25     1.163      2.336     83.85037  19.4962         69
 5.28   0.0867    165.0033    574.9867  75.43     1049.122     1.228           25     0.718      3.083     83.75559  20.4979         70
 4.67   0.0575    168.4867   1367.4685  20.67     1582.336     1.009           25     0.988      2.685     83.70817  20.0518         71
 5.84   0.0778    167.9813    649.5107   1.35     1170.045     1.038           25     0.782      3.072     83.77456  20.3795         72
 4.73   0.0452    179.2377    573.5081  32.97     2011.283     1.568           25     1.257      3.920     83.72714  19.7913         73
 5.49   0.0374    185.8672   1353.5756 -50.21      2432.77     1.474           25     1.273      4.624     83.79352  19.5847         74
 3.93   0.0188    191.7892   1349.0759 -17.92     4854.535     1.315           25     1.260      2.577     83.83143  18.8346         75
 3.73   0.0048    209.8528    826.1118  -7.48     18956.25     4.622           25     2.153      7.811     83.71765  17.3556         76
 4.16   0.0055    229.0615    560.6190 -23.24     16563.47     3.757           25     3.430      8.380     83.79352  17.5021         77
 3.50   0.0100    205.7428    547.4331 -50.08     9131.237     1.413           25     1.388      2.560       83.803  18.1487         78
 6.65   0.1008    195.0215    447.7135 -85.09     902.5546     0.732           25     0.676      3.030     83.77456  20.6613         79
 3.50   0.0101    211.4102   1304.6077 -40.53     9022.498     1.411           25     1.380      2.552     83.74611  18.1617         80
 4.33   0.0337    209.9548    683.0822 -80.09     2702.606     1.518           25     1.217      3.358     83.74611  19.4705         81
 6.95   0.1561    204.8301    182.1670 -44.93     583.0591     0.758           25     0.571      2.703     83.81248  21.1357         82
 3.78   0.1529    208.1468   1224.1273 -14.49     594.8333     0.861           25     0.844      2.252     83.74611  21.1140         83
 3.50   0.0002    258.9254    995.8104 -43.31     597446.6     2.092           25     2.025      2.806     83.83143  13.6093         84
 7.67   0.0944    204.5729    935.2369 -19.75     964.1414     0.733           25     0.455      3.469     83.78404  20.5896         85
 3.50   0.0088    223.2786   1224.6028  20.19     10362.23     1.411           25     1.403      2.486       83.803  18.0114         86
 6.28   0.0526    216.9193    739.7366 -46.49     1728.843     1.323           25     1.013      4.804     83.72714  19.9556         87
 3.50   0.0256    221.6176    773.3508 -32.33     3550.669     1.262           25     1.233      2.375     83.79352  19.1742         88
 7.43   0.0795    216.1229    881.6307 -66.69     1144.378     1.120           25     0.572      4.490     83.77456  20.4036         89
 3.50   0.0002    264.9534     65.7731 -32.20       441316     2.028           25     1.996      2.779     83.82195  13.9381         90
 4.32   0.0133    243.0270    111.0771 -85.87     6864.168     2.181           25     1.625      4.506     83.77456  18.4585         91
 6.77   0.0501    229.2600    546.3682 -62.66     1817.412     1.147           25     0.927      5.291     83.79352  19.9014         92
 4.17   0.0051    254.5277    611.2526 -44.96     17903.99     2.599           25     2.118      5.375     83.74611  17.4176         93
 4.56   0.0309    238.4033    837.2197  -0.07     2939.763     1.538           25     1.343      3.949     83.77456  19.3792         94
 7.00   2.7410    232.2851   1551.6707  42.41     33.16948     0.554           25     0.344      1.774     83.71765  24.2482         95
 6.05   0.1394    238.8988   1477.2656 -62.39     652.4643     1.007           25     0.650      2.934     83.76508  21.0136         96
 5.07   0.0353    249.5192    105.7907 -39.60     2575.665     1.353           25     1.158      3.564     83.77456  19.5228         97
 6.74   0.1055    247.9741   1412.9532  34.10     862.5107     0.809           25     0.777      3.399     83.82195  20.7106         98
 6.52   0.1679    250.1559   1549.1664 -46.24     542.2513     0.825           25     0.674      2.734     83.82195  21.2145         99
 8.32   0.1648    248.6070    149.8001  18.07       552.02     0.742           25     0.453      2.915     83.74611  21.1951        100
 3.50   0.0009    286.7198   1484.9985 -34.86     104266.8     1.803           25     1.773      2.711       83.803  15.5046        101
 3.50   0.0039    281.0606   1520.9103  78.86     23031.84     1.578           25     1.503      2.583     83.74611  17.1442        102
 7.88   0.0789    264.4987    722.9905 -89.56     1152.379     0.852           25     0.694      4.352     83.74611  20.3960        103
 6.08   0.0921    264.5280    122.1684 -89.38      988.364     0.938           25     0.736      3.100     83.78404  20.5627        104
 4.61   0.0393    269.9497   1272.2324   9.29     2315.864     1.380           25     1.179      3.256       83.803  19.6382        105
 7.75   1.1248    270.3510   1248.7195  48.76      80.8608     0.560           25     0.340      2.248     83.74611  23.2807        106
 3.50   0.0012    302.1461    199.9575  -1.01     76318.15     1.754           25     1.748      2.707     83.78404  15.8434        107
 8.12   0.1480    278.4984    555.4962 -45.05      614.421     0.503           25     0.497      3.020     83.71765  21.0788        108
 4.55   0.0210    292.5302   1474.2421 -21.60     4338.959     1.506           25     1.241      3.470     83.78404  18.9565        109
 5.27   0.0748    291.4895    246.7583 -31.60     1215.319     1.130           25     0.933      3.096     83.75559  20.3383        110
 3.50   0.0219    301.2911    561.8903  -3.92     4151.281     1.383           25     1.345      2.744     83.69868  19.0045        111
 5.62   0.0330    307.7112     83.4766  74.73     2750.655     1.692           25     1.285      5.292     83.70817  19.4514        112
 3.50   0.0018    321.1615    695.6137 -47.99     50674.25     1.682           25     1.667      2.676     83.81248  16.2880        113
 3.98   0.0213    320.8418    639.7523 -62.45     4264.347     2.244           25     1.508      4.464     83.81248  18.9754        114
 4.25   0.0093    326.5584    593.7395  -1.29     9793.399     1.915           25     1.868      4.463     83.78404  18.0727        115
 7.56   0.0728    310.0077    315.3219  87.28      1249.57     0.749           25     0.679      4.050       83.803  20.3081        116
 5.25   0.0944    315.9547    225.1773  -9.26     963.7261     1.107           25     0.728      2.893       83.803  20.5901        117
 3.71   0.0419    331.2021     91.6054 -20.61      2169.71     1.213           25     1.064      2.337     83.76508  19.7090        118
 4.22   0.0548    328.4932   1544.6573   0.89      1660.73     1.102           25     0.968      2.442     83.72714  19.9993        119
 3.62   0.0188    349.0294     52.9462 -35.30     4837.604     1.319           25     1.295      2.562     83.81248  18.8384        120
 3.50   0.0017    367.2354    759.4962 -26.09     52348.22     1.732           25     1.685      2.700     83.70817  16.2527        121
 5.45   0.0890    347.3217     40.6653 -50.68     1021.711     0.987           25     0.848      3.096     83.71765  20.5267        122
 3.50   0.0097    360.3835   1498.9019 -13.41     9350.119     1.548           25     1.385      2.663     83.75559  18.1230        123
 3.50   0.0004    394.2159    229.6349 -70.43     256526.1     1.952           25     1.907      2.790     83.81248  14.5272        124
 3.50   0.0399    359.7347   1032.5051  38.29     2282.018     1.217           25     1.170      2.360     83.75559  19.6542        125
 4.74   0.0285    374.2932    752.1290  51.98     3187.704     2.168           25     1.272      4.723     83.73663  19.2913        126
 4.80   0.0508    369.4625     69.8472 -56.93     1789.703     1.299           25     1.090      3.551     83.75559  19.9180        127
 3.74   0.0413    372.4083   1082.3356 -32.85     2204.962     1.433           25     1.350      3.313      83.8409  19.6915        128
 6.16   0.0699    368.3817    208.3981 -49.89     1302.146     1.080           25     0.933      4.432     83.76508  20.2633        129
 3.99   0.1223    374.3221     85.4926 -20.10     743.6851     0.963           25     0.937      2.264     83.72714  20.8715        130
 3.50   0.0025    396.2272   1459.7446 -45.85      36509.3     1.624           25     1.598      2.629     83.81248  16.6440        131
 4.45   0.0551    379.1256    123.9208  61.23     1652.046     1.113           25     1.110      2.466     83.74611  20.0049        132
 3.50   0.0022    397.1835    352.8708 -58.84     41612.86     1.677           25     1.629      2.657     83.83143  16.5019        133
 5.17   0.0628    381.4269     65.5967  24.25      1447.88     1.219           25     0.932      3.056     83.77456  20.1482        134
 3.50   0.0106    392.8812   1087.1532  12.39     8604.227     1.405           25     1.374      2.515     83.74611  18.2132        135
 5.14   0.0245    395.6750    625.1777 -87.51      3713.07     1.901           25     1.613      5.645       83.803  19.1257        136
 7.24   0.0691    381.7726      9.7077   6.31     1316.676     0.910           25     0.766      4.431     83.75559  20.2513        137
 4.10   0.1075    388.2085   1193.8507 -68.22     846.9204     0.938           25     0.836      2.286     83.83143  20.7304        138
 5.53   0.1376    388.9485    259.0594 -52.23     660.9087     0.785           25     0.765      2.448     83.75559  20.9996        139
 6.06   0.0364    402.5840    524.8780  69.21     2501.005     1.851           25     1.097      5.649       83.803  19.5547        140
 5.84   0.1316    390.9066     93.6741 -22.09      691.126     0.924           25     0.686      2.773     83.72714  20.9511        141
 6.27   1.2011    389.5344   1166.5160 -36.27      75.6929     0.501           25     0.498      1.904     83.71765  23.3524        142
 7.01   0.3829    391.6848    682.3162  44.95     237.3909     0.562           25     0.341      1.896     83.70817  22.1113        143
 4.24   0.0789    406.2444    280.4964 -16.87     1151.981     0.962           25     0.920      2.301     83.70817  20.3964        144
 3.50   0.0001    460.3213    806.0107 -46.26     724741.9     2.106           25     2.042      2.800       83.803  13.3995        145
 4.58   0.0745    412.6144   1560.6858 -64.13     1221.531     1.537           25     0.822      3.488     83.78404  20.3327        146
 3.50   0.0011    436.9956    250.2900  56.83     83636.95     1.797           25     1.784      2.748     83.74611  15.7440        147
 4.69   0.0185    419.8044    157.4340  37.44      4931.07     1.859           25     1.574      4.203     83.79352  18.8176        148
 6.25   0.0258    420.4099    132.9167 -23.24     3525.541     2.382           25     1.586      7.408     83.77456  19.1819        149
 6.17   0.0557    414.2697    557.6743  73.25     1633.006     1.262           25     1.094      4.343     83.70817  20.0175        150
 5.30   0.0807    417.7565   1202.9871 -88.95      1127.78     1.063           25     0.957      3.389     83.79352  20.4194        151
 4.88   0.0806    418.9438   1579.2106 -55.51     1129.954     0.956           25     0.867      2.302     83.82195  20.4173        152
 4.22   0.0337    425.7952   1177.7819  35.72     2700.883     1.653           25     1.304      4.131     83.76508  19.4712        153
 3.58   0.0905    418.4176    773.0535 -17.29     1005.826     1.167           25     0.954      2.537     83.81248  20.5437        154
 6.96   0.0311    429.8715    717.5161  66.89     2921.115     1.757           25     1.402      6.908     83.71765  19.3861        155
 4.72   0.2258    419.8337   1090.8477  44.64     403.0537     0.737           25     0.567      1.776       83.803  21.5366        156
 3.81   0.1390    423.4600   1062.4460  -6.26       654.49     0.905           25     0.876      2.130     83.77456  21.0102        157
 3.50   0.0139    432.1028   1420.5724  -8.19     6534.224     1.389           25     1.301      2.503     83.73663  18.5120        158
 4.30   0.1061    425.3427    298.3037  50.64     857.0453     0.955           25     0.848      1.900     83.70817  20.7175        159
 4.28   0.0041    467.0042    848.9381  22.51     22243.87     8.370           25     2.166     13.857      83.8409  17.1820        160
 3.50   0.0034    449.3257     19.5274  89.05     26525.84     1.664           25     1.583      2.707     83.70817  16.9908        161
 7.08   0.0011    426.6717    431.8233  -4.01     79927.27     1.845           25     0.645      4.589     83.81248  15.7933        162
 3.86   0.0348    433.0565    149.3928   0.63     2616.304     1.251           25     1.126      2.731     83.85037  19.5058        163
 6.16   0.8483    425.5312   1007.4691 -44.93     107.1927     0.503           25     0.495      1.877     83.72714  22.9746        164
 5.45   0.1300    432.6343    404.8666 -67.50     700.0201     0.884           25     0.681      2.502       83.803  20.9372        165
 3.50   0.0329    439.0594    303.9707 -84.52     2763.305     1.189           25     1.152      2.386     83.81248  19.4464        166
 4.90   0.1301    432.9586    351.7667   0.24     699.8151     0.878           25     0.745      2.245     83.82195  20.9375        167
 4.52   0.0203    444.1693    120.4328 -23.43     4477.623     1.640           25     1.460      3.600     83.81248  18.9224        168
 3.50   0.0030    456.8178     32.7492 -13.24     29854.42     1.621           25     1.612      2.669       83.803  16.8625        169
 4.74   0.0764    442.8110    653.4979   4.23     1190.334     0.955           25     0.916      2.393     83.73663  20.3608        170
 5.49   0.0806    442.7400    172.5344 -14.40     1128.998     0.969           25     0.938      3.000     83.75559  20.4183        171
 5.34   0.2032    441.2756    957.9990  -3.07     447.8326     0.736           25     0.668      2.276     83.81248  21.4222        172
 5.84   0.1138    444.6807   1503.8907 -66.53     799.2247     0.881           25     0.692      2.676     83.73663  20.7933        173
 3.50   0.0666    452.0424   1531.8308  50.93     1366.226     1.087           25     1.045      2.142     83.82195  20.2112        174
 3.53   0.0096    462.7248    466.8766  54.53     9505.629     1.528           25     1.420      2.750     83.73663  18.1050        175
 4.58   0.0980    453.5055   1222.7900 -80.84     927.7412     1.005           25     0.942      2.515     83.75559  20.6314        176
 3.50   0.0305    460.1031   1094.6326  27.13     2980.416     1.360           25     1.147      2.636     83.71765  19.3643        177
 7.32   0.3360    450.7377   1129.9933  -0.37     270.9607     0.680           25     0.440      2.345     83.83143  21.9677        178
 3.68   0.0110    470.5123    252.6244  50.51     8295.577     1.664           25     1.413      2.800     83.77456  18.2529        179
 3.50   0.0077    471.1100    733.2299 -28.65     11788.85     1.470           25     1.438      2.588     83.75559  17.8713        180
 4.94   0.0413    460.6171    723.3906  -3.05     2203.051     1.697           25     1.108      3.787     83.75559  19.6924        181
 4.79   0.0782    466.0485   1196.8596  64.88     1163.812     1.193           25     0.977      3.104     83.76508  20.3853        182
 3.50   0.0060    477.0088    921.4022 -48.00     15068.74     1.493           25     1.454      2.568     83.75559  17.6048        183
 5.79   0.0743    472.4925   1131.0585  85.53     1223.772     1.659           25     0.712      4.381     83.71765  20.3307        184
 3.94   0.0256    488.1000    838.0156 -88.39     3552.066     2.892           25     1.117      4.677     83.75559  19.1738        185
 5.73   0.1109    464.9706    559.9498  58.03     820.6431     0.790           25     0.774      2.815     83.81248  20.7646        186
 7.57   0.0774    464.8344    127.1186  41.21     1175.281     0.830           25     0.672      4.010     83.77456  20.3746        187
 3.50   0.0160    477.0140   1275.3693 -57.85      5695.55     1.328           25     1.228      2.515     83.81248  18.6612        188
 4.42   0.0080    495.3752     81.0658 -83.31     11437.54     2.692           25     2.476      6.076     83.79352  17.9042        189
 4.01   0.0949    475.1675   1166.7126 -61.43      958.807     1.021           25     0.867      2.243     83.78404  20.5957        190
 4.11   0.0084    495.0201   1185.2123 -22.44     10861.52     3.378           25     2.256      6.528     83.76508  17.9603        191
 7.96   0.0505    487.6410    422.9437 -43.87     1802.475     1.438           25     0.744      7.152     83.76508  19.9103        192
 6.24   0.0873    471.9751    780.0502  45.27     1042.735     0.795           25     0.769      3.104     83.83143  20.5046        193
 3.50   0.0146    483.0327   1069.1105 -26.42     6225.079     1.334           25     1.295      2.399     83.75559  18.5646        194
 3.85   0.0575    477.9255    681.0380 -57.38      1582.58     1.126           25     1.091      2.683     83.77456  20.0516        195
 7.17   0.0833    480.0004   1517.9857 -44.97      1092.53     0.820           25     0.777      3.757     83.76508  20.4539        196
 6.51   0.1627    485.2421    827.3867  72.23     559.1572     0.737           25     0.454      2.575     83.79352  21.1812        197
 4.28   0.0137    503.2693    761.2949  -2.52     6652.132     2.092           25     1.899      4.965     83.74611  18.4926        198
 3.55   0.0067    514.5264   1459.5746  24.92     13592.36     4.620           25     1.709      7.220     83.79352  17.7168        199
 3.50   0.0234    501.1653    862.1982 -68.30     3889.907     1.260           25     1.239      2.437     83.77456  19.0752        200
 3.93   0.0565    497.1030    364.7048  39.03     1609.918     1.115           25     1.009      2.324     83.69868  20.0330        201
 5.27   0.1134    492.0516    573.0049 -38.24     802.9481     0.786           25     0.768      2.202      83.8409  20.7883        202
 5.66   0.1421    494.6029   1419.7804  15.87      640.256     0.927           25     0.635      2.474     83.77456  21.0341        203
 8.41   0.0133    524.8232    527.8972  51.21     6822.406     2.400           25     0.992      9.408     83.74611  18.4652        204
 5.22   0.1676    501.8875    441.1881  46.80     542.8763     0.810           25     0.677      2.068     83.79352  21.2132        205
 5.47   0.0673    509.2064    451.7516  41.34     1353.125     1.114           25     1.009      3.381     83.82195  20.2217        206
 4.78   0.0227    509.0068    162.6792  -5.94     4000.708     2.318           25     1.137      4.432     83.78404  19.0447        207
 3.50   0.2941    504.1267   1567.7828  50.06     309.6432     0.794           25     0.675      1.778      83.8409  21.8228        208
 3.69   0.0239    512.8627   1177.7903 -17.94     3814.292     1.269           25     1.218      2.489      83.8409  19.0965        209
 8.24   0.0741    504.5149    324.5055  43.77     1226.418     0.502           25     0.498      3.013     83.68919  20.3284        210
 7.12   0.1278    508.4908    306.9737   0.51      711.523     0.785           25     0.500      3.099     83.75559  20.9195        211
 4.19   0.0319    518.2950    640.2903 -36.71     2852.543     1.394           25     1.256      3.141     83.69868  19.4119        212
 4.99   0.0686    519.8651    852.2338  66.63      1325.69     1.133           25     1.030      3.032     83.78404  20.2439        213
 4.40   0.0716    517.4777   1517.8848   0.04     1269.378     1.046           25     0.934      2.424     83.72714  20.2910        214
 8.77   0.0173    517.8887    510.9940   3.40      5248.93     2.971           25     0.544      7.625     83.76508  18.7498        215
 3.50   0.0102    539.3477    998.3590   2.64     8913.135     1.412           25     1.384      2.547     83.78404  18.1749        216
 3.93   0.0413    535.1251    402.7598  21.84     2203.073     1.596           25     1.194      3.347     83.77456  19.6924        217
 7.99   0.1006    527.9743    163.0000  90.00      904.663     0.852           25     0.289      2.868     83.76508  20.6588        218
 4.60   0.1909    530.9355   1565.0040   9.01     476.8939     0.774           25     0.765      2.087     83.83143  21.3539        219
 4.67   0.0606    543.0765    932.5807 -68.48     1501.899     1.732           25     0.811      4.117     83.81248  20.1084        220
 3.50   0.0074    558.0293   1040.1958  -5.64     12273.09     1.549           25     1.459      2.678     83.78404  17.8276        221
 5.39   0.1388    545.0844    849.4919  -0.94     654.9931     0.802           25     0.700      2.656     83.71765  21.0094        222
 3.50   0.0871    555.0635    777.2687  27.21     1044.135     1.028           25     0.953      2.046     83.74611  20.5031        223
 3.65   0.0037    595.7348    781.1718 -63.27     24432.79     3.830           25     3.549      7.912     83.78404  17.0801        224
 3.50   0.0109    570.7157   1446.9326  22.27     8360.976     2.993           25     1.845      5.247     83.73663  18.2444        225
 3.98   0.0104    570.2687     44.1231  49.99     8743.384     2.224           25     1.535      4.140     83.70817  18.1958        226
 3.50   0.0018    581.1951    317.4497  29.54     50058.14     1.747           25     1.702      2.742      83.8409  16.3013        227
 6.12   0.2073    553.9739    804.0167  88.84     439.0335     0.623           25     0.605      2.290     83.79352  21.4438        228
 8.01   0.2299    552.5358    964.5056 -38.96     395.6392     0.502           25     0.496      2.655     83.75559  21.5568        229
 4.58   0.0395    563.7872    137.7444  32.23     2304.181     1.188           25     1.150      2.952     83.81248  19.6437        230
 6.53   0.1385    558.3522   1067.7384  70.11     656.8959     1.009           25     0.586      2.847     83.75559  21.0063        231
 3.50   0.0018    579.6493    143.1600 -43.45     50113.25     1.687           25     1.667      2.690     83.79352  16.3001        232
 3.96   0.1413    562.0146    904.2037   4.79     643.8479     0.877           25     0.747      2.020     83.75559  21.0280        233
 4.83   0.1837    562.0154    838.9894 -52.41     495.2018     0.807           25     0.770      2.454     83.76508  21.3130        234
 6.45   0.1475    563.1900   1168.8391 -43.80     616.8444     0.754           25     0.567      2.765     83.79352  21.0746        235
 3.95   0.0306    575.2686   1000.1991  28.86     2975.196     1.520           25     1.458      3.559     83.82195  19.3662        236
 6.02   0.1297    566.0034    630.5092  -1.39     700.9717     0.792           25     0.695      2.851     83.74611  20.9357        237
 8.19   0.0999    566.4948   1114.5162  54.52     909.2379     0.500           25     0.499      3.001      83.6797  20.6533        238
 5.87   0.1235    569.1263    112.1452 -45.97     736.2589     0.838           25     0.672      2.403     83.74611  20.8824        239
 5.26   0.0848    577.7077    843.5986  24.44     1072.414     1.475           25     0.762      3.815     83.75559  20.4741        240
 7.03   0.0681    577.4185    738.3541  47.92     1337.278     1.015           25     0.884      4.202       83.803  20.2344        241
 3.50   0.0267    583.4576     74.2711 -27.96     3403.346     1.268           25     1.210      2.450     83.75559  19.2202        242
 7.36   0.0841    578.2991    677.7164  44.07     1080.085     0.967           25     0.776      4.035      83.6797  20.4664        243
 7.57   0.2669    577.6680    694.7030 -46.88     340.8585     0.560           25     0.341      2.106     83.75559  21.7186        244
 4.79   0.0840    584.4865   1171.3466  68.69     1082.125     0.959           25     0.955      2.572     83.72714  20.4643        245
 7.02   0.1451    582.9680   1099.4989 -88.09     626.3368     0.792           25     0.500      2.762     83.70817  21.0580        246
 6.04   0.5827    581.5252   1485.4666  46.11     156.0065     0.505           25     0.493      1.852     83.70817  22.5671        247
 4.82   0.1054    587.6062   1137.7240  42.86     863.4152     0.953           25     0.858      2.148     83.82195  20.7094        248
 7.49   0.1522    583.5229    209.5023  37.69     597.4564     0.501           25     0.499      2.432     83.71765  21.1092        249
 3.98   0.0733    997.2316    231.6387  84.02     1242.288     1.040           25     0.962      2.480     83.81248  20.3144        250
 5.66   0.1117   1598.8354    709.3201  17.50     652.0107     0.941           25     0.671      2.705     67.03719  21.0144        251
 4.11   0.0159   1596.7023    653.1345 -14.31     5144.241     2.011           25     1.862      4.182     75.28557  18.7717        252
 5.80   0.0439   1599.3304     17.0655   6.89     1603.044     1.583           25     0.655      3.911     64.77143  20.0376        253
 3.99   0.0298   1593.4718    372.3271  59.30     3040.457     1.523           25     1.258      3.370     83.32776  19.3427        254
 5.86   0.1097    909.0859   1573.9731 -32.13     829.1463     0.798           25     0.778      2.708     83.77456  20.7534        255
 5.62   0.0801    907.3624    657.8864 -14.76     1136.182     1.056           25     0.961      3.049     83.77456  20.4114        256
 5.93   0.0708    907.9376      3.3812 -16.27     1104.676     1.031           25     0.741      3.102     71.99591  20.4419        257
 4.74   0.1357    903.0575    733.5118   2.25     670.2382     0.791           25     0.689      1.914     83.73663  20.9844        258
 3.50   0.0027    899.4453    301.1092 -79.29     33194.34     1.630           25     1.603      2.686     83.72714  16.7473        259
 4.24   0.0119    895.2208    536.9806   6.17     7623.625     2.238           25     1.768      4.581     83.78404  18.3446        260
 6.33   0.2751    898.4979    378.4744 -46.75     330.4443     0.505           25     0.494      1.923     83.71765  21.7523        261
 4.07   0.0809    896.1499    985.7686 -78.87     1125.321     1.155           25     0.969      2.636     83.81248  20.4218        262
 7.14   0.0988    894.4000   1569.8065 -19.17     920.0699     0.741           25     0.450      2.480     83.74611  20.6404        263
 4.05   0.0476    893.0034   1424.8406  -4.02     1910.487     1.175           25     1.081      2.757     83.79352  19.8471        264
 3.50   0.0002    879.3679   1591.1768 -65.43       582865     2.050           25     1.979      2.775     83.77456  13.6361        265
 4.85   0.0204    887.5698    324.3025  15.33     4467.465     2.155           25     1.546      4.587     83.72714  18.9248        266
 4.66   0.0707    887.7139    679.6675 -31.59      1286.67     1.207           25     0.985      3.021     83.71765  20.2763        267
 3.71   0.0207    884.8433   1498.7693 -28.53     4404.525     1.263           25     1.203      2.360     83.82195  18.9403        268
 5.89   0.0333    883.9937    337.4917  14.13     2732.497     1.674           25     1.162      5.374     83.75559  19.4586        269
 6.44   0.0709    878.6037    670.2805 -33.92     1282.673     1.220           25     0.885      3.848     83.79352  20.2797        270
 3.50   0.0378    876.6116    959.5165 -75.63     2409.165     1.188           25     1.159      2.335     83.79352  19.5953        271
 4.74   0.0628    875.3988    540.0956 -18.70      1449.08     1.104           25     0.941      2.423     83.77456  20.1473        272
 3.61   0.0066    868.4432   1102.0897 -52.52      13741.6     1.978           25     1.764      3.652     83.75559  17.7049        273
 3.50   0.0173    866.7821    938.0223  43.14     5266.639     2.341           25     1.464      4.114     83.77456  18.7462        274
 4.03   0.0655    868.4462    642.1702   1.65     1390.452     1.108           25     0.971      2.299     83.82195  20.1921        275
 4.61   0.1217    865.6735    453.2921 -43.90     747.0542     1.023           25     0.859      2.778     83.74611  20.8666        276
 4.40   0.1962    863.9810   1477.9620  41.14     463.8054     0.784           25     0.771      2.355     83.81248  21.3842        277
 6.33   0.0812    863.4897    353.4914   4.48     1118.943     0.907           25     0.900      4.473     83.70817  20.4280        278
 4.68   0.0939    859.5967   1552.9791  88.22     968.6028     0.982           25     0.777      2.433     83.77456  20.5846        279
 3.83   0.0252    857.4876   1338.7616 -82.33       3606.6     1.339           25     1.031      2.933     83.76508  19.1573        280
 5.43   0.0522    854.6078    543.6538 -85.84     1743.026     1.306           25     1.094      3.780     83.85037  19.9467        281
 8.00   0.1187    854.4573   1346.4805  34.07     766.3994     0.501           25     0.497      2.657     83.74611  20.8389        282
 7.29   0.0444    845.6961    360.3315 -13.21     2048.081     1.533           25     1.183      6.371     83.74611  19.7716        283
 3.54   0.0154    842.4099   1104.7104  29.74     5896.575     1.740           25     1.381      3.254     83.77456  18.6235        284
 3.50   0.0361    843.9447   1062.4344 -12.26     2518.251     1.214           25     1.148      2.321     83.79352  19.5473        285
 3.67   0.0119    835.5275    297.0648 -62.06     7617.521     1.404           25     1.343      2.611     83.71765  18.3455        286
 5.08   0.1015    836.8608    990.4802 -11.26     896.1855     1.028           25     0.873      2.765     83.73663  20.6690        287
 3.55   0.0895    835.6268   1519.0900 -19.16     1016.943     0.992           25     0.927      2.117     83.76508  20.5318        288
 3.53   0.0528    834.6511    817.5978 -14.49     1723.842     1.140           25     1.039      2.295      83.8409  19.9588        289
 3.50   0.0027    822.0486    652.7755 -40.96     33948.68     1.650           25     1.642      2.680     83.82195  16.7229        290
 5.17   0.1319    821.0284    328.9836 -51.85     690.1002     0.788           25     0.765      2.368     83.79352  20.9527        291
 3.50   0.1326    818.7283   1397.2321 -46.31     686.0401     0.961           25     0.847      2.078     83.78404  20.9591        292
 5.15   0.1825    817.8800    777.8314 -48.61     498.5475     0.840           25     0.663      2.582     83.77456  21.3057        293
 4.26   0.0890    817.8155    701.3275 -20.64     1022.783     0.960           25     0.914      2.369      83.8409  20.5255        294
 5.01   0.0565    814.5070    876.6308 -58.49     1609.565     1.463           25     0.894      3.389     83.74611  20.0332        295
 3.50   0.0791    808.9119   1543.2889  72.88     1149.094     1.086           25     0.914      2.031     83.69868  20.3991        296
 5.54   0.2169    808.5829    842.7518  18.17     419.4757     0.713           25     0.463      1.820     83.79352  21.4932        297
 3.50   0.0029    802.1667   1377.2756 -63.74     30867.03     1.649           25     1.576      2.641     83.76508  16.8263        298
 3.50   0.0010    797.5811    694.0720 -87.91     89801.31     2.495           25     1.754      3.755     83.83143  15.6668        299
 3.50   0.0062    799.6505     39.3665 -22.80     14647.12     1.666           25     1.449      2.706       83.803  17.6356        300
 7.36   0.1357    800.6880   1595.3070  45.29     636.4702     0.556           25     0.343      2.240     79.52348  21.0406        301
 6.03   0.0612    793.2582    294.0250 -66.59       1486.5     1.173           25     1.055      4.243     83.81248  20.1196        302
 4.85   0.3553    785.2255   1347.6593  61.89     256.1534     0.809           25     0.601      1.861     83.81248  22.0287        303
 3.50   0.0070    773.3425   1425.9152 -89.76     13043.33     3.452           25     2.118      6.092     83.72714  17.7615        304
 4.88   0.0432    766.9306    138.3648 -19.84      2105.36     1.320           25     1.193      3.508     83.79352  19.7417        305
 4.61   0.1168    766.3534    928.7696 -73.50     779.1748     0.988           25     0.871      2.710     83.82195  20.8209        306
 4.35   0.1322    763.2698    565.8460  45.86     688.1506     0.876           25     0.849      2.257     83.76508  20.9558        307
 4.47   0.0789    756.6685   1339.7045 -45.10      1152.37     1.526           25     0.855      3.683     83.74611  20.3960        308
 8.81   0.1180    757.4788    104.4729 -45.62     770.5132     0.506           25     0.493      3.036     83.74611  20.8330        309
 5.64   0.0343    753.8141    194.1191  75.68     2654.969     1.668           25     1.595      5.258       83.803  19.4899        310
 5.09   0.1702    751.6815   1078.8489 -67.05     534.3339     0.901           25     0.674      2.622     83.74611  21.2305        311
 7.63   0.0420    743.6953    839.3754 -42.13     2163.661     1.166           25     1.085      6.998     83.75559  19.7120        312
 3.50   0.0116    741.7999    554.6925 -20.55      7825.88     1.429           25     1.401      2.644     83.75559  18.3162        313
 3.50   0.0322    737.1581   1156.5890 -27.41     2822.648     1.215           25     1.175      2.293     83.79352  19.4234        314
 6.88   0.2605    738.4052   1271.2267  18.82      349.325     0.739           25     0.453      2.264     83.79352  21.6919        315
 3.88   0.0284    735.0988    648.1861 -28.40     3199.422     1.236           25     1.140      2.464     83.75559  19.2873        316
 3.50   0.0003    725.6367    846.8282   8.09     347377.3     1.996           25     1.970      2.809     83.79352  14.1980        317
 3.50   0.0167    726.5267   1176.8077 -19.03     5445.221     1.345           25     1.276      2.461       83.803  18.7100        318
 8.21   0.0910    728.9957    751.5101 -89.92     999.2068     0.799           25     0.500      4.240     83.74611  20.5509        319
 5.34   0.2906    727.8087   1542.4133 -70.41     312.9545     0.728           25     0.454      1.835     83.74611  21.8113        320
 3.59   0.0456    720.4454   1393.5422  18.35     1996.846     1.348           25     1.077      2.812     83.77456  19.7991        321
 8.35   0.1901    721.4725    260.5168 -43.13      478.183     0.503           25     0.496      2.782     83.71765  21.3510        322
 3.50   0.0129    714.9188    806.8574 -17.41     7023.866     1.377           25     1.335      2.500     83.74611  18.4336        323
 3.50   0.0131    708.0578   1162.3623   0.33     6971.327     1.370           25     1.330      2.498     83.79352  18.4417        324
 7.71   0.1082    709.1875    193.1935  45.49     840.7445     0.764           25     0.569      3.657     83.72714  20.7383        325
 3.78   0.0109    703.7951   1337.5586 -20.26     8378.952     1.801           25     1.523      3.898     83.81248  18.2420        326
 3.50   0.0071    701.9553    951.0063 -42.48     12853.52     1.553           25     1.443      2.661     83.81248  17.7774        327
 6.91   0.2956    700.5187    649.5245  45.63     307.7221     0.505           25     0.494      2.000     83.74611  21.8296        328
 4.64   0.0269    698.0004    580.9234   8.03      3378.27     2.284           25     1.152      4.385     83.79352  19.2283        329
 7.19   0.1555    695.4855    275.0860  -1.35     584.5602     0.773           25     0.500      3.113     83.71765  21.1329        330
 3.71   0.0263    690.8048   1212.2382  44.32     3454.888     1.548           25     1.379      3.223     83.78404  19.2039        331
 4.17   0.0360    685.6292   1212.3170 -39.28     2526.117     1.258           25     1.058      2.631     83.78404  19.5439        332
 4.30   0.0542    686.5704    129.2008  -8.88     1678.917     1.096           25     1.030      2.405     83.74611  19.9874        333
 3.52   0.0085    684.5384    642.6415 -84.45      10748.1     1.616           25     1.447      2.775     83.77456  17.9717        334
 8.03   0.1622    676.4891    199.5104  44.78     560.4465     0.501           25     0.499      2.747     83.69868  21.1787        335
 7.14   0.3022    674.7531   1163.0059   0.29     301.2313     0.685           25     0.431      2.302     83.82195  21.8527        336
 5.82   0.0738    671.9800    229.6126 -11.33     1231.975     0.979           25     0.961      3.581     83.76508  20.3235        337
 5.57   0.0411    668.3409   1219.9712 -70.90     2214.584     1.340           25     1.182      4.152     83.81248  19.6868        338
 4.26   0.1224    665.8835   1178.6530  11.77     742.6697     0.950           25     0.745      2.034     83.72714  20.8730        339
 7.50   0.3712    665.5051   1068.5013  44.94     244.9024     0.505           25     0.494      2.429     83.69868  22.0775        340
 3.50   0.0003    647.4293   1462.9327 -70.59     341907.6     1.946           25     1.909      2.755     83.79352  14.2152        341
 3.72   0.0284    653.6917    869.2630  74.16      3197.15     1.239           25     1.190      2.481     83.75559  19.2881        342
 4.63   0.0490    644.7474    651.3193  51.41     1854.742     1.101           25     1.066      2.844     83.72714  19.8793        343
 4.83   0.0622    640.3434    274.9605  -7.46     1463.329     1.171           25     0.974      2.949     83.78404  20.1366        344
 3.50   0.0277    629.7487    804.5778   5.00     3285.134     1.254           25     1.197      2.380     83.82195  19.2586        345
 7.77   0.2121    630.4081    853.7961 -18.78     428.9438     0.751           25     0.452      2.877     83.77456  21.4690        346
 7.08   0.3412    628.4722    940.5145 -41.98     266.4902     0.502           25     0.497      2.173     83.71765  21.9858        347
 3.50   0.0163    622.7011   1580.3177  49.75     5571.048     1.321           25     1.312      2.505     83.68919  18.6852        348
 4.72   0.0345    617.3707   1150.1875 -13.40     2640.509     1.960           25     1.193      4.406       83.803  19.4958        349
 7.38   0.0864    618.4493     93.3292 -33.52     1052.227     0.988           25     0.686      4.448     83.73663  20.4947        350
 7.64   0.2261    615.4998    117.4616 -74.20        402.2     0.500           25     0.498      2.279     83.73663  21.5389        351
 6.35   0.2129    610.7074    994.0096  -3.64     427.3733     0.749           25     0.679      2.497     83.76508  21.4730        352
 6.91   3.6810    610.3042    961.6640  43.40     24.70748     0.565           25     0.339      1.838     83.74611  24.5679        353
 3.66   0.0875    608.5586    943.8754  26.72     1039.833     1.010           25     0.931      2.154     83.76508  20.5076        354
 6.65   0.3033    606.5120   1009.5204 -48.06     299.7572     0.501           25     0.498      1.955     83.72714  21.8581        355
 7.64   0.1989   1550.4803    350.5271  45.95     457.2249     0.505           25     0.494      2.263     83.73663  21.3997        356
 8.65   0.1579    598.4924    666.5140 -45.30     575.6556     0.506           25     0.493      3.039     83.70817  21.1496        357
 6.73   0.1098    592.9932    881.0345  43.18      828.787     0.800           25     0.788      3.321     83.79352  20.7539        358
 5.36   0.0623   1592.4144   1383.2700 -15.98     1461.535     1.198           25     0.926      3.336     83.83143  20.1380        359
 3.72   0.2045   1561.7380   1564.7104 -46.14     444.8035     0.922           25     0.752      2.171     83.74611  21.4296        360
 5.59   0.0536   1584.8809   1068.1311  39.68     1697.719     1.115           25     1.010      3.208     83.74611  19.9753        361
 5.37   0.0798   1522.7218    377.1894  58.52     1140.038     1.423           25     0.793      3.500     83.81248  20.4077        362
 3.50   0.0540   1535.1891   1427.3427 -50.78     1685.256     2.044           25     0.942      3.648     83.82195  19.9833        363
 4.92   0.0868   1590.3356    565.3453  39.61      1048.33     0.970           25     0.851      2.095     83.74611  20.4988        364
 3.71   0.0398    911.2531    999.6954 -23.48     2286.912     1.153           25     1.085      2.201     83.73663  19.6519        365
 3.50   0.0226    911.7423    837.0168  17.34     4029.287     1.285           25     1.216      2.404     83.79352  19.0369        366
 3.50   0.0395   1514.6006   1545.8663  72.70     2305.483     1.525           25     1.140      3.105     83.83143  19.6431        367
 4.17   0.0798   1580.3745   1412.9325  34.91     1140.809     1.257           25     1.000      2.698       83.803  20.4070        368
 5.86   0.0636   1527.5155    731.5428  47.38     1428.878     1.125           25     0.849      3.416     83.72714  20.1625        369
 3.59   0.0106   1569.3876     90.9186 -53.66     8582.424     1.441           25     1.368      2.592       83.803  18.2160        370
 3.76   0.0129   1583.9315   1107.3550  12.90     7040.418     1.405           25     1.363      2.647     83.76508  18.4310        371
 4.29   0.0169   1545.0386    861.8808  54.15     5396.714     1.763           25     1.527      3.864     83.75559  18.7197        372
 3.58   0.0070   1541.5220    652.9828 -62.99      12978.2     1.492           25     1.479      2.647       83.803  17.7670        373
 3.50   0.0003   1557.0219    485.9576 -55.36     300370.2     1.948           25     1.916      2.746     83.81248  14.3559        374
 3.70   0.1251   1574.2651   1489.9102 -79.37     726.9071     0.947           25     0.750      1.917     83.75559  20.8963        375
 3.69   0.0082   1565.5607     20.2036 -43.75     11105.33     1.446           25     1.426      2.642     83.78404  17.9362        376
 6.08   0.0687   1562.0154    384.6225 -65.54     1324.599     1.333           25     0.865      4.362     83.76508  20.2448        377
 3.50   0.0003   1562.5835    302.4617 -55.01     302858.5     1.935           25     1.904      2.782     83.77456  14.3469        378
 6.29   0.2066   1570.4812   1336.9929   1.21     440.5033     0.777           25     0.499      2.397     83.78404  21.4401        379
 3.90   0.0119   1564.7999    782.9744 -74.98     7613.701     2.107           25     1.524      4.042     83.76508  18.3460        380
 4.00   0.5913   1551.1445   1512.1693  44.22     153.9373     0.747           25     0.568      1.941     83.81248  22.5816        381
 3.50   0.0051   1540.7150    133.3156 -60.59     17891.38     1.541           25     1.512      2.625     83.69868  17.4184        382
 4.36   0.0372   1549.9768   1220.6022   7.01      2449.21     1.213           25     1.118      2.725     83.78404  19.5774        383
 3.58   0.0167   1560.2474    859.8215 -43.99     5462.185     1.348           25     1.294      2.558       83.803  18.7066        384
 3.50   0.0010   1551.5745    680.5765 -24.65     91496.35     4.830           25     4.082      8.771       83.803  15.6465        385
 4.96   0.1655   1537.6702    261.8769 -68.69     549.3021     0.886           25     0.689      2.319     83.71765  21.2005        386
 7.88   0.1094   1553.2987   1231.3453 -42.70     830.6125     0.567           25     0.338      2.606     83.69868  20.7515        387
 5.61   0.0988   1534.7047    918.0706 -10.97     920.3273     0.727           25     0.663      2.246     83.72714  20.6401        388
 7.74   0.0637   1533.4845    974.0283 -62.62     1428.617     1.060           25     0.657      4.730     83.77456  20.1627        389
 8.35   0.1039   1538.0134    504.4654 -88.96     876.1356     0.807           25     0.499      3.565     83.82195  20.6936        390
 3.76   0.0218   1503.1592    721.7394 -78.01     4172.015     1.300           25     1.280      2.595     83.79352  18.9991        391
 4.80   0.0340   1531.6218    414.0755  10.09     2673.069     1.560           25     1.341      3.879     83.79352  19.4825        392
 5.02   0.0737   1521.5660     12.5948  37.45     1235.137     0.972           25     0.870      2.840     83.79352  20.3207        393
 5.53   0.1825   1497.0098   1231.4792 -89.27     498.5831     0.778           25     0.500      1.930     83.79352  21.3057        394
 5.09   0.0658   1518.1111     83.3417 -65.31      1382.76     1.147           25     1.036      3.319     83.73663  20.1981        395
 5.67   0.0440   1519.2120   1099.3176 -88.46     2069.635     1.549           25     1.045      4.277       83.803  19.7603        396
 5.76   0.1348   1526.1066    877.3820 -21.44     674.9302     0.904           25     0.681      2.812     83.77456  20.9769        397
 3.50   0.0006   1506.1300    267.6239 -53.50     164058.1     1.857           25     1.839      2.752       83.803  15.0125        398
 6.48   0.1715   1501.1704   1412.1464  47.35     530.7256     0.754           25     0.571      2.587     83.81248  21.2378        399
 7.24   0.2644    916.6699   1111.6492 -44.19     344.0302     0.583           25     0.330      1.942     83.74611  21.7085        400
 3.50   0.0023   1513.8696    390.9695 -28.30     40298.77     1.653           25     1.645      2.636     83.78404  16.5368        401
 6.33   0.1637   1496.5107    671.5501  68.94     555.4669     0.500           25     0.497      1.856     83.73663  21.1884        402
 6.13   0.1054    913.7955   1117.9650  89.84     862.9787     0.909           25     0.759      3.198     83.79352  20.7100        403
 4.01   0.0413   1513.6278    481.9716 -66.07     2203.443     1.166           25     1.121      2.381       83.803  19.6922        404
 3.62   0.0643   1497.6539    842.8762 -23.08      1414.09     1.083           25     0.990      2.291     83.74611  20.1738        405
 6.13   0.0919   1503.3531   1310.4663  16.49     989.9847     0.938           25     0.817      3.451     83.76508  20.5609        406
 5.43   0.0240    937.3623    514.6446  59.14     3785.885     1.931           25     1.402      5.568     83.81248  19.1046        407
 5.51   0.0957   1476.0063    197.0533   0.59     951.4691     1.018           25     0.729      3.045     83.85985  20.6040        408
 7.13   0.1499   1495.4739    928.5216 -44.56     606.8985     0.506           25     0.492      2.289     83.74611  21.0922        409
 6.36   0.0754   1502.9595   1095.0165 -41.47     1206.845     0.793           25     0.772      3.206     83.81248  20.3459        410
 3.70   0.0436    946.8018    443.5114 -10.81     2086.719     1.260           25     1.071      2.656     83.76508  19.7513        411
 7.68   0.2220    918.6908   1343.3204  44.39     409.6955     0.561           25     0.341      2.469     83.73663  21.5188        412
 3.50   0.2188    931.4678   1116.4857   3.76     415.5921     0.907           25     0.890      2.348     83.71765  21.5033        413
 3.74   0.0322   1481.3601    573.6433 -44.00     2822.625     2.130           25     1.338      4.129     83.81248  19.4234        414
 6.65   0.1158    925.0899    664.8290  47.37     785.2205     0.825           25     0.664      3.226     83.75559  20.8125        415
 4.49   0.0517   1487.1832     76.2658  28.20     1762.105     1.246           25     1.125      2.677     83.81248  19.9349        416
 6.73   0.1575    952.4832   1502.9939   0.94       577.72     0.778           25     0.500      2.814     83.77456  21.1457        417
 5.33   0.0306   1474.0706    996.7557 -15.34     2974.687     2.365           25     1.101      5.567     83.75559  19.3664        418
 6.90   0.1676    924.3528    309.3077 -47.02     542.4855     0.574           25     0.334      2.078     83.71765  21.2140        419
 9.05   0.1023   1477.4849   1022.4782  45.65     888.9783     0.505           25     0.494      3.030     83.71765  20.6778        420
 3.50   0.0402   1431.1808    339.1158  21.39     2262.199     1.771           25     1.214      3.331     83.79352  19.6637        421
 4.25   0.0385    964.0634    414.7780 -20.00     2366.955     1.154           25     1.125      2.507     83.81248  19.6145        422
 8.41   0.1771    949.3171    825.3550 -43.42      513.549     0.579           25     0.332      2.586     83.75559  21.2735        423
 7.34   0.2142    958.5072    891.5318 -57.35      424.474     0.501           25     0.498      2.201     83.72714  21.4804        424
 3.50   0.0163    927.3716   1321.0503 -44.22     5595.892     1.369           25     1.315      2.551     83.81248  18.6803        425
 8.90   0.0982   1410.6099    365.6008 -68.79     926.4417     1.072           25     0.321      4.853     83.75559  20.6330        426
 4.19   0.0214    949.7249    652.6889  88.42     4241.314     1.952           25     1.462      4.226     83.70817  18.9812        427
 3.50   0.0095    938.2878   1065.6573  74.01     9592.464     1.431           25     1.383      2.506     83.73663  18.0952        428
 5.44   0.1639   1456.9949    610.2800  87.17     555.2079     0.739           25     0.672      2.025     83.77456  21.1889        429
 5.84   0.0965    940.4291    724.3670  44.87      942.807     1.027           25     0.884      3.403     83.79352  20.6139        430
 6.45   0.3504    976.3963   1279.2194  18.26     259.6458     0.737           25     0.454      2.168     83.77456  22.0140        431
 7.57   0.6467    954.3213   1027.6919  45.71     140.6029     0.561           25     0.341      2.073     83.72714  22.6800        432
 6.59   0.0038   1440.8312   1081.2878  45.57     24158.08     4.028           25     1.419      9.104     83.76508  17.0923        433
 5.25   0.0817    981.3622   1485.5789 -43.34      1113.67     0.964           25     0.854      2.769       83.803  20.4331        434
 3.50   0.1699   1452.4899    389.8003 -66.94     535.2249     0.945           25     0.927      2.055     83.75559  21.2287        435
 5.57   0.1517   1027.1073    462.1880 -47.15     599.5356     0.806           25     0.667      2.421     83.75559  21.1055        436
 6.77   0.0786    972.9857    546.9538 -17.77     1157.942     0.790           25     0.782      4.341     83.79352  20.3908        437
 3.50   0.0051   1434.2510    223.0160 -46.78     17957.13     1.518           25     1.487      2.578     83.81248  17.4144        438
 4.36   0.0170    979.8970    796.3403 -56.67     5337.723     1.728           25     1.564      4.222     83.71765  18.7316        439
 4.47   0.0589   1445.3281    729.7343   3.53     1543.398     1.035           25     0.950      2.261     83.72714  20.0788        440
 3.84   0.0336   1405.3000    328.1622 -84.26     2708.977     1.220           25     1.132      2.373     83.69868  19.4680        441
 7.94   0.1950    983.5096    952.4819 -45.47     466.4247     0.507           25     0.493      2.409     83.73663  21.3780        442
 5.40   0.1402   1448.3313     86.1749 -68.16     649.1052     0.891           25     0.684      2.352       83.803  21.0192        443
 4.51   0.0396   1437.7814   1269.7209  37.09     2295.859     1.171           25     1.133      2.793     83.81248  19.6476        444
 3.84   0.0080   1119.2284    328.0840  57.85      11391.1     2.792           25     1.753      5.145     83.77456  17.9086        445
 3.55   0.0830   1435.4414   1345.9382   2.19      1095.93     1.048           25     0.935      2.227     83.77456  20.4505        446
 5.35   0.0805   1437.6959    645.8911   7.62     1128.582     1.135           25     0.877      3.229     83.69868  20.4187        447
 3.50   0.0069   1438.7836    617.5071  -4.26     13235.23     1.460           25     1.417      2.545     83.78404  17.7457        448
 5.33   0.1344   1128.8336    503.1409  44.77     676.9277     0.809           25     0.680      2.206     83.79352  20.9736        449
 4.33   0.0526   1272.8525    696.4070 -22.77     1730.502     1.324           25     1.119      3.195     83.85037  19.9546        450
 5.64   0.1494   1027.2592    350.3917 -20.86     609.3401     0.964           25     0.594      2.543      83.8409  21.0879        451
 7.02   0.3089   1124.4945    274.5286  49.23     294.3827     0.502           25     0.497      1.972     83.73663  21.8777        452
 5.01   0.0361    977.1620    451.1199 -76.12     2520.041     1.347           25     1.151      3.485     83.76508  19.5465        453
 5.83   0.1519   1126.8915    836.1245  46.41     598.5361     0.841           25     0.670      2.466     83.72714  21.1073        454
 3.50   0.0002   1392.3209    112.7096 -60.32     410336.5     1.989           25     1.948      2.776     83.72714  14.0171        455
 5.65   0.0748   1402.7693   1361.5898  13.15     1217.371     0.956           25     0.941      3.618     83.81248  20.3364        456
 8.22   0.4815   1422.6824   1595.3485  43.67     179.1039     0.577           25     0.333      2.433     79.41354  22.4172        457
 8.51   0.0778   1128.5022    872.4724  70.37     1169.315     0.500           25     0.499      3.001     83.72714  20.3802        458
 7.47   0.2506   1419.3876    427.8067 -18.74     362.8759     0.761           25     0.445      2.674     83.72714  21.6506        459
 3.50   0.0006   1137.4629    146.3137 -65.78     160226.6     1.872           25     1.855      2.768     83.72714  15.0382        460
 3.64   0.0106   1414.4452   1385.1593 -77.94     8567.598     1.389           25     1.358      2.509     83.81248  18.2179        461
 3.50   0.0070   1407.1079    306.5768 -57.65     12907.67     1.473           25     1.412      2.534     83.75559  17.7729        462
 3.85   0.0248   1410.1370    348.2293  47.50     3671.275     1.704           25     1.337      3.527     83.78404  19.1380        463
 3.50   0.0024   1387.8843   1427.1151 -42.27     38370.47     1.627           25     1.610      2.620     83.70817  16.5900        464
 3.50   0.0006   1318.9795    658.3513 -51.83     154995.4     1.867           25     1.837      2.770       83.803  15.0742        465
 5.96   0.1391   1305.8440    572.6506 -19.87     654.3616     0.923           25     0.675      2.947       83.803  21.0105        466
 3.50   0.0020   1371.5431   1017.4425 -35.96     45240.37     1.844           25     1.698      2.809     83.76508  16.4112        467
 4.14   0.0442   1387.9163    805.0239 -17.20     2058.114     1.106           25     1.094      2.410     83.78404  19.7663        468
 5.75   0.1508   1387.8052   1583.8373 -41.79     603.2603     0.811           25     0.665      2.579     83.78404  21.0987        469
 4.37   0.0192   1399.7484   1029.9731  35.66     4748.845     1.571           25     1.396      3.410     83.81248  18.8585        470
 3.50   0.0069   1389.4093    711.6742  61.01     13249.45     1.534           25     1.468      2.668     83.82195  17.7445        471
 3.57   0.0100   1391.3361   1037.2961 -38.86     9069.439     1.442           25     1.415      2.674     83.74611  18.1560        472
 3.50   0.0042   1277.2167   1329.9503 -88.20     21876.91     1.568           25     1.535      2.638       83.803  17.2000        473
 6.47   0.0714   1392.0364   1532.6101   0.68     1275.183     1.020           25     0.785      3.762     83.79352  20.2861        474
 5.91   0.0483   1384.6724   1273.8531  78.25     1882.805     1.016           25     0.747      3.706     83.74611  19.8630        475
 8.83   0.1148   1384.5093   1383.5004  41.64     791.7346     0.500           25     0.500      3.002      83.6797  20.8036        476
 6.48   0.0689   1305.5121    842.8745  13.71     1319.688     1.074           25     0.970      4.272     83.71765  20.2488        477
 7.37   0.2855   1369.6818    705.2957  46.33     318.4019     0.554           25     0.344      1.971     83.71765  21.7926        478
 4.88   0.1244   1345.9719    192.7731   0.40     731.5953     0.903           25     0.749      2.445       83.803  20.8893        479
 4.11   0.0760   1378.3208    317.2925 -13.39     1196.618     1.088           25     0.960      2.626     83.73663  20.3551        480
 5.40   0.1276   1361.8470    389.3581 -14.68     713.0455     1.054           25     0.727      3.131       83.803  20.9172        481
 4.54   0.1075   1367.3254    147.8780  53.16      846.348     0.998           25     0.825      2.630     83.75559  20.7311        482
 3.50   0.0289   1318.3370    262.3694 -37.88     3146.973     1.280           25     1.184      2.412     83.79352  19.3053        483
 5.45   0.0276   1351.3975    150.3783  78.48     3296.412     1.935           25     1.440      5.605     83.77456  19.2549        484
 3.50   0.0382   1329.4015    385.2875  20.28     2384.726     1.217           25     1.172      2.461     83.77456  19.6064        485
 3.71   0.0606   1345.2412    603.6646 -67.92     1501.271     1.354           25     1.065      2.770     83.78404  20.1089        486
 7.13   0.1837   1351.5321    473.5340 -45.99     494.9449     0.501           25     0.497      2.139     83.71765  21.3136        487
 3.61   0.0204   1331.7163    105.7077 -17.12     4467.725     1.313           25     1.240      2.483     83.72714  18.9248        488
 3.50   0.0061   1306.4722    668.0397 -42.74      14993.3     1.561           25     1.506      2.701     83.78404  17.6103        489
 3.50   0.0050   1328.8700    654.2535   3.86     18344.38     1.667           25     1.624      2.929     83.74611  17.3912        490
 4.78   0.0662   1290.5552    544.2146 -19.52      1373.61     1.009           25     0.925      2.602     83.79352  20.2053        491
 3.50   0.0001   1297.3068    723.3258 -20.11     965837.7     2.569           25     2.084      2.864     83.72714  13.0877        492
 6.65   0.0822   1324.2008    632.0477  12.67     1107.636     1.218           25     0.651      3.947      83.8409  20.4390        493
 3.90   0.0223   1303.7844    891.3276 -50.07     4078.163     1.282           25     1.254      2.525      83.8409  19.0238        494
 7.32   0.1773   1302.4843     40.5543  59.18     513.1622     0.501           25     0.496      2.396     83.75559  21.2744        495
 5.35   0.1310   1282.1034   1567.6960 -75.79     693.9378     0.725           25     0.664      2.283     83.68919  20.9467        496
 4.39   0.0543   1298.2344     52.2682 -40.63     1674.469     1.100           25     1.066      2.546     83.79352  19.9903        497
 3.50   0.0197   1291.6096    411.0975 -20.13     4610.229     1.350           25     1.232      2.422     83.74611  18.8907        498
 4.58   0.0446   1261.1510    853.7941 -51.72     2040.311     1.163           25     1.074      2.743      83.8409  19.7758        499
 3.50   0.0025   1290.3988    760.5972 -26.64     36049.04     2.181           25     1.654      3.093       83.803  16.6578        500
 3.50   0.0054   1264.4102    806.2888  -2.02      17001.8     1.508           25     1.497      2.602     83.77456  17.4738        501
 3.50   0.0016   1271.8014    608.2728 -57.85     57517.18     4.463           25     2.548      6.839     83.82195  16.1505        502
 3.50   0.0018   1209.7850   1277.4983  81.55     49992.99     6.002           25     3.576      9.726     83.75559  16.3027        503
 7.27   0.1605   1155.5150    349.9638  -1.96     566.7932     0.782           25     0.499      2.809     83.77456  21.1664        504
 4.04   0.1225   1276.7361    341.9587  89.47     742.8107     0.883           25     0.745      1.988     83.78404  20.8728        505
 3.66   0.0104   1206.7316    837.2612 -14.96      8770.82     1.415           25     1.399      2.599     83.74611  18.1924        506
 3.88   0.0131   1258.4160    430.7781   0.30     6943.511     2.067           25     1.998      4.723     83.76508  18.4461        507
 3.50   0.1092   1261.2987    214.4610  -7.60     832.8074     0.965           25     0.934      2.117     83.73663  20.7486        508
 3.50   0.0019   1217.9849   1193.4705  59.35     49190.64     1.914           25     1.829      2.893      83.8409  16.3203        509
 3.74   0.0416   1236.6903     46.4942  12.62      2186.44     1.173           25     1.092      2.385     83.70817  19.7007        510
 5.63   0.0187   1228.8633    597.4689 -32.56     4872.869     1.748           25     1.636      6.098     83.75559  18.8305        511
 4.39   0.0119   1211.9121   1427.8794  69.21     7640.487     2.582           25     2.167      5.899     83.71765  18.3422        512
 3.50   0.0065   1233.3027    303.1225 -36.25     14003.51     1.472           25     1.459      2.559     83.71765  17.6844        513
 7.11   0.2479   1172.4825    206.5125 -43.56     366.7861     0.501           25     0.498      2.115     83.72714  21.6390        514
 3.56   0.0105   1236.1771   1552.1875 -48.84     8627.858     1.441           25     1.352      2.618     83.77456  18.2102        515
 5.99   0.0907   1242.9928    612.1877   2.24     1002.803     0.894           25     0.744      3.305     83.72714  20.5470        516
 4.51   0.0097   1193.9963    122.4217 -71.91     9341.733     2.227           25     1.840      5.237     83.77456  18.1239        517
 5.83   0.0527   1237.0295    855.9278  73.69     1725.319     1.172           25     1.153      4.220     83.78404  19.9578        518
 4.43   0.0428   1227.8544   1152.1260 -44.07     2124.884     1.137           25     1.075      2.563     83.74611  19.7317        519
 3.50   0.0012   1213.5891    511.3575 -21.22     75712.54     1.756           25     1.722      2.729     83.79352  15.8521        520
 7.34   0.1908   1222.3035    828.6625  43.30     476.6292     0.566           25     0.339      2.174     83.73663  21.3545        521
 5.13   0.1160   1171.7573    231.0094 -85.08     784.6083     0.909           25     0.746      2.622       83.803  20.8134        522
 5.24   0.0611   1220.3372   1429.9242  73.25     1487.613     1.274           25     1.069      3.599     83.73663  20.1188        523
 4.81   0.0752   1203.3542   1215.9109  81.93     1209.786     0.973           25     0.845      2.445     83.73663  20.3432        524
 6.62   0.4085   1195.7742   1332.0226   0.96     222.8116     0.691           25     0.418      2.080       83.803  22.1802        525
 3.50   0.0110   1200.7493    337.4133  66.45     8283.518     1.404           25     1.400      2.566     83.82195  18.2545        526
 5.33   0.0723   1209.7607    827.6060  29.35     1258.512     1.047           25     0.807      2.992     83.79352  20.3004        527
 4.03   0.0304   1179.9944    547.8141   1.30     2991.749     1.213           25     1.157      2.586     83.73663  19.3602        528
 4.63   0.0818   1209.5675   1414.1831  15.76     1112.116     1.198           25     0.943      2.885       83.803  20.4346        529
 8.67   0.0992   1176.3215     16.3410 -44.14     916.5067     0.575           25     0.334      3.008     83.75559  20.6447        530
 3.50   0.0162   1200.0382   1440.7582  67.54     5611.845     1.786           25     1.594      3.448     83.83143  18.6772        531
 3.50   0.0599   1180.7412    174.5659 -16.48     1520.091     1.129           25     1.064      2.309       83.803  20.0953        532
 4.94   0.1236   1184.0728    312.2089  -5.46     736.4941     0.882           25     0.741      2.128     83.82195  20.8821        533
 8.47   0.1272   1179.4666   1402.5000 -42.39      715.191     0.506           25     0.493      2.860     83.75559  20.9139        534
 3.79   0.0125   1150.1085     97.7642 -19.21     7283.474     1.397           25     1.352      2.632     83.73663  18.3942        535
 3.88   0.0277   1129.1823    217.8823  -8.95     3289.845     1.511           25     1.231      3.014     83.79352  19.2571        536
 3.50   0.0004   1164.2880   1298.2457 -66.57       257032     1.922           25     1.880      2.749     83.73663  14.5250        537
 4.74   0.0861   1176.0353   1597.4540  -2.43     915.5153     0.991           25     0.774      2.287     72.61108  20.6458        538
 3.96   0.0188   1152.6783   1351.5414  56.22      4835.21     1.585           25     1.541      3.466     83.75559  18.8390        539
 4.23   0.0270   1160.7585    886.2136  15.39     3364.859     1.249           25     1.172      2.540     83.79352  19.2326        540
 4.56   0.0443   1166.0389   1598.8734  88.25     1638.342     1.197           25     0.942      2.639      66.8711  20.0140        541
 3.50   0.0031   1156.7683    234.6826 -32.68     29769.22     1.622           25     1.599      2.675     83.77456  16.8656        542
 6.81   0.1038   1157.1354    184.1379 -46.27     876.0501     0.849           25     0.677      2.913     83.74611  20.6937        543
 5.22   0.0686   1155.0981    565.7803 -81.63     1326.379     1.247           25     0.919      3.298     83.73663  20.2433        544
 5.48   0.0904   1146.8527    110.7027 -22.17     1005.923     0.883           25     0.684      2.388     83.69868  20.5436        545
 3.50   0.0011   1128.9263    181.7753 -55.46      83520.3     1.777           25     1.732      2.717     83.79352  15.7455        546
 6.42   0.0698   1073.6285    350.7908  28.79     1303.199     1.109           25     0.897      4.068     83.79352  20.2625        547
 4.05   0.0261   1128.1890    545.7462 -40.72     3482.402     1.251           25     1.189      2.600     83.83143  19.1953        548
 6.69   0.3908   1129.4607   1143.4618 -44.58     232.7702     0.501           25     0.496      1.983     83.76508  22.1327        549
 4.43   0.0634   1130.0223    357.5392 -42.79     1435.985     1.030           25     1.003      2.705     83.81248  20.1571        550
 4.23   0.1878   1105.8722   1265.8270 -46.31     484.4806     0.799           25     0.674      2.064     83.78404  21.3368        551
 8.14   0.0829   1028.0111    178.7182  87.98     1097.772     0.748           25     0.680      4.072     83.79352  20.4487        552
 4.82   0.0919   1026.8101    605.8358 -44.10     989.6818     0.871           25     0.841      2.376     83.79352  20.5613        553
 6.77   0.1003   1115.3961   1168.6317 -30.28     907.2459     1.105           25     0.740      3.570       83.803  20.6557        554
 6.74   0.1199   1107.9915   1122.0051  89.83     758.7173     0.623           25     0.611      2.591     83.76508  20.8498        555
 5.43   0.0126   1110.1667    477.8314  30.36      7217.25     3.002           25     1.979      8.092     83.81248  18.4041        556
 3.50   0.0026   1106.4496    426.3223 -10.02     35380.58     1.654           25     1.641      2.719     83.72714  16.6781        557
 3.50   0.0446   1064.9115   1595.7524 -49.92       1903.6     1.137           25     1.109      2.313     78.25489  19.8511        558
 7.47   0.0011   1088.4707    781.3342  49.66     83299.55     1.292           25     0.498      4.063     83.72714  15.7484        559
 5.67   0.0942   1062.9246    290.3387 -15.23     965.6418     1.014           25     0.742      3.001     83.75559  20.5880        560
 4.62   0.0524   1065.8292    567.3412 -61.86     1737.268     1.297           25     1.030      3.118     83.81248  19.9503        561
 3.50   0.0204   1094.6127   1525.2114 -18.99     4464.338     1.304           25     1.225      2.346     83.76508  18.9256        562
 5.00   0.0219   1089.9391    466.5366 -58.07     4150.979     2.613           25     1.233      5.429     83.75559  19.0046        563
 6.50   0.0346   1091.8363    427.4894  24.08     2629.012     1.826           25     1.293      6.219     83.75559  19.5005        564
 3.50   0.0631   1093.6808   1134.7931 -22.24     1443.014     1.078           25     0.992      2.172     83.78404  20.1518        565
 3.50   0.0005   1079.0300    510.4799 -37.68     169923.2     1.880           25     1.863      2.762     83.77456  14.9744        566
 3.50   0.0004   1039.2594    631.4073 -47.61     218329.8     1.893           25     1.873      2.753      83.8409  14.7022        567
 3.50   0.0018   1080.8483   1146.6909 -24.35     49279.18     1.677           25     1.666      2.673     83.72714  16.3183        568
 5.20   0.0609   1087.3164    395.1666  57.95     1494.551     1.234           25     0.955      3.143     83.78404  20.1137        569
 3.95   0.0334   1078.2657    328.4388 -25.72     2724.385     1.219           25     1.190      2.566     83.78404  19.4618        570
 4.20   0.0541   1085.4874   1451.3422  70.17     1682.366     1.400           25     1.115      3.164     83.74611  19.9852        571
 7.72   0.0446   1066.6331   1472.0443  47.06     2039.955     1.378           25     0.913      5.562     83.82195  19.7759        572
 5.67   0.1215   1078.0466    920.9127 -72.75     748.3805     0.780           25     0.776      2.558     83.74611  20.8647        573
 3.50   0.1486   1018.5951   1153.3916 -37.83     612.1583     0.969           25     0.861      2.079     83.76508  21.0828        574
 5.17   0.1030    992.0784    498.0102 -32.96     883.9052     0.783           25     0.775      2.394       83.803  20.6840        575
 6.16   0.1215   1077.0077    466.9885   0.40     748.2676     0.620           25     0.610      2.342     83.74611  20.8649        576
 4.21   0.0090   1071.2057   1217.5162 -68.65     10081.32     2.239           25     1.930      5.117     83.77456  18.0412        577
 4.76   0.0166   1064.2319   1561.6675 -68.85     5478.743     2.501           25     1.627      5.741     83.79352  18.7033        578
 3.50   0.0020   1037.6990    523.7823  88.97      44535.9     1.696           25     1.681      2.718     83.75559  16.4282        579
 6.06   0.1079   1051.8007    398.9987 -88.71     843.4868     0.927           25     0.749      3.155       83.803  20.7348        580
 7.31   0.3283   1028.6842    945.6791 -44.74     276.9598     0.564           25     0.340      2.230     83.73663  21.9440        581
 5.45   0.1039   1042.1552    808.1166 -41.56     875.6776     0.810           25     0.670      2.128     83.75559  20.6941        582
 8.33   0.2420   1047.4857    206.5130  44.74     375.7051     0.502           25     0.498      3.011     83.71765  21.6129        583
 4.35   0.0905   1051.3973    235.9645  16.35     1005.735     1.202           25     0.946      3.098     83.79352  20.5438        584
 7.86   0.2476   1032.5078    491.5200 -50.77      367.261     0.501           25     0.499      2.687     83.73663  21.6376        585
 7.64   0.1317   1046.7662   1157.0314   1.40     691.1885     0.691           25     0.423      2.630     83.81248  20.9510        586
 6.06   0.1117   1036.1702    240.3378 -20.06     814.8609     0.898           25     0.679      2.914     83.79352  20.7723        587
 6.17   0.0556   1039.5272    465.5916  20.18     1637.892     1.125           25     1.003      4.354     83.81248  20.0143        588
 5.13   0.3649   1028.5894   1033.7855  19.51     249.3123     0.735           25     0.452      1.878     83.76508  22.0581        589
 5.26   0.1353   1041.7097   1094.2051  37.41     672.2076     1.048           25     0.688      2.942     83.74611  20.9812        590
 3.93   0.0098   1029.2343    300.9294  68.86     9311.623     2.735           25     1.854      5.035     83.78404  18.1274        591
 5.12   0.1115   1016.3457    199.5304  20.23     815.9876     0.959           25     0.826      2.601     83.74611  20.7708        592
 5.04   0.0524   1020.2978   1267.2831  48.45      1733.92     2.139           25     0.808      4.244     83.69868  19.9524        593
 4.74   0.0130    985.6621    452.4799  64.48     6990.376     2.100           25     1.781      5.268     83.72714  18.4387        594
 3.50   0.0009   1024.8750   1378.5491 -86.83     99322.54     1.855           25     1.738      2.704     83.72714  15.5574        595
 3.50   0.0011   1008.8733    812.1113  37.36     85269.89     1.770           25     1.759      2.718     83.71765  15.7230        596
 4.25   0.0721   1013.5488    451.3266   9.02     1260.806     1.153           25     0.984      2.667     83.72714  20.2984        597
 3.50   0.0069   1010.2905    343.0790 -29.81     13142.85     1.491           25     1.453      2.620     83.72714  17.7533        598
 5.33   0.1344    991.3466    344.4591 -20.15     676.6762     0.933           25     0.811      2.406     83.76508  20.9740        599
 3.50   0.0006    983.9279    556.8673 -87.44     151655.4     1.840           25     1.832      2.723     83.71765  15.0979        600
 5.77   0.0506   1010.0002    266.0417  37.06     1799.282     1.152           25     1.136      4.187       83.803  19.9123        601
 3.50   0.0063   1000.7599    541.0183  23.68     14344.35     1.539           25     1.501      2.691     83.81248  17.6583        602
 3.50   0.3708   1003.1661   1236.6719  23.68     245.3609     0.918           25     0.672      2.155     83.78404  22.0755        603
 3.50   0.0157   1000.5397   1554.0548  -5.84     5797.524     1.339           25     1.272      2.402     83.75559  18.6419        604
 3.50   0.0212    998.8932   1272.4302 -42.66     4289.313     1.338           25     1.237      2.393     83.74611  18.9690        605
