#   1 KRON_RADIUS            Kron apertures in units of A or B                         
#   2 MAGERR_APER            RMS error vector for fixed aperture mag.                   [mag]
#   3 Y_IMAGE                Object position along y                                    [pixel]
#   4 X_IMAGE                Object position along x                                    [pixel]
#   5 THETA_IMAGE            Position angle (CCW/x)                                     [deg]
#   6 FLUX_APER              Flux vector within fixed circular aperture(s)              [count]
#   7 A_IMAGE                Profile RMS along major axis                               [pixel]
#   8 THRESHOLD              Detection threshold above background                       [count]
#   9 B_IMAGE                Profile RMS along minor axis                               [pixel]
#  10 FLUX_RADIUS            Fraction-of-light radii                                    [pixel]
#  11 FLUXERR_APER           RMS error vector for aperture flux(es)                     [count]
#  12 MAG_APER               Fixed aperture magnitude vector                            [mag]
#  13 NUMBER                 Running object number                                     
 4.27   0.0005     53.2285     63.7742  -2.74     28848.55     4.404           15     4.007      9.899     13.17053  16.8997          1
 4.33   0.0030     16.3044    985.0226 -87.82     4759.294     3.688           15     1.825      6.962     13.16606  18.8561          2
 4.07   0.0036     18.0125     91.3880 -63.52     3933.322     1.651           15     1.570      3.282     13.16606  19.0631          3
 3.50   0.0014     14.6138   1445.7917 -52.45     10076.85     1.870           15     1.806      3.215     13.16159  18.0417          4
 7.08   0.0266     17.0088    384.7113 -85.01     538.5212     0.733           15     0.676      3.384     13.16904  21.2220          5
 5.18   0.0170     24.6807    367.1530 -22.26     841.5439     1.213           15     1.050      3.170     13.16308  20.7373          6
 3.50   0.0003     59.7943   1078.5426  78.54     46061.76     2.290           15     2.178      3.454     13.17798  16.3916          7
 3.50   0.0003     80.1343    537.6766 -39.94      44486.3     2.198           15     2.143      3.383     13.15712  16.4294          8
 4.41   0.0086     75.0783    128.1779 -45.31     1662.212     1.483           15     1.375      3.238     13.17053  19.9983          9
 3.50   0.0002    121.8205    789.2079 -57.78     65850.78     2.257           15     2.200      3.399     13.16606  16.0036         10
 4.36   0.0059     96.6213     56.2591 -27.79     2441.149     1.550           15     1.496      3.347     13.17351  19.5810         11
 8.72   0.0334     82.3262    421.3430 -44.29     428.0639     0.578           15     0.333      2.878     13.16308  21.4712         12
 8.98   0.0158     90.5028    376.9697   0.25     905.3552     0.809           15     0.500      4.160      13.1601  20.6580         13
 7.62   0.0244     97.9985    452.9957 -44.10     585.8167     0.897           15     0.535      3.624     13.16606  21.1306         14
 3.50   0.0004    162.2912   1468.3754 -61.62     37307.38     2.138           15     2.082      3.347     13.16606  16.6205         15
 3.61   0.0017    170.2583    877.3432 -57.04     8458.538     1.850           15     1.787      3.288     13.16308  18.2318         16
 5.67   0.0188    164.8608   1445.7177 -66.82     760.1988     1.143           15     1.020      3.425      13.1601  20.8477         17
 5.49   0.0266    166.7144    104.4765 -15.27     537.4549     0.997           15     0.941      2.896     13.15712  21.2241         18
 5.91   0.0134    192.5169   1350.5178 -61.72     1068.968     1.214           15     1.196      4.724     13.15861  20.4776         19
 4.19   0.0082    206.7009    549.1866 -29.35     1735.058     1.425           15     1.358      3.089     13.16308  19.9517         20
 5.62   0.0040    210.5408    827.6758  -5.63     3560.021     2.735           15     1.779      8.065     13.16457  19.1714         21
 4.37   0.0082    212.1142   1306.1636 -54.87     1741.984     1.451           15     1.360      3.164     13.16755  19.9474         22
 6.08   0.0046    229.6508    562.2986 -10.00     3125.314     2.622           15     2.362      9.083     13.15115  19.3128         23
 7.67   0.0262    210.7098    684.9471   5.90     545.5815     0.739           15     0.683      3.569     13.16159  21.2078         24
 4.03   0.0072    223.9435   1226.1060 -71.74     1996.727     1.479           15     1.414      3.070     13.16159  19.7992         25
 3.50   0.0001    259.7716    997.4949 -49.16     114558.6     2.375           15     2.315      3.449     13.16308  15.4024         26
 5.81   0.0209    222.4698    774.9534  -2.23      685.009     1.090           15     0.945      3.052     13.16606  20.9608         27
 3.50   0.0002    265.9278     67.6582 -37.18     84200.95     2.300           15     2.264      3.400     13.16308  15.7367         28
 6.71   0.0101    243.7849    112.9405 -80.90     1415.057     1.516           15     1.209      5.995     13.16904  20.1731         29
 5.13   0.0042    255.2897    613.0684 -43.66     3405.177     2.125           15     1.773      5.720      13.1601  19.2197         30
 7.97   0.0243    239.1856    838.8074 -44.52     587.7296     0.763           15     0.567      3.829     13.16159  21.1271         31
 8.32   0.0214    250.4927    107.4911 -45.11     666.3206     0.503           15     0.497      3.020     13.15562  20.9908         32
 3.50   0.0007    287.5205   1486.5184 -58.45      19914.7     2.006           15     1.960      3.303     13.16159  17.3021         33
 3.71   0.0033    281.8881   1522.3986 -84.82     4385.979     1.660           15     1.609      3.178     13.16755  18.9448         34
 8.88   0.0324    270.5084   1273.4916 -45.00     441.5063     0.505           15     0.495      3.030     13.15413  21.4377         35
 3.50   0.0010    303.1597    201.8013 -20.33     14612.95     1.942           15     1.887      3.260     13.17202  17.6382         36
 6.79   0.0165    293.4639   1475.6927 -55.59      864.523     0.984           15     0.950      4.729     13.16457  20.7081         37
 5.55   0.0191    302.2210    563.7106  19.09     750.5594     1.074           15     1.044      3.292     13.16606  20.8615         38
 3.50   0.0015    322.0659    697.3301 -38.79     9694.831     1.840           15     1.788      3.226     13.16159  18.0836         39
 5.47   0.0078    327.3771    595.5006  -6.78     1840.943     1.606           15     1.439      4.787      13.1601  19.8874         40
 9.85   0.0179    321.5020    641.5054 -45.19     799.5027     0.502           15     0.498      3.012     13.15413  20.7929         41
 7.23   0.0470    329.2394   1545.9945   0.27     304.5916     0.683           15     0.427      2.569     13.17053  21.8407         42
 6.34   0.0338    332.1343     93.3228 -20.74     423.2603     0.903           15     0.689      3.092     13.15712  21.4835         43
 4.96   0.0152    350.0178     54.7950 -29.90      941.474     1.208           15     1.168      3.238     13.16606  20.6155         44
 3.71   0.0014    368.1374    761.1620 -36.50     10020.14     1.861           15     1.810      3.293     13.16904  18.0478         45
 4.32   0.0079    361.1077   1500.4562 -89.12     1807.216     1.472           15     1.387      3.336     13.16159  19.9075         46
 5.59   0.0305    360.2700   1033.9875 -89.56     468.8531     0.911           15     0.754      2.810     13.17798  21.3724         47
 3.50   0.0003    395.2099    231.5074 -46.89     48949.12     2.198           15     2.142      3.367     13.16606  16.3256         48
 6.91   0.0231    380.7730      1.4245 -85.27     471.4305     1.270           15     0.485      4.234     10.01746  21.3665         49
 3.52   0.0018    398.1901    354.6606 -50.94     7926.734     1.806           15     1.749      3.202     13.17649  18.3023         50
 3.51   0.0021    397.0133   1461.2390 -54.40      6869.99     1.754           15     1.693      3.169     13.17351  18.4576         51
 4.33   0.0088    393.6656   1088.6307 -83.95     1627.636     1.339           15     1.309      3.076     13.16904  20.0211         52
 7.19   0.0154    412.0781      1.4993 -89.95     708.6735     1.912           15     0.500      5.627     10.05656  20.9239         53
 3.50   0.0009    437.9597    252.1309 -26.57     15993.72     1.982           15     1.933      3.306     13.16904  17.5401         54
 3.50   0.0001    461.1037    807.6888 -48.66     138460.8     2.396           15     2.330      3.431     13.15413  15.1967         55
 6.51   0.0157    420.8617    159.1614  44.08     912.2466     1.258           15     1.071      4.545     13.16904  20.6497         56
 4.59   0.0117    432.8108   1422.1188  88.02     1223.279     1.295           15     1.230      3.101     13.17202  20.3312         57
 7.75   0.0005    426.5462    432.7873  -2.62     26752.75     1.567           15     0.493      4.280       13.175  16.9816         58
 6.12   0.0285    434.0167    151.0135 -28.97     502.3152     0.789           15     0.781      2.931     13.16904  21.2976         59
 3.88   0.0028    450.3694     21.3889 -15.23      5048.28     1.705           15     1.651      3.245     13.17351  18.7921         60
 3.82   0.0025    457.8665     34.6008 -24.79     5714.506     1.751           15     1.664      3.259     13.17649  18.6576         61
 6.19   0.0163    445.1345    122.2004 -43.52     876.6173     1.230           15     1.050      4.043     13.17798  20.6930         62
 6.02   0.0259    439.9788    305.5764  -2.57     551.8508     1.027           15     0.784      2.998     13.17202  21.1954         63
 5.49   0.0034    467.4917    850.3239  22.50     4214.365     5.904           15     1.818     13.760      13.1601  18.9882         64
 4.46   0.0079    463.7177    468.7029  23.51     1799.423     1.437           15     1.374      3.278     13.15562  19.9122         65
 7.83   0.0524    452.6775   1533.3118  45.56      272.883     0.563           15     0.341      2.336     13.15712  21.9601         66
 5.56   0.0248    460.7216   1096.3547 -44.09      576.677     1.008           15     0.872      3.120     13.16308  21.1477         67
 4.21   0.0064    472.0145    734.9021 -41.74     2226.667     1.509           15     1.427      3.148     13.16457  19.6809         68
 4.67   0.0090    471.4069    254.3637 -14.93     1596.678     1.360           15     1.318      3.335     13.17053  20.0420         69
 3.98   0.0050    477.9256    923.0577 -73.05     2864.323     1.536           15     1.478      3.121     13.16308  19.4074         70
 4.94   0.0136    477.4364   1276.4424 -46.13     1048.684     1.083           15     0.882      3.076     13.17351  20.4984         71
 4.57   0.0117    483.9413   1070.6448 -26.83     1217.427     1.320           15     1.216      3.018     13.16606  20.3364         72
 5.86   0.0068    495.8116     83.2151  54.41     2117.433     1.947           15     1.697      6.401     13.16755  19.7355         73
 6.14   0.0070    495.3471   1186.9773 -14.84     2040.165     2.239           15     1.528      6.894     13.17649  19.7758         74
 9.27   0.0208    488.4953    839.5061  45.05     685.2263     0.505           15     0.495      3.029     13.15413  20.9604         75
 4.78   0.0194    501.9136    863.8849 -32.42     736.5057     1.170           15     1.086      3.007     13.15861  20.8821         76
 6.61   0.0116    503.9221    763.0107 -43.28     1231.972     1.297           15     1.183      5.092       13.175  20.3235         77
 5.50   0.0056    515.1270   1461.1959  23.62     2565.293     3.165           15     1.428      7.735     13.17351  19.5272         78
 5.29   0.0191    513.6641   1179.4293 -73.68     747.4776     1.108           15     1.000      3.097     13.16904  20.8660         79
 7.34   0.0192    509.9552    165.7900  -3.36     744.2896     0.925           15     0.752      4.464     13.17202  20.8706         80
 6.70   0.0266    518.9847    641.9470 -36.70     537.2896     0.799           15     0.787      3.362     13.17351  21.2245         81
 4.10   0.0084    540.1475    999.9556 -71.45     1711.939     1.421           15     1.395      3.099     13.16904  19.9663         82
 4.05   0.0062    558.9169   1041.8004 -39.25     2324.045     1.492           15     1.436      3.180     13.16904  19.6344         83
 3.50   0.0015    580.7043    144.9952 -18.56     9552.123     1.852           15     1.789      3.224     13.16606  18.0997         84
 6.20   0.0092    571.1791   1448.0082  16.78     1555.846     1.724           15     1.392      5.516     13.16755  20.0701         85
 5.05   0.0087    571.1408     45.9030  46.69      1645.78     1.723           15     1.375      4.500     13.15861  20.0091         86
 3.50   0.0015    582.1893    319.2213 -29.88     9518.646     1.849           15     1.828      3.242     13.16606  18.1036         87
 8.18   0.0321    564.5248    139.4902 -30.93     445.1684     0.500           15     0.499      2.857     13.15861  21.4287         88
 5.03   0.0031    596.6255    782.6691 -66.55     4642.774     2.754           15     2.550      8.019     13.17053  18.8831         89
 8.46   0.0256    576.1635   1001.6136 -71.27     558.2717     0.761           15     0.445      3.389     13.17202  21.1829         90
 5.07   0.0222    584.5106     76.0003  -4.07     644.1498     1.090           15     0.952      3.004     13.16457  21.0275         91
 5.03   0.0175    999.8098   1273.8372 -43.92     818.5636     1.170           15     1.022      3.151     13.17053  20.7674         92
 6.79   0.0140   1597.6390    654.5967 -45.12     875.3809     1.116           15     0.977      4.181     11.30232  20.6945         93
 6.71   0.0247   1594.6692    374.0728  67.41     560.6107     0.914           15     0.695      3.466     12.75577  21.1783         94
 5.66   0.0145   1545.9485    863.5548  53.44     986.0107     1.260           15     1.155      4.015     13.17053  20.5653         95
 4.26   0.0059   1542.5569    654.7997 -60.86     2424.189     1.489           15     1.441      3.225       13.175  19.5886         96
 3.90   0.0042   1541.7950    135.2048 -50.35     3393.311     1.581           15     1.523      3.154     13.16308  19.2234         97
 6.56   0.0103    986.5396    454.0250 -88.33       1384.1     1.386           15     1.212      6.021     13.17202  20.1971         98
 6.14   0.0145    980.8835    797.9240 -35.20     986.0526     1.199           15     1.108      4.326      13.1601  20.5652         99
 8.18   0.0225    978.1918    452.6013 -71.18     634.5737     0.748           15     0.450      3.752     13.16308  21.0438        100
 6.60   0.0332    965.0332    416.3022  86.88     430.0155     0.734           15     0.675      2.763     13.15562  21.4663        101
 7.07   0.0180    950.6561    654.3515 -46.99     795.9415     1.025           15     0.890      4.370     13.16904  20.7978        102
 6.76   0.0353    947.8088    445.1726 -45.09     405.0448     0.748           15     0.566      2.910     13.17053  21.5312        103
 4.16   0.0078    939.1533   1067.2017 -58.68     1836.082     1.446           15     1.381      3.122     13.17649  19.8903        104
 8.98   0.0207    938.4924    516.4891  45.18     689.1284     0.505           15     0.495      3.027     13.15712  20.9542        105
 4.40   0.0138    928.2680   1322.5824 -56.66     1038.301     1.303           15     1.216      3.068     13.17351  20.5092        106
 4.70   0.0184    912.7397    838.6965 -39.63     775.5087     1.150           15     1.092      2.866      13.1601  20.8260        107
 6.06   0.0335    912.1494   1001.1208 -45.05      426.763     0.824           15     0.669      2.697     13.16159  21.4745        108
 3.54   0.0023    900.4453    302.8825 -85.15     6346.136     1.740           15     1.710      3.186     13.16308  18.5437        109
 6.10   0.0101    896.0751    538.3304 -11.84     1416.658     1.458           15     1.221      4.899      13.1601  20.1718        110
 8.47   0.0412    893.5365   1426.4833 -38.45     346.7075     0.502           15     0.497      2.905     13.16308  21.7001        111
 3.50   0.0001    880.2390   1592.6417 -80.37     111035.4     2.337           15     2.268      3.420     13.17351  15.4363        112
 7.65   0.0174    888.2291    325.8946  20.30     820.4543     1.147           15     0.652      4.409     13.16457  20.7649        113
 5.19   0.0175    885.7134   1500.2341  57.73     814.8167     1.135           15     1.108      3.048     13.16755  20.7724        114
 5.62   0.0289    877.4744    961.1338 -70.66     495.1714     1.010           15     0.875      2.812     13.15712  21.3131        115
 4.37   0.0055    869.3719   1103.6423 -39.97     2616.146     1.779           15     1.604      4.099     13.17351  19.5058        116
 6.32   0.0142    867.7889    939.9327  35.04     1008.969     1.345           15     1.117      4.551       13.175  20.5403        117
 5.72   0.0214    858.3664   1339.6073 -50.83     668.6514     1.020           15     0.872      3.314     13.17202  20.9870        118
 5.58   0.0302    844.8506   1064.1110  83.28      473.468     0.884           15     0.873      2.746     13.16159  21.3618        119
 5.15   0.0130    843.2003   1106.2869  21.11     1101.186     1.358           15     1.133      3.742     13.16606  20.4453        120
 4.45   0.0099    836.6286    298.7254 -43.67     1451.747     1.355           15     1.249      3.180     13.16755  20.1453        121
 7.01   0.0484    835.4894    819.0327  -0.90     295.4692     0.782           15     0.500      2.594     13.16457  21.8737        122
 3.56   0.0022    823.0253    654.4568   1.82     6423.778     1.753           15     1.718      3.192     13.17351  18.5305        123
 3.70   0.0024    803.0850   1378.8055 -34.87     5847.072     1.688           15     1.663      3.210     13.16755  18.6327        124
 3.50   0.0008    798.5104    695.7368 -87.54     17000.76     2.589           15     1.943      4.117     13.16308  17.4738        125
 3.96   0.0051    800.6845     41.2849 -43.50     2784.931     1.528           15     1.506      3.209     13.15562  19.4380        126
 5.32   0.0059    774.0239   1427.4475  88.38     2443.148     2.326           15     1.674      6.275       13.175  19.5801        127
 4.44   0.0094    742.7661    556.4435 -30.50     1524.567     1.398           15     1.282      3.225       13.175  20.0921        128
 5.41   0.0268    738.0269   1158.1278 -88.56      534.074     0.964           15     0.853      2.868     13.16904  21.2310        129
 5.89   0.0234    736.1250    649.8141  25.90     611.3134     0.881           15     0.859      3.082     13.17649  21.0843        130
 3.50   0.0002    726.6069    848.5333 -46.29     66316.68     2.255           15     2.214      3.401     13.17649  15.9959        131
 4.43   0.0137    727.3254   1178.3730  57.64     1040.131     1.280           15     1.236      2.997     13.16755  20.5073        132
 7.83   0.0395    721.3849   1394.8331 -18.23     362.0943     0.753           15     0.448      2.968     13.17053  21.6529        133
 4.45   0.0108    715.8329    808.4426  24.42     1320.595     1.314           15     1.266      3.009       13.175  20.2481        134
 4.44   0.0108    708.8307   1163.8340 -84.28      1323.94     1.329           15     1.291      3.064     13.17351  20.2453        135
 4.94   0.0089    704.2529   1339.2089 -30.67     1607.056     1.450           15     1.307      4.290     13.17649  20.0349        136
 3.97   0.0059    702.8453    952.6252 -31.00     2433.865     1.559           15     1.461      3.182       13.175  19.5843        137
 6.47   0.0189    691.5324   1213.7166  82.90     756.6418     1.002           15     0.982      4.027     13.16159  20.8528        138
 6.61   0.0216    686.5461   1213.6477 -68.65     662.9797     0.941           15     0.821      3.926     13.16904  20.9962        139
 4.36   0.0070    685.5400    644.2988 -66.40     2050.329     1.420           15     1.405      3.332     13.15712  19.7704        140
 8.19   0.0454    687.6437    130.7065 -48.00     314.5558     0.569           15     0.336      2.417     13.15712  21.8058        141
 3.50   0.0002    648.2842   1464.4399 -62.27     65279.68     2.231           15     2.186      3.380     13.16755  16.0131        142
 5.54   0.0243    654.5901    870.9860  82.18     587.5946     0.974           15     0.965      2.953     13.16457  21.1273        143
 8.27   0.0387    645.6544    652.6979 -47.10     368.9248     0.568           15     0.337      2.554     13.15712  21.6327        144
 5.22   0.0226    630.6179    806.3264  45.41     632.0961     1.039           15     0.952      2.872     13.17649  21.0480        145
 4.66   0.0136    623.3268   1581.6411 -66.06     1050.169     1.292           15     1.238      3.123     13.16755  20.4969        146
 4.50   0.0137   1561.1639    861.4806  -6.45     1042.243     1.232           15     1.182      3.086     13.16606  20.5051        147
 3.50   0.0002   1563.6666    304.3031 -31.23      57917.8     2.181           15     2.157      3.350     13.16606  16.1430        148
 4.63   0.0110   1584.8922   1108.8398 -44.03     1296.132     1.264           15     1.198      3.149     13.15712  20.2684        149
 5.24   0.0101   1565.6985    784.6230 -54.95     1408.703     1.444           15     1.300      4.216      13.1601  20.1780        150
 3.79   0.0008   1552.4926    682.2964 -25.14     17282.18     4.143           15     3.622      8.766     13.15562  17.4560        151
 4.17   0.0068   1566.7090     22.0204  -4.79      2094.65     1.456           15     1.435      3.170     13.16457  19.7472        152
 3.50   0.0002   1558.0262    487.7667 -17.22        57216     2.189           15     2.163      3.358     13.16904  16.1562        153
 4.23   0.0088   1570.5049     92.6439 -18.67     1622.897     1.337           15     1.314      3.042     13.15861  20.0243        154
 6.34   0.0309   1550.9841   1221.9830  46.82      462.203     0.799           15     0.773      3.132     13.16904  21.3879        155
 3.50   0.0005   1507.1838    269.4470 -23.94     31262.73     2.073           15     2.044      3.295     13.17202  16.8124        156
 6.65   0.0346   1514.3151    483.9289  -9.51     412.6071     0.738           15     0.671      2.910     13.15861  21.5112        157
 5.29   0.0082   1030.2572    302.8515  62.92     1750.231     1.887           15     1.520      5.397     13.16755  19.9423        158
 8.59   0.0315   1515.3195   1547.3137 -45.30     454.1307     0.563           15     0.341      2.787      13.1601  21.4070        159
 3.53   0.0019   1514.8853    392.7780 -23.11     7699.902     1.773           15     1.743      3.188     13.16904  18.3338        160
 3.58   0.0017   1038.6882    525.4940 -13.29     8527.799     1.804           15     1.780      3.216     13.15712  18.2229        161
 5.07   0.0179   1504.0691    723.4548 -88.27     799.6263     1.097           15     0.951      3.002     13.16308  20.7928        162
 6.11   0.0280   1079.0824    330.0046 -37.72     511.0639     0.794           15     0.774      2.914     13.16904  21.2788        163
 5.52   0.0076   1071.9434   1219.1146 -55.35     1890.473     1.646           15     1.458      5.297     13.16159  19.8586        164
 7.99   0.0134   1065.2991   1563.0947 -56.04     1065.761     1.057           15     0.844      5.436     13.15562  20.4809        165
 3.65   0.0021   1107.4653    428.0556 -19.58      6791.18     1.804           15     1.727      3.264     13.16457  18.4701        166
 5.38   0.0066   1120.2307    329.8355  56.77     2158.679     1.971           15     1.491      5.524     13.17053  19.7145        167
 7.31   0.0107   1110.4651    479.0650  11.40      1334.21     1.289           15     1.026      6.345      13.1601  20.2369        168
 5.59   0.0210   1129.0283    547.4525 -86.88     680.4692     1.094           15     0.954      3.337     13.17351  20.9680        169
 3.56   0.0020   1388.7188   1428.6116 -57.95      7316.86     1.773           15     1.758      3.210     13.17202  18.3892        170
 6.03   0.0231   1130.0933    219.6048 -15.80     619.4042     1.019           15     0.744      3.257     13.16457  21.0701        171
 6.97   0.0210   1411.1737    349.9838  86.50     679.9982     0.924           15     0.764      3.711     13.17053  20.9687        172
 8.01   0.0377   1388.5385    806.5108 -38.15     378.8507     0.502           15     0.496      2.739     13.16308  21.6038        173
 3.50   0.0005   1138.5198    148.1800 -23.17     30514.96     2.079           15     2.055      3.322     13.17202  16.8387        174
 6.48   0.0337   1438.7219   1271.0077  -3.72     424.9725     0.729           15     0.676      2.894     13.17202  21.4791        175
 9.16   0.0018   1440.8411   1082.5140  48.42     8092.533     1.388           15     0.322      4.094     13.16606  18.2798        176
 4.79   0.0104   1151.1996     99.4435 -26.56     1374.019     1.335           15     1.251      3.213       13.175  20.2050        177
 3.85   0.0042   1435.3513    224.8257 -46.67     3434.182     1.598           15     1.516      3.149     13.17649  19.2104        178
 4.40   0.0087   1415.3262   1386.5820 -89.40      1639.98     1.399           15     1.310      3.185     13.17649  20.0129        179
 4.10   0.0057   1390.4456    713.3939  10.89      2523.95     1.527           15     1.498      3.172       13.175  19.5448        180
 6.24   0.0150   1400.5155   1031.5568  13.43      951.797     1.140           15     1.028      3.981     13.16606  20.6036        181
 3.83   0.0057   1439.8461    619.2048  27.78     2524.176     1.496           15     1.435      3.020       13.175  19.5447        182
 3.50   0.0002   1393.4135    114.5814 -38.83     78288.67     2.249           15     2.222      3.382     13.16755  15.8158        183
 5.64   0.0288   1406.2046    329.9472  88.24     496.9612     0.899           15     0.756      2.751     13.17798  21.3092        184
 3.76   0.0060   1408.1603    308.3598  -7.62     2379.384     1.460           15     1.433      2.986       13.175  19.6088        185
 8.09   0.0408   1181.5150    176.4731 -49.29     350.2125     0.501           15     0.498      2.748      13.1601  21.6892        186
 6.23   0.0108   1259.2883    432.6303  23.41     1326.383     1.456           15     1.274      5.075     13.16457  20.2433        187
 3.73   0.0025   1157.8705    236.5284  -3.80     5692.174     1.730           15     1.677      3.228     13.15562  18.6618        188
 4.53   0.0081   1392.2102   1038.9377 -30.88      1757.45     1.403           15     1.355      3.279     13.17798  19.9378        189
 3.55   0.0017   1372.5156   1019.0226 -32.17     8598.471     1.853           15     1.818      3.322     13.16755  18.2139        190
 3.50   0.0001   1298.4050    724.9850 -42.94     183966.2     2.422           15     2.356      3.459     13.16457  14.8882        191
 6.31   0.0090   1293.4220    742.3614 -42.32     1587.792     1.386           15     1.268      5.828     13.17202  20.0480        192
 4.40   0.0169   1292.7812    412.8307 -41.69       843.76     1.167           15     1.024      2.788     13.16904  20.7345        193
 6.58   0.0311   1330.3184    386.9943  -2.29     459.7701     0.736           15     0.664      2.712     13.17053  21.3936        194
 3.50   0.0005   1320.0631    660.0717 -40.08     29567.98     2.116           15     2.062      3.384      13.1601  16.8729        195
 4.76   0.0170   1332.7743    107.4035 -78.43     840.7128     1.128           15     1.066      2.955     13.16755  20.7384        196
 5.24   0.0239   1319.3368    263.8580 -26.84     598.4525     1.067           15     0.867      2.872     13.16308  21.1074        197
 4.58   0.0049   1307.4919    669.7271 -48.75     2902.241     1.532           15     1.501      3.512     13.16308  19.3932        198
 4.21   0.0040   1329.8575    655.9511 -47.01     3581.277     1.701           15     1.659      3.652     13.16755  19.1649        199
 3.96   0.0013   1272.6952    610.0601 -55.58     10881.86     3.638           15     2.384      7.002     13.16308  17.9582        200
 4.88   0.0181   1304.6168    892.8924 -17.96     788.6364     1.131           15     0.949      3.002     13.16904  20.8078        201
 3.72   0.0021   1291.4041    762.1968 -29.15     6866.824     2.056           15     1.724      3.686     13.16457  18.4581        202
 3.90   0.0044   1265.4126    807.9324 -43.48      3262.66     1.582           15     1.524      3.151     13.17649  19.2661        203
 8.57   0.0387   1262.3210    855.3116 -45.49     369.4209     0.562           15     0.341      2.554      13.1601  21.6312        204
 7.06   0.0155   1229.6307    599.1876 -24.73          923     1.127           15     0.880      4.971     13.17351  20.6370        205
 3.89   0.0035   1278.0605   1331.4742 -77.34     4139.391     1.673           15     1.584      3.239     13.16457  19.0077        206
 4.03   0.0015   1210.3558   1278.9287  86.09     9423.921     5.210           15     3.186      9.904     13.16457  18.1144        207
 6.46   0.0349   1237.8329     48.1339  43.96     410.3206     0.817           15     0.676      2.863     13.17202  21.5172        208
 6.63   0.0360   1228.7782   1153.7770  44.39     397.8597     0.752           15     0.561      2.700     13.17053  21.5507        209
 4.27   0.0087   1237.0132   1553.5865 -67.41     1642.319     1.420           15     1.302      3.195     13.16904  20.0114        210
 3.82   0.0053   1234.3259    304.9406 -47.51     2687.658     1.523           15     1.431      3.075     13.16308  19.4766        211
 7.09   0.0098   1212.3234   1429.5114 -87.30     1462.689     1.409           15     1.319      6.491     13.15712  20.1371        212
 5.81   0.0082   1194.9135    124.3039 -72.27     1739.681     1.615           15     1.390      5.281     13.15413  19.9488        213
 3.66   0.0015   1218.8453   1194.9714  -5.32     9374.311     1.898           15     1.854      3.438     13.17649  18.1202        214
 4.42   0.0087   1207.5685    838.8837  -3.14     1647.432     1.429           15     1.342      3.178     13.16755  20.0080        215
 6.09   0.0135   1200.7854   1442.2812 -83.55     1059.962     1.376           15     1.268      3.943     13.17202  20.4868        216
 3.50   0.0010   1214.5891    513.1241 -29.41     14425.08     1.918           15     1.864      3.238     13.17649  17.6522        217
 4.38   0.0091   1201.7323    339.2506 -48.09     1566.679     1.381           15     1.313      3.122     13.16308  20.0625        218
 5.80   0.0255   1180.8035    549.3552 -20.93     562.0562     0.979           15     0.856      3.058     13.17649  21.1756        219
 5.55   0.0153   1153.2509   1353.1265 -43.07     932.7922     1.212           15     1.051      3.833      13.1601  20.6255        220
 3.50   0.0009   1129.9724    183.6354 -22.90     15968.07     1.953           15     1.896      3.269     13.17053  17.5419        221
 3.50   0.0003   1165.1548   1299.8473 -50.59     49011.12     2.175           15     2.151      3.382       13.175  16.3243        222
 5.83   0.0212   1161.5276    887.7175 -49.37       675.12     0.969           15     0.961      3.168     13.15861  20.9765        223
 8.19   0.0183   1090.7531    468.1144 -54.69     781.8901     1.110           15     0.523      4.766     13.16606  20.8171        224
 7.63   0.0007   1089.8258    782.5095  48.39     19838.29     1.385           15     0.319      2.982     13.16606  17.3062        225
 3.50   0.0004   1079.9790    512.2535 -35.03     32483.61     2.112           15     2.089      3.359     13.17202  16.7708        226
 4.85   0.0170   1095.3096   1526.7147  63.28     841.7027     1.142           15     1.103      2.902      13.1601  20.7371        227
 3.50   0.0003   1040.2450    633.1851 -26.48     41602.38     2.163           15     2.114      3.364     13.17053  16.5022        228
 3.51   0.0015   1081.7589   1148.2657 -21.91     9401.209     1.830           15     1.780      3.215     13.16904  18.1170        229
 6.29   0.0347   1065.6869   1597.0300  -7.09     364.6603     0.738           15     0.668      2.690     11.65953  21.6453        230
 3.50   0.0008   1025.7262   1380.0560 -44.87     18963.57     1.973           15     1.955      3.300     13.16159  17.3552        231
 3.50   0.0009   1009.7764    813.8215 -29.77     16295.12     1.981           15     1.919      3.297     13.17202  17.5199        232
 3.50   0.0005    984.8859    558.5669 -30.02     28818.41     2.094           15     2.053      3.333     13.16904  16.9008        233
 4.14   0.0058   1011.2820    344.8709 -19.49     2458.617     1.463           15     1.431      3.134     13.15861  19.5733        234
 4.18   0.0053   1001.6823    542.6569 -35.18     2720.417     1.571           15     1.503      3.335     13.16308  19.4634        235
 4.92   0.0126   1001.4156   1555.6001 -44.34      1131.03     1.292           15     1.169      3.088     13.16606  20.4163        236
