#   1 KRON_RADIUS            Kron apertures in units of A or B                         
#   2 MAGERR_APER            RMS error vector for fixed aperture mag.                   [mag]
#   3 Y_IMAGE                Object position along y                                    [pixel]
#   4 X_IMAGE                Object position along x                                    [pixel]
#   5 THETA_IMAGE            Position angle (CCW/x)                                     [deg]
#   6 FLUX_APER              Flux vector within fixed circular aperture(s)              [count]
#   7 A_IMAGE                Profile RMS along major axis                               [pixel]
#   8 THRESHOLD              Detection threshold above background                       [count]
#   9 B_IMAGE                Profile RMS along minor axis                               [pixel]
#  10 FLUX_RADIUS            Fraction-of-light radii                                    [pixel]
#  11 FLUXERR_APER           RMS error vector for aperture flux(es)                     [count]
#  12 MAG_APER               Fixed aperture magnitude vector                            [mag]
#  13 NUMBER                 Running object number                                     
 3.77   0.0010     53.2526     63.7735   1.03      32297.2     5.881            5     5.373     10.662     28.99885  16.7771          1
 3.50   0.0007     59.7737   1078.5190  86.76      47482.5     2.541            5     2.425      3.785     28.98901  16.3587          2
 3.50   0.0060     16.3358    985.0377 -88.28      5223.04     4.513            5     2.275      7.172     28.98901  18.7552          3
 4.55   0.0310     24.5483    367.1930 -48.97      1016.54     1.572            5     1.471      3.575     29.01196  20.5322          4
 5.89   0.0558     17.1158    384.6058 -57.33       563.64     1.412            5     1.282      5.336     28.98573  21.1725          5
 3.66   0.0065     18.0279     91.3346 -48.14       4808.5     1.937            5     1.848      3.463     28.98901  18.8450          6
 3.50   0.0026     14.5908   1445.7604 -49.23      11955.9     2.115            5     2.024      3.466     28.99557  17.8560          7
 4.58   0.1610      9.8049   1183.7000  21.26       195.48     0.950            5     0.843      2.635     28.98245  22.3222          8
 6.39   0.0611      4.0691    145.2197 -18.48       458.34     1.479            5     1.363      5.552     25.79547  21.3970          9
 6.78   0.0809     23.7753    383.2054  68.99          389     1.285            5     1.215      5.740     28.98901  21.5751         10
 5.29   0.0565     33.6432   1110.3035  74.40        556.9     1.940            5     1.296      4.575     28.96276  21.1856         11
 8.12   0.1252     23.8097    698.3942 -71.24       251.36     0.754            5     0.448      4.182     28.98245  22.0493         12
 6.43   0.0739     33.1281    326.7328 -12.63        425.4     1.586            5     1.060      5.250     28.96276  21.4780         13
 4.85   0.0989     38.6100   1170.5216 -81.25        318.3     1.388            5     0.985      3.154     28.99557  21.7929         14
 3.50   0.0007     80.1287    537.6593 -50.92     46277.84     2.444            5     2.367      3.714     28.97589  16.3866         15
 4.95   0.1157     37.2896   1521.3633 -72.77        272.1     1.184            5     0.926      3.056     28.97917  21.9632         16
 5.38   0.0931     42.4159    915.2531   0.24       338.24     1.146            5     1.070      3.575     28.99885  21.7269         17
 6.23   0.0917     44.7192    440.0381  -7.30       343.04     1.431            5     1.106      4.879     28.97917  21.7116         18
 6.23   0.1237     49.7147   1435.3700 -51.27       254.52     0.992            5     0.877      3.487     28.98901  22.0357         19
 6.70   0.1166     49.7626    265.6256 -60.04        270.1     1.059            5     0.954      4.179     28.99229  21.9712         20
 3.88   0.0154     75.1050    128.1747 -35.13      2041.68     1.875            5     1.671      3.603     28.97917  19.7750         21
 3.50   0.0005    121.8231    789.1940 -47.68     66612.82     2.510            5     2.425      3.704     28.98573  15.9911         22
 8.85   0.1770     65.3194   1148.3049 -45.80       177.74     0.559            5     0.342      2.945     28.96276  22.4255         23
 5.37   0.0619     81.9125    421.6305 -53.06       508.36     1.502            5     1.322      4.699     28.98573  21.2846         24
 5.63   0.0328     90.2533    377.1393 -44.67       958.18     2.266            5     2.054      6.880     28.97917  20.5964         25
 4.07   0.0106     96.6071     56.2623 -39.73       2971.2     1.848            5     1.797      3.739     29.00869  19.3677         26
 7.53   0.1055     87.7823    758.7943  72.58       298.26     1.110            5     0.697      4.496     28.98245  21.8635         27
 6.48   0.0962     91.5367    495.8921 -41.89       327.26     1.313            5     0.931      4.879     28.97917  21.7628         28
 5.07   0.0498     97.9641    452.9493 -17.88       632.66     1.871            5     1.279      4.970     28.99557  21.0471         29
 8.01   0.1785     88.3983   1359.8416 -19.15       176.42     0.761            5     0.446      3.625     28.99557  22.4336         30
 6.23   0.1570    116.8024    990.9694  87.97       200.54     0.937            5     0.752      3.067     28.98245  22.2945         31
 6.44   0.0985    117.2913     67.0378 -17.03       319.56     1.279            5     0.877      4.386     28.96933  21.7886         32
 7.34   0.1491    114.8832    416.1475  43.62       210.98     0.843            5     0.667      3.492     28.96933  22.2394         33
 3.50   0.0008    162.2794   1468.3600 -55.47     39236.16     2.390            5     2.316      3.646     28.97589  16.5658         34
 6.07   0.1873    117.8509    154.1174  43.77       167.96     0.807            5     0.674      2.944     28.97261  22.4870         35
 6.17   0.1008    131.0167    418.1723 -43.81       312.28     1.151            5     0.976      4.457     28.99229  21.8136         36
 7.02   0.1359    126.2177    493.7172 -15.19       231.66     1.123            5     0.692      3.700     28.99229  22.1379         37
 8.69   0.1823    128.4828    885.5291 -48.65       172.58     0.502            5     0.497      3.010     28.96604  22.4575         38
 3.50   0.0031    170.2481    877.3201   4.53      10080.7     2.095            5     2.083      3.535     28.97917  18.0413         39
 8.60   0.0926    142.7219    886.9815   4.52       340.16     0.754            5     0.686      4.524     28.99885  21.7208         40
 6.29   0.1738    151.4829   1280.4758  35.26       181.06     1.192            5     0.710      3.352     28.96933  22.4054         41
 4.77   0.0345    164.7317   1445.7095 -59.69       910.84     1.501            5     1.444      3.920     28.96933  20.6514         42
 7.12   0.2204    155.1959     82.8351 -44.91       142.86     0.759            5     0.563      3.058     28.99229  22.6627         43
 4.00   0.0476    166.6143    104.5419 -32.25        661.7     1.431            5     1.260      3.054     28.99229  20.9983         44
 5.37   0.0967    169.1312   1369.0419 -73.35       325.64     1.209            5     1.085      3.600     28.98901  21.7682         45
 8.03   0.1540    165.0270    576.2899  82.53       204.42     0.738            5     0.687      3.809     28.98245  22.2737         46
 7.49   0.1144    168.6792    651.1216  68.01       275.18     0.912            5     0.696      5.013     28.97589  21.9510         47
 5.89   0.0672    179.6328    575.1809  18.47        468.6     1.608            5     1.374      5.451     28.99557  21.3730         48
 4.29   0.0268    192.3766   1350.5253 -50.28      1173.68     1.771            5     1.557      4.050     28.99229  20.3761         49
 5.98   0.0644    186.4875   1354.9888 -18.50       488.72     1.555            5     1.264      4.780     28.98901  21.3273         50
 4.10   0.0081    210.5740    827.6672  -7.09      3883.14     4.514            5     2.446      8.481     28.99557  19.0770         51
 4.51   0.0100    229.6212    562.3777 -14.43      3162.42     3.863            5     3.605      9.195     28.99557  19.2999         52
 3.62   0.0150    206.7145    549.1254 -33.44      2094.86     1.692            5     1.620      3.169     28.96604  19.7471         53
 3.50   0.0147    212.0606   1306.1511  77.58      2141.78     1.722            5     1.717      3.315     28.98245  19.7231         54
 3.50   0.0003    259.7790    997.4797 -45.22     110196.4     2.675            5     2.562      3.740     28.99229  15.4446         55
 8.47   0.1980    195.5320    449.4903 -42.48        158.9     0.505            5     0.494      3.028     28.97261  22.5472         56
 4.91   0.0538    210.6920    684.7921  86.13        585.3     1.569            5     1.369      4.268     28.98245  21.1316         57
 3.50   0.0004    265.9453     67.6254 -29.69     83840.58     2.602            5     2.519      3.701     29.00213  15.7414         58
 8.27   0.1128    205.3555    936.8246  66.65        279.3     0.743            5     0.654      4.455     29.00213  21.9348         59
 3.52   0.0127    223.9229   1226.1252 -79.97      2470.04     1.738            5     1.641      3.216     28.97261  19.5682         60
 6.83   0.1664    208.9824   1225.5057 -27.53       189.16     1.020            5     0.657      3.338     28.98573  22.3579         61
 4.09   0.0377    222.2509    774.8787  -5.23       834.52     1.494            5     1.452      3.612     28.97261  20.7464         62
 7.59   0.0961    217.3834    741.7900   0.94       327.58     1.052            5     0.875      4.947     28.97917  21.7617         63
 4.94   0.0214    243.9783    112.9617 -78.24      1469.66     2.423            5     1.829      5.933     28.99557  20.1320         64
 4.27   0.0082    255.2534    612.9803 -41.10      3842.86     2.928            5     2.392      6.296     28.99557  19.0884         65
 7.69   0.0903    229.4547    548.1540 -42.28       348.78     1.354            5     0.696      5.309     28.98573  21.6936         66
 4.98   0.0506    239.1424    838.6713 -20.46       622.26     1.725            5     1.512      4.626     28.97589  21.0651         67
 7.49   0.2975    239.4225   1478.8088 -19.47       105.82     0.744            5     0.453      2.573     28.98901  22.9886         68
 6.13   0.0550    250.3959    107.4318 -29.84       572.22     1.364            5     1.261      5.786     28.99557  21.1561         69
 3.50   0.0014    287.5201   1486.5017 -52.99     21935.88     2.291            5     2.232      3.623     28.95948  17.1971         70
 7.59   0.2151    248.3100   1414.3591 -42.91       146.32     0.578            5     0.332      2.534     28.97589  22.6367         71
 3.50   0.0059    281.8495   1522.3699  89.03      5347.74     1.931            5     1.843      3.368     28.99885  18.7296         72
 5.11   0.0581    270.2788   1273.5371 -53.05       541.66     1.639            5     1.259      4.836     28.96933  21.2157         73
 7.74   0.1237    265.1412    123.9342 -79.82       254.32     1.171            5     0.728      4.822     28.97917  22.0365         74
 3.50   0.0019    303.1318    201.7879 -47.32     16736.88     2.210            5     2.156      3.537     29.00541  17.4908         75
 4.50   0.0343    293.2372   1475.7463 -53.72       918.76     1.700            5     1.540      4.462     28.99229  20.6420         76
 4.31   0.0355    302.0498    563.7471 -34.15       887.36     1.559            5     1.496      3.666     28.99229  20.6798         77
 3.50   0.0028    322.0536    697.3242 -24.54     11305.84     2.058            5     2.000      3.436     28.97589  17.9167         78
 6.57   0.1374    292.1081    248.7789  -9.36       229.08     1.146            5     0.727      3.819     28.97917  22.1500         79
 6.40   0.0613    308.4271     85.4106  77.85       513.26     1.628            5     1.340      6.124     28.99229  21.2742         80
 5.17   0.0369    321.6866    641.6600 -55.08       853.12     2.464            5     1.643      5.852     28.97261  20.7225         81
 4.49   0.0154    327.3698    595.4722 -42.42      2048.26     2.189            5     2.060      5.147     28.98901  19.7715         82
 6.97   0.1581    316.9532    226.9417  54.60       199.06     0.807            5     0.778      3.517     28.98573  22.3025         83
 4.58   0.0632    332.0204     93.3973   6.72       498.06     1.286            5     1.222      3.389     28.98573  21.3068         84
 5.37   0.0796    328.9908   1546.0718 -39.37        395.9     1.223            5     1.109      4.045     29.00213  21.5560         85
 3.50   0.0027    368.3684    760.8387 -41.56     11811.84     2.835            5     2.109      3.786     28.99885  17.8692         86
 3.97   0.0274    349.9537     54.7386 -37.42      1149.76     1.635            5     1.518      3.497     28.98573  20.3985         87
 3.50   0.0006    395.2013    231.4809 -49.62     50464.42     2.460            5     2.392      3.681     28.99229  16.2925         88
 3.79   0.0145    360.9998   1500.3754  79.55      2170.08     1.744            5     1.709      3.552     28.98245  19.7088         89
 6.60   0.1152    348.3247     42.7720 -57.48       273.24     1.062            5     0.804      3.841     28.98573  21.9586         90
 4.61   0.0577    360.4079   1034.1396 -37.70       546.12     1.312            5     1.265      3.157     29.00869  21.2068         91
 5.59   0.0403    380.5229      1.9583 -87.54       617.28     2.531            5     0.900      5.791     22.88513  21.0738         92
 6.21   0.0929    370.4145     71.7133  -6.80       338.74     1.200            5     1.101      4.230     28.98573  21.7253         93
 3.79   0.0670    373.2807   1083.8218 -10.75        469.7     1.599            5     1.397      3.883     28.98901  21.3704         94
 3.50   0.0033    398.1689    354.6454 -40.36       9469.7     2.053            5     1.991      3.440     29.00213  18.1092         95
 3.50   0.0038    396.9917   1461.2236 -68.77      8212.68     2.015            5     1.943      3.401     28.98901  18.2638         96
 5.95   0.1363    369.2778    210.6540   9.19       230.82     1.180            5     0.720      3.031     28.97261  22.1418         97
 6.14   0.1762    375.2081     87.1578 -29.68       178.74     0.881            5     0.857      3.269     28.99557  22.4194         98
 5.33   0.0282    412.0732      2.2999  89.50       900.14     3.790            5     1.177      7.414     23.37433  20.6642         99
 6.25   0.0933    380.2317    125.8660  66.73       337.66     1.138            5     1.054      4.409     28.99557  21.7288        100
 3.72   0.0159    393.5732   1088.6937 -88.90      1976.84     1.692            5     1.565      3.131     28.97589  19.8101        101
 6.56   0.1065    382.4677     67.4873 -46.99       295.24     1.075            5     1.031      4.265     28.96604  21.8746        102
 5.81   0.0443    396.4593    626.9135  88.70       709.96     1.942            5     1.622      6.050     28.97261  20.9219        103
 4.93   0.1534    388.4278   1195.5741  43.60       205.24     1.076            5     0.949      2.816     28.99229  22.2693        104
 7.42   0.1961    389.1792    260.8672  44.91        160.6     0.839            5     0.682      4.073     28.99557  22.5356        105
 3.50   0.0002    461.0975    807.6652 -35.61       131921     2.649            5     2.556      3.707     28.97917  15.2492        106
 5.97   0.0653    403.4356    526.5179  50.81       482.18     1.738            5     1.208      5.343     28.98573  21.3420        107
 7.71   0.2229    391.3397     95.3168 -46.05       141.16     0.573            5     0.336      2.637     28.97261  22.6757        108
 3.50   0.0017    437.9424    252.0977 -32.06     18158.68     2.207            5     2.184      3.570     28.96604  17.4023        109
 6.01   0.1277    407.1134    282.4008 -15.04       246.54     0.996            5     0.867      3.617     28.98245  22.0703        110
 5.35   0.0325    420.6857    159.1642  28.64       968.72     2.034            5     1.715      5.271     28.98573  20.5845        111
 6.27   0.1179    413.1812   1562.3481 -66.73       267.04     1.290            5     0.839      4.071     28.99557  21.9836        112
 7.44   0.0466    420.8901    135.0501 -20.96       675.94     2.260            5     1.326      8.728     28.97589  20.9752        113
 8.75   0.1005    415.0182    559.5004   1.37          313     0.837            5     0.700      4.864     28.97589  21.8111        114
 7.60   0.1319    418.4615   1204.2999 -71.56       238.48     0.941            5     0.836      4.322     28.97261  22.1064        115
 6.03   0.1522    419.3803   1580.5785 -42.28       206.84     0.995            5     0.870      3.581     28.99557  22.2609        116
 4.62   0.1475    419.4363    774.5581  18.02       213.56     1.286            5     0.939      2.933     29.00213  22.2262        117
 3.63   0.0204    432.7462   1422.1240 -52.25      1541.44     1.663            5     1.544      3.269     28.97589  20.0802        118
 6.80   0.0599    430.1894    719.5887  43.18       524.92     1.803            5     1.480      7.739     28.97589  21.2498        119
 5.50   0.0594    426.3690   1179.5669  10.84       530.14     1.657            5     1.342      4.667     28.99885  21.2390        120
 5.07   0.0014    427.0954    432.6257  -1.69      22072.4     3.431            5     1.192      5.700     28.97917  17.1904        121
 4.14   0.0072    467.6600    850.5516  22.79       4378.3     8.358            5     2.408     13.962     28.98245  18.9467        122
 5.98   0.1702    424.0011   1063.5629   2.28       184.92     1.079            5     0.789      3.195     28.98573  22.3825        123
 3.50   0.0051    450.3410     21.3963  37.78      6131.96     1.967            5     1.965      3.467     29.00869  18.5810        124
 4.62   0.0588    433.9192    151.2261  13.50       535.52     1.335            5     1.213      3.194     28.98901  21.2281        125
 5.89   0.1684    426.0779    300.2060  -2.90          187     0.915            5     0.737      3.212     28.99229  22.3704        126
 3.50   0.0045    457.8066     34.5926 -14.53      6977.84     2.083            5     1.997      3.540     28.98245  18.4407        127
 4.94   0.0321    444.9756    122.3957 -47.76       980.38     1.844            5     1.604      4.734     28.98901  20.5715        128
 4.02   0.0495    439.8514    305.6831 -45.05       635.84     1.420            5     1.309      3.347     28.97261  21.0416        129
 6.85   0.1808    433.3625    406.2980 -70.94          174     0.976            5     0.591      3.349     28.96276  22.4486        130
 6.67   0.3196    433.8379    353.1779 -45.15        98.54     0.750            5     0.568      2.709     28.99557  23.0660        131
 6.32   0.1163    443.7060    655.2996   7.65       270.42     1.095            5     0.940      4.643     28.95948  21.9699        132
 7.17   0.1324    443.4988    174.2926 -39.44       237.62     1.064            5     0.809      4.439     28.96276  22.1103        133
 8.02   0.4388    442.3320    959.6599  44.66     71.71999     0.580            5     0.332      2.809     28.97589  23.4109        134
 4.02   0.0840    452.5686   1533.3232 -50.76       374.62     1.456            5     1.123      3.291     28.98573  21.6160        135
 3.77   0.0143    463.6306    468.6874  86.51       2204.2     1.760            5     1.681      3.445     28.98573  19.6919        136
 9.51   0.1917    445.5110   1505.4846 -46.00       164.08     0.501            5     0.498      3.009     28.96933  22.5124        137
 5.91   0.1988    454.1760   1224.4894  65.01       158.34     1.048            5     0.853      3.231     28.98573  22.5510        138
 4.21   0.0495    460.6357   1096.2220  19.19       636.34     1.465            5     1.351      3.129     28.98901  21.0408        139
 3.75   0.0112    471.9650    734.8256 -22.24      2803.62     1.826            5     1.727      3.477     28.99557  19.4307        140
 3.92   0.0171    471.3041    254.3220 -28.04       1840.3     1.724            5     1.648      3.465     28.96276  19.8878        141
 6.23   0.0739    461.0882    725.0573  -8.53       426.02     1.518            5     1.219      5.210     28.97261  21.4764        142
 3.50   0.0089    477.8571    923.0980 -81.38      3547.08     1.799            5     1.792      3.296     28.96604  19.1753        143
 7.37   0.1164    466.1889   1198.3357  68.06       270.52     1.280            5     0.740      4.021     29.00541  21.9695        144
 4.17   0.0150    495.4272   1186.8884 -27.83      2098.68     3.426            5     2.481      7.010     28.97917  19.7451        145
 4.55   0.0464    488.5355    839.6415 -88.98       678.28     2.775            5     1.124      5.037     28.98573  20.9715        146
 7.27   0.2524    465.8100    561.1918 -46.84       124.66     0.766            5     0.568      3.149     28.97589  22.8107        147
 3.90   0.0245    477.1353   1276.3916 -55.03      1286.46     1.565            5     1.191      3.292     29.00869  20.2765        148
 4.61   0.0141    496.0693     82.8918 -86.85      2228.36     2.791            5     2.624      6.587     28.97261  19.6800        149
 3.50   0.0207    483.9222   1070.6936 -65.18      1521.74     1.637            5     1.599      3.329     28.96933  20.0941        150
 6.13   0.0850    478.5816    682.7492 -72.63       370.38     1.210            5     1.120      4.938     28.99557  21.6284        151
 8.85   0.1489    473.4629   1132.6627 -88.79       211.32     0.939            5     0.472      4.478     28.98245  22.2376        152
 4.17   0.1843    475.6478   1168.3951 -39.45       170.96     1.001            5     0.874      2.412     29.00869  22.4678        153
 4.29   0.0246    503.9787    762.8038 -20.48      1277.28     2.286            5     2.023      5.361     28.98573  20.2843        154
 8.44   0.0900    488.3796    424.7863 -40.56        349.9     1.132            5     0.683      6.524     28.98245  21.6901        155
 3.60   0.0359    501.8375    863.8452 -32.10       876.92     1.604            5     1.405      3.231     28.99885  20.6926        156
 3.79   0.0113    515.1593   1461.2512  22.80      2795.06     4.508            5     2.066      7.732     28.98901  19.4340        157
 5.08   0.0954    498.0071    366.2717 -48.24       330.02     1.246            5     0.997      3.005     29.00213  21.7536        158
 7.31   0.1804    493.0648    574.2988 -89.60       174.44     0.736            5     0.671      3.117     28.98245  22.4459        159
 7.12   0.1995    495.3723   1421.2379  16.55       157.82     0.737            5     0.454      2.842     28.99557  22.5546        160
 7.84   0.0187    525.3561    528.8495  49.46      1680.64     4.246            5     1.183     10.223     28.99885  19.9863        161
 4.79   0.0408    509.7027    164.6745  -4.41       770.16     2.301            5     1.413      4.517     28.96604  20.8335        162
 4.06   0.0359    513.6285   1179.2921 -60.41       876.66     1.539            5     1.417      3.421     28.97917  20.6929        163
 6.57   0.4074    502.9915    442.9808 -88.94     77.25999     0.621            5     0.614      2.256     28.98245  23.3301        164
 6.04   0.2984    504.9968   1569.2744  88.49       105.56     0.733            5     0.689      2.453     29.00541  22.9913        165
 6.04   0.1523    509.6813    453.9081 -56.43       206.68     1.028            5     0.828      3.373     28.97917  22.2618        166
 4.38   0.0532    518.9122    641.9872 -40.16       591.36     1.568            5     1.435      3.785     28.99229  21.1204        167
 4.63   0.1381    518.1274   1519.2468 -58.69        227.9     1.142            5     1.001      2.780     28.97917  22.1556        168
 6.12   0.1165    520.8414    853.7110 -59.80       270.22     1.220            5     1.036      4.182     28.97917  21.9707        169
 3.50   0.0155    540.1068    999.9646  70.62      2029.74     1.703            5     1.668      3.219     28.97261  19.7814        170
 5.20   0.0716    535.7526    404.3006  20.06        438.8     1.682            5     1.139      4.387     28.94963  21.4443        171
 6.58   0.3615    531.3072   1566.0385   7.93        87.02     0.720            5     0.681      2.828     28.96604  23.2010        172
 6.17   0.1230    543.7663    934.1357 -65.57       255.98     1.720            5     0.833      4.720     28.98901  22.0295        173
 3.50   0.0110    558.8320   1041.8341 -21.81      2853.94     1.844            5     1.753      3.392     28.99885  19.4114        174
 3.50   0.0190    571.1902   1448.2319  19.45      1653.68     2.837            5     2.141      5.629     28.98901  20.0039        175
 3.86   0.0176    571.1500     45.9306  44.13       1784.3     2.281            5     1.792      4.550     28.97261  19.9213        176
 3.50   0.0028    582.1719    319.2238   9.69     11280.56     2.123            5     2.088      3.538     28.99229  17.9192        177
 3.59   0.0065    596.3088    782.8519 -58.03      4838.12     3.961            5     3.561      8.022     28.97589  18.8383        178
 3.50   0.0028    580.6786    144.9695  -8.31     11319.32     2.079            5     2.039      3.467     28.98245  17.9154        179
 4.85   0.1323    555.6392    778.6191 -44.11          238     1.067            5     0.939      3.153     28.99885  22.1086        180
 5.30   0.0741    564.7402    139.6094 -64.17        425.3     1.341            5     1.139      3.278     29.00869  21.4783        181
 4.25   0.0557    575.9421   1001.9304 -50.28        564.6     1.624            5     1.496      4.220     28.97917  21.1706        182
 5.28   0.2470    562.8477    905.7126 -21.59       127.38     0.947            5     0.665      2.348     28.97261  22.7872        183
 6.55   0.2766    567.1480    632.1696  44.04       113.86     0.747            5     0.570      3.176     28.99557  22.9091        184
 3.50   0.0446    584.4254     76.0280 -41.99       705.92     1.507            5     1.345      3.009     28.99229  20.9281        185
 8.35   0.2234    578.2881    845.0198   4.15        140.9     0.747            5     0.676      3.907     28.98901  22.6777        186
 8.84   0.1573    578.0239    739.6246 -89.99       200.22     0.885            5     0.484      3.886     28.99557  22.2962        187
 5.46   0.1452    584.9345   1173.2931 -17.46       216.78     1.027            5     0.741      2.941     28.97917  22.2100        188
 4.47   0.1128    998.0761    233.3295 -30.97       278.94     1.287            5     1.034      2.958     28.96933  21.9362        189
 3.78   0.0333   1597.2350    654.8904 -21.83       827.58     2.023            5     1.758      4.164     25.40173  20.7555        190
 5.76   0.0927   1599.4438     19.3380   2.87       260.84     1.586            5     0.581      3.732     22.27026  22.0091        191
 4.17   0.0557   1594.5259    374.1212  73.66       549.94     1.482            5     1.306      3.532     28.19081  21.1992        192
 5.36   0.2942   1591.1957    566.8913  40.17       106.96     0.813            5     0.680      2.283     28.97589  22.9769        193
 3.72   0.0211   1584.8549   1108.8788 -38.70       1492.6     1.642            5     1.594      3.358     28.97917  20.1151        194
 5.87   0.1634   1585.9495   1069.6198 -81.50       192.72     0.973            5     0.963      3.527     28.99557  22.3377        195
 3.50   0.0005   1558.0118    487.7544 -24.28     58708.48     2.448            5     2.399      3.641     28.99229  16.1282        196
 7.61   0.0874   1562.9220    386.0760 -11.57       360.14     1.034            5     1.028      6.204     28.97917  21.6588        197
 3.50   0.0273   1561.0155    861.4495 -66.05      1153.94     1.621            5     1.506      3.204     28.99885  20.3945        198
 5.98   1.0056   1562.0247   1566.2897 -88.78         31.3     0.739            5     0.682      2.272     28.98245  24.3111        199
 5.20   0.1958   1519.3748     84.6294 -38.80       160.78     1.023            5     0.898      2.969     28.99229  22.5344        200
 4.57   0.0721   1514.3829    483.8464 -74.54       436.62     1.300            5     1.156      3.280     28.99557  21.4497        201
 5.54   0.1426    888.4492    681.0685 -41.37       220.68     1.194            5     0.912      3.247     28.97917  22.1906        202
 4.31   0.0305    885.5202   1500.1881 -83.72      1031.28     1.520            5     1.435      3.372     28.99557  20.5166        203
 6.59   0.0621    884.7987    339.5457   9.87       507.42     1.470            5     1.232      5.917     29.00869  21.2866        204
 7.38   0.1417    879.8105    672.0328  86.19       222.16     0.942            5     0.761      4.302     28.99229  22.1833        205
 3.50   0.0563    877.3871    961.1679 -66.56        559.1     1.501            5     1.233      3.051     28.99229  21.1813        206
 6.17   0.1025    876.2778    541.6147 -59.88       307.18     1.172            5     1.068      4.592     28.99885  21.8315        207
 3.50   0.0103    869.2630   1103.6373 -57.85       3049.8     2.296            5     2.055      4.408     28.98901  19.3393        208
 3.50   0.0297    867.3692    939.7470  44.54      1059.22     2.230            5     1.758      4.540     28.99885  20.4875        209
 3.59   0.1459    869.4493    644.0383 -17.85        215.8     1.165            5     0.942      2.593     28.98901  22.2149        210
 8.07   0.2418    866.7184    454.9728  -3.71        130.2     0.737            5     0.679      3.378     28.98901  22.7635        211
 5.84   0.3251    864.1548   1479.2910 -60.02        96.78     0.874            5     0.601      2.358     28.96933  23.0855        212
 8.37   0.2222    864.6859    355.3199  44.70        141.6     0.563            5     0.341      2.865     28.96933  22.6723        213
 5.34   0.2103    860.4044   1554.2736  63.53       149.74     1.040            5     0.807      2.590     29.00213  22.6117        214
 4.21   0.0419    858.1995   1339.9185 -74.30          752     1.531            5     1.295      3.684     28.98901  20.8595        215
 6.17   0.0957    855.3888    545.3405 -72.01       329.22     1.443            5     0.921      4.387     29.00213  21.7563        216
 3.50   0.0548    844.7890   1064.0005  -8.74        574.1     1.430            5     1.327      2.971     28.98573  21.1525        217
 3.53   0.0259    843.1023   1106.4581  20.83      1215.42     1.926            5     1.592      3.777     28.96604  20.3382        218
 8.66   0.0954    845.0099    362.7155  87.37       330.12     0.741            5     0.686      4.444     28.98901  21.7533        219
 3.70   0.0188    836.5547    298.7877 -26.97      1670.44     1.642            5     1.546      3.231     28.99229  19.9929        220
 5.01   0.2149    837.5872    992.8009 -47.78       146.48     1.093            5     0.735      2.786     28.98901  22.6356        221
 4.49   0.1526    836.5575   1520.5732   6.67       206.48     1.125            5     1.002      3.140     29.00541  22.2628        222
 4.48   0.0921    835.2856    819.1345 -12.33       341.78     1.146            5     1.112      2.981     28.97261  21.7156        223
 3.50   0.0041    822.9966    654.4258  35.36      7672.82     1.994            5     1.981      3.473     28.98573  18.3376        224
 5.76   0.3355    821.8614    330.8822 -46.67        93.78     0.829            5     0.667      2.464     28.96933  23.1197        225
 4.52   0.1912    819.2360   1398.4210  65.53        164.7     1.086            5     0.868      2.608     28.99557  22.5083        226
 5.44   0.1568    818.3823    702.6427 -49.35       200.84     1.018            5     0.860      2.847     28.99557  22.2929        227
 4.12   0.1244    815.1201    878.0870  58.63       252.86     1.291            5     1.165      3.543     28.96604  22.0428        228
 6.74   0.6720    809.5034    844.0055  32.71        46.84     0.780            5     0.319      1.812     28.98573  23.8735        229
 3.50   0.0045    803.0144   1378.7616 -41.97      6990.16     1.997            5     1.947      3.426     28.99885  18.4388        230
 3.50   0.0016    798.4896    695.7260 -87.96      19315.1     2.802            5     2.172      4.363     28.96933  17.3353        231
 3.50   0.0094    800.6838     41.2308 -33.45      3348.14     1.932            5     1.749      3.411     28.98901  19.2380        232
 7.73   0.1311    793.9686    295.8311  -1.49       240.24     0.949            5     0.758      4.328     28.99557  22.0984        233
 6.41   0.5591    786.0113   1349.0038  45.26     56.27999     0.881            5     0.538      2.772     28.97589  23.6741        234
 3.50   0.0123    773.8682   1427.3733  89.25      2556.36     3.457            5     2.264      6.315     28.99229  19.5309        235
 4.60   0.0962    767.8959    140.2650 -60.88       327.18     1.320            5     1.309      3.739     28.97589  21.7630        236
 7.16   0.1875    764.4896    567.4854 -71.09       167.82     0.942            5     0.418      3.135     28.97261  22.4879        237
 6.59   0.0641    754.7520    195.8497 -86.24       491.46     1.858            5     1.229      5.935     29.00213  21.3213        238
 7.87   0.1432    757.3177   1341.5786  -6.71       219.86     1.041            5     0.647      4.319     28.99229  22.1946        239
 8.10   0.5371    752.6725   1080.6608 -44.49         58.6     0.577            5     0.333      2.531     28.97917  23.6303        240
 8.09   0.0677    744.4834    841.4200 -63.47        465.2     1.640            5     0.755      5.832     28.99229  21.3809        241
 3.51   0.0174    742.7549    556.4702 -25.09       1811.7     1.765            5     1.602      3.357     28.97917  19.9048        242
 3.50   0.0511    737.8964   1158.1476  87.08       615.98     1.404            5     1.367      2.978     28.96604  21.0761        243
 3.50   0.0005    726.6094    848.5092 -25.68     66596.36     2.497            5     2.448      3.744     28.97917  15.9914        244
 3.90   0.0473    735.9008    649.8347  39.90       664.96     1.506            5     1.382      3.172     28.95619  20.9930        245
 3.57   0.0254    727.2782   1178.3353   8.28      1237.92     1.558            5     1.509      3.086     28.96933  20.3183        246
 4.55   0.0759    721.1415   1394.9948 -21.00       414.94     1.314            5     1.177      3.626     29.00541  21.5050        247
 3.50   0.0198    715.7654    808.4539  38.14      1591.28     1.626            5     1.615      3.213     28.98901  20.0456        248
 3.50   0.0196    708.8052   1163.8644   9.32         1606     1.636            5     1.618      3.239     29.00541  20.0356        249
 3.93   0.0176    704.4678   1339.1545 -23.01       1786.9     1.926            5     1.709      4.533     28.98573  19.9197        250
 3.50   0.0104    702.8011    952.5743 -48.83       3033.6     1.835            5     1.758      3.383     28.98573  19.3451        251
 5.33   0.0491    698.9138    582.6672   2.87       641.12     2.295            5     1.231      5.220     28.96604  21.0326        252
 3.90   0.0441    691.5549   1213.8265  19.10        714.3     1.678            5     1.345      3.635     29.00213  20.9153        253
 4.36   0.0515    686.4293   1213.6254 -60.19       611.86     1.505            5     1.340      3.639     28.99229  21.0834        254
 3.50   0.0128    685.3721    644.3685 -80.96      2453.82     1.866            5     1.740      3.459     28.99557  19.5754        255
 4.34   0.0903    687.3124    131.0406  86.80       348.46     1.274            5     1.123      3.277     28.97917  21.6946        256
 7.15   0.1307    672.9391    231.6208 -63.03       240.88     1.094            5     0.744      4.174     28.99885  22.0955        257
 5.88   0.0676    668.6501   1221.3494  36.46        466.1     1.489            5     1.261      4.954     29.00213  21.3788        258
 5.08   0.2984    666.5136   1180.1687  89.93       105.52     0.955            5     0.734      2.762     28.98901  22.9917        259
 3.50   0.0005    648.2820   1464.4250 -53.37     65188.92     2.478            5     2.403      3.704     28.98573  16.0146        260
 4.06   0.0466    654.4639    870.8840 -74.07       674.64     1.391            5     1.367      3.317     28.97261  20.9773        261
 5.07   0.0753    645.4736    652.9733 -84.02       417.92     1.355            5     1.168      3.874     28.99229  21.4973        262
 4.23   0.1524    641.3755    276.4784 -41.40        206.6     1.086            5     0.923      3.003     28.98901  22.2622        263
 3.64   0.0411    630.4717    806.2875   1.21       765.74     1.465            5     1.443      3.117     28.96933  20.8398        264
 3.60   0.0249    623.1900   1581.6979  79.95      1265.88     1.587            5     1.546      3.149     28.97589  20.2940        265
 6.21   0.0611    617.9739   1151.4823 -19.28       515.42     1.518            5     1.192      5.439     28.98573  21.2696        266
 5.20   0.1409    609.2960    945.4943 -15.30       223.16     0.991            5     0.960      2.631     28.95291  22.1785        267
 8.24   0.4827    607.3491   1011.3236 -46.06        65.18     0.580            5     0.332      2.677     28.96933  23.5147        268
 6.35   0.3609   1526.9799    879.0292 -44.67        87.24     0.891            5     0.536      2.466     28.99229  23.1982        269
 8.09   0.3588    593.3145    883.3145  45.00        87.68     0.561            5     0.342      2.351     28.96933  23.1927        270
 5.96   0.1756    588.1483   1139.2970 -20.64       179.08     0.912            5     0.677      2.719     28.95619  22.4174        271
 3.50   0.0077   1541.8051    135.1199 -54.26      4101.74     1.886            5     1.794      3.322     28.98573  19.0176        272
 5.97   0.1553   1523.7583    378.5374  71.87       202.74     1.192            5     0.873      3.392     28.98573  22.2826        273
 6.25   0.2046   1580.6293   1414.0333  33.94       153.88     1.457            5     0.646      3.446     28.99557  22.5820        274
 6.52   0.1958   1593.0791   1384.6772 -14.65       160.74     1.007            5     0.748      3.766     28.97589  22.5347        275
 3.61   0.0127   1566.6346     22.0349 -84.33      2476.98     1.762            5     1.687      3.372     29.00869  19.5652        276
 3.50   0.0005   1563.6810    304.2962 -23.55     59088.74     2.417            5     2.373      3.641     28.96276  16.1212        277
 3.50   0.0170   1570.4841     92.7061 -12.48      1848.48     1.733            5     1.564      3.204     28.95619  19.8830        278
 4.56   0.0628   1550.7593   1221.9539  71.70       501.26     1.350            5     1.238      3.502     28.99229  21.2998        279
 3.55   0.0109   1542.4658    654.7025  21.96       2896.1     1.858            5     1.817      3.527     28.97589  19.3955        280
 6.54   0.7294   1575.0785   1491.1161 -48.21        43.14     0.826            5     0.661      3.544     28.97261  23.9628        281
 3.50   0.0017   1552.4554    682.2519 -24.81      18921.2     4.857            5     4.179      8.866     28.98245  17.3576        282
 4.07   0.0216   1565.5981    784.6224 -78.96      1454.28     2.039            5     1.685      4.237     28.98901  20.1434        283
 3.78   0.0313   1545.7991    863.5850  57.52       1006.3     1.848            5     1.668      4.065     28.97917  20.5432        284
 3.50   0.0034   1514.8702    392.8083  34.77      9185.24     2.010            5     1.981      3.411     29.00541  18.1423        285
 3.77   0.0651   1532.3335    415.7738   0.34       483.62     1.632            5     1.510      4.204     28.99229  21.3387        286
 7.65   0.1952   1528.7090    732.9789   1.57       161.24     0.744            5     0.686      3.515     28.97917  22.5313        287
 4.55   0.1046   1535.8572   1428.6726 -43.66       300.74     1.718            5     0.950      4.179     28.97589  21.8545        288
 8.57   0.1429   1534.6635    976.3096  46.31       220.28     0.568            5     0.338      2.908     28.97589  22.1926        289
 3.66   0.0378   1503.9644    723.4789 -61.92        831.6     1.495            5     1.396      2.992     28.98245  20.7502        290
 4.10   0.2622   1522.6521     14.4239  19.11       120.12     0.921            5     0.816      2.242     29.00541  22.8510        291
 3.50   0.0802   1514.9686   1547.0338  61.56        392.7     1.595            5     1.170      3.422     28.99885  21.5648        292
 5.41   0.3955    903.4982    735.0018  -2.20        79.56     0.798            5     0.499      2.064     28.97589  23.2983        293
 4.53   0.1188   1519.9835   1100.7565 -79.27       265.02     1.249            5     1.064      3.599     28.99229  21.9918        294
 3.87   0.0958    893.8409   1426.2457 -30.28       328.86     1.290            5     1.109      3.032     28.99557  21.7575        295
 5.65   0.1893    896.7642    987.7794  89.36       166.36     1.126            5     0.695      3.273     28.99557  22.4974        296
 3.50   0.0009   1507.1749    269.4266 -30.62     33662.48     2.310            5     2.246      3.591     28.98901  16.7321        297
 4.76   0.1273   1488.1859     78.1475 -48.69       247.34     1.186            5     1.060      2.997     29.00213  22.0668        298
 5.32   0.0396    888.4439    326.0281   8.80       795.62     2.236            5     1.493      5.466     29.00213  20.7982        299
 4.98   0.1253   1498.3920    844.4031  32.20        251.2     1.133            5     0.984      2.851     28.97917  22.0499        300
 3.50   0.0003    880.2503   1592.5796 -77.38     105884.7     2.569            5     2.429      3.725     28.99229  15.4879        301
 7.83   0.1923    925.6093    666.1866 -18.65       163.64     0.748            5     0.449      2.983     28.97917  22.5153        302
 7.01   0.2516   1476.8551    198.5629  10.70       125.16     0.894            5     0.611      3.330     28.99229  22.8063        303
 7.62   0.1096    902.7853      1.5933  71.84       221.04     0.744            5     0.456      3.692     22.30439  22.1888        304
 8.87   0.1949   1503.5028   1096.5275  46.57       161.42     0.506            5     0.493      3.038     28.96933  22.5301        305
 3.50   0.0345    912.7096    838.7798 -27.80        911.3     1.460            5     1.390      2.876     28.98245  20.6508        306
 3.96   0.0209    895.9115    538.7719   3.10      1503.28     2.365            5     1.975      4.876     28.97917  20.1074        307
 5.55   0.0581   1482.3424    575.1400 -56.05        541.3     1.989            5     1.487      5.146     28.97261  21.2164        308
 5.83   0.0602   1474.2426    998.5538 -12.22        522.7     1.967            5     1.253      5.840     28.99557  21.2544        309
 7.37   0.3094    932.3012   1118.6440  46.05       101.66     0.914            5     0.517      2.703     28.95948  23.0321        310
 8.38   0.1470    909.3021      5.3410 -43.07       200.82     0.567            5     0.338      2.895     27.19159  22.2930        311
 3.50   0.0700    912.0459   1001.2821 -37.84       449.38     1.243            5     1.212      2.720     28.97589  21.4185        312
 6.01   0.1168   1040.5402    467.1076 -16.82       269.46     1.085            5     0.962      3.673     28.96933  21.9738        313
 3.50   0.0041    900.4026    302.8560 -59.29       7671.9     1.999            5     1.955      3.443     29.01196  18.3377        314
 3.50   0.0139    939.0460   1067.1439 -83.93      2267.54     1.776            5     1.685      3.418     28.98573  19.6611        315
 6.34   0.1560    908.0438    659.5292  28.54       201.72     1.059            5     0.667      2.961     28.97917  22.2881        316
 6.83   0.1961   1392.7191   1534.0426  -5.81       160.52     0.730            5     0.679      3.318     28.98245  22.5362        317
 8.00   0.2304    941.6843    725.8154 -29.55       136.68     0.856            5     0.615      3.255     28.99557  22.7107        318
 3.50   0.0258    928.2015   1322.5310 -52.08      1221.04     1.632            5     1.550      3.237     29.00213  20.3332        319
 7.59   2.7272    954.6793   1029.3546  43.62     11.53999     0.581            5     0.331      2.276     28.97917  25.3945        320
 7.60   0.1820    914.0682   1119.4817 -89.03       172.92     0.792            5     0.500      2.916     28.97261  22.4554        321
 6.55   0.2439   1438.1659    647.1104 -41.40       129.02     0.838            5     0.665      3.053     28.97589  22.7734        322
 3.66   0.0825   1432.0314    340.8662  15.73       381.72     1.716            5     1.164      3.730     28.99229  21.5956        323
 4.71   0.0736    947.6779    445.3114 -39.15       427.22     1.299            5     1.175      3.318     28.96276  21.4734        324
 6.10   0.0481    938.0269    516.3662  47.12       654.16     1.767            5     1.406      6.186     28.98901  21.0108        325
 5.14   0.1471    949.7538    268.1007 -53.61       213.68     1.062            5     0.514      2.856     28.94963  22.2256        326
 3.61   0.5678   1453.1263    391.6188  20.04        55.48     0.939            5     0.679      2.430     29.00869  23.6897        327
 4.25   0.2232   1435.9161   1347.3892 -72.55       141.06     1.048            5     0.942      2.597     28.98901  22.6765        328
 4.92   0.0378    950.3307    654.3801  85.37       832.64     1.863            5     1.574      5.106     29.00213  20.7489        329
 3.50   0.0657   1406.1931    329.7798  21.68       479.36     1.366            5     1.193      2.728     28.98245  21.3483        330
 6.02   0.0053   1441.7262   1082.2826  45.45       5883.2     4.292            5     1.460      8.513     28.96933  18.6260        331
 3.50   0.0101   1439.7469    619.2249 -76.87      3106.42     1.760            5     1.738      3.239     29.00541  19.3193        332
 7.07   1.5563   1450.2070     87.6113 -71.93     20.21999     0.754            5     0.450      2.801     28.97589  24.7855        333
 5.11   0.0720    965.0416    416.4363  -7.39       437.66     1.336            5     1.152      3.620     29.00213  21.4472        334
 5.59   0.1016   1066.6392    569.2214 -22.53       310.06     1.179            5     1.067      3.710     28.99557  21.8214        335
 4.34   0.0298    980.6801    798.0950 -57.19      1056.86     1.910            5     1.703      4.559     28.96604  20.4900        336
 3.50   0.0074   1435.2821    224.8197  -3.40      4229.84     1.920            5     1.832      3.411     28.99557  18.9842        337
 3.50   0.0828   1438.3701   1271.3562 -71.04       380.58     1.407            5     1.162      2.835     29.00213  21.5989        338
 3.62   0.0756   1065.6279   1597.1375 -67.70       366.78     1.283            5     1.112      2.782     25.53241  21.6390        339
 8.69   0.2860   1042.5236   1095.5178 -14.06       110.04     0.500            5     0.499      2.998     28.97589  22.9461        340
 3.50   0.0007   1040.2549    633.1714 -43.59     43824.52     2.415            5     2.350      3.662     28.99885  16.4457        341
 5.70   0.1667    981.8150   1486.9553  -4.79       188.82     0.991            5     0.847      3.371     28.99229  22.3599        342
 5.53   0.0612    978.2477    452.5774 -85.84        514.9     1.419            5     1.343      4.904     28.99557  21.2707        343
 5.38   0.0690   1412.4330      1.6641  89.81       352.82     1.852            5     0.689      4.741     22.43192  21.6811        344
 3.60   0.0165   1415.2017   1386.5919  69.74      1912.02     1.686            5     1.582      3.232     28.97589  19.8463        345
 4.63   0.0326   1400.2870   1031.5452  49.21        966.4     1.803            5     1.672      4.196     28.97261  20.5871        346
 3.85   0.0154   1392.1559   1038.8563 -49.26      2048.82     1.744            5     1.604      3.421     28.98573  19.7712        347
 6.48   0.1879   1403.8494   1362.9241 -43.22        167.4     0.846            5     0.653      3.589     28.96933  22.4906        348
 3.50   0.0031   1372.4905   1019.0235 -51.87     10262.26     2.165            5     2.098      3.604     28.98573  18.0219        349
 3.50   0.0004   1393.4200    114.5699 -56.16      78256.7     2.492            5     2.455      3.670     28.98901  15.8162        350
 3.50   0.0110   1408.1587    308.3988 -81.36      2855.28     1.735            5     1.682      3.152     28.99557  19.4109        351
 3.95   0.0498   1411.0994    350.1439  38.40       631.98     1.758            5     1.408      3.665     28.95619  21.0482        352
 4.25   0.0947   1388.8088    806.8516 -25.29       332.64     1.201            5     1.174      2.894     29.00541  21.7451        353
 3.50   0.1344   1345.6874    605.3052 -43.35       233.98     1.324            5     1.035      3.133     28.95619  22.1271        354
 5.66   0.1026   1273.6910    697.9611 -12.71       306.78     1.350            5     1.065      3.944     28.96933  21.8329        355
 3.50   0.0099   1234.2921    304.9013 -79.22      3193.22     1.792            5     1.750      3.241     28.96276  19.2894        356
 3.50   0.0028   1081.7275   1148.2504  61.28      11136.8     2.076            5     2.069      3.486     28.96933  17.9331        357
 6.51   0.1166   1385.4855   1274.4662 -54.29       269.72     0.936            5     0.920      4.242     28.96933  21.9727        358
 8.81   0.0810   1067.7229   1473.7825  16.57       388.56     1.619            5     0.575      6.791     28.99885  21.5764        359
 3.50   0.0036   1388.6819   1428.5754  48.45         8739     2.053            5     2.022      3.458     28.98573  18.1963        360
 3.50   0.0104   1390.2938    713.3536  75.37       3022.5     1.850            5     1.772      3.366     28.96604  19.3491        361
 3.50   0.0010   1320.0631    660.0717 -10.47     31806.72     2.333            5     2.274      3.643     28.96933  16.7937        362
 6.45   0.5498   1388.1359   1585.2898 -59.73     57.23999     0.864            5     0.591      2.597     28.97589  23.6558        363
 3.50   0.1250   1086.2177   1452.9337 -82.77       251.92     1.396            5     1.152      2.986     28.99229  22.0468        364
 3.50   0.0345   1332.6742    107.4334 -49.48       912.62     1.499            5     1.394      2.984     28.98245  20.6493        365
 3.50   0.1970   1379.2196    318.9213  16.48       159.88     1.156            5     0.921      2.663     28.99557  22.5405        366
 6.63   0.2410   1277.9524    343.4623  -1.41        130.6     0.838            5     0.683      2.964     28.97917  22.7601        367
 5.93   0.3075   1368.0579    149.3176  86.55       102.34     0.744            5     0.669      2.385     28.97589  23.0249        368
 5.25   0.0223   1212.8004   1429.4303  72.12      1413.74     3.218            5     2.171      8.566     28.98245  20.1741        369
 7.88   0.4579   1346.9917    194.2500  89.56        68.78     0.677            5     0.433      3.238     29.00213  23.4563        370
 3.50   0.0077   1329.8429    655.9887  10.15      4092.04     1.959            5     1.755      3.479     28.99229  19.0201        371
 3.50   0.0090   1307.4513    669.7317 -51.30      3494.72     2.235            5     1.850      3.706     28.97589  19.1915        372
 5.58   0.0620   1352.1553    152.0723  73.75       507.74     1.794            5     1.302      5.185     28.97589  21.2859        373
 3.50   0.0694   1330.2837    386.8816  39.77       453.04     1.347            5     1.186      3.014     28.96933  21.4097        374
 3.50   0.0002   1298.3760    725.1057 -19.49     174428.9     3.083            5     2.595      3.714     28.97917  14.9460        375
 3.50   0.0063   1278.0216   1331.4225 -58.34      5033.74     1.924            5     1.897      3.432     28.99229  18.7953        376
 3.86   0.1167   1299.1010     54.0034 -23.86       269.66     1.184            5     1.057      3.078     28.98245  21.9730        377
 5.51   0.1550   1291.4910    546.3846 -40.15       203.12     1.095            5     0.838      3.382     28.98901  22.2806        378
 3.99   0.0481   1319.2079    264.0551 -40.09       655.16     1.430            5     1.297      2.909     29.01524  21.0091        379
 3.50   0.0080   1265.3090    807.9827 -58.74         3959     1.870            5     1.801      3.366     28.98901  19.0560        380
 3.86   0.0366   1304.5173    892.9683 -32.64       860.64     1.449            5     1.386      3.031     28.98573  20.7129        381
 3.50   0.0039   1291.3468    762.2106 -27.44       8097.1     2.471            5     2.012      3.901     29.00541  18.2792        382
 3.50   0.0026   1272.6870    610.0533 -57.36     12138.48     4.512            5     2.757      7.008     28.96933  17.8396        383
 7.56   0.1096   1237.8351    857.0320 -79.45       287.36     1.151            5     0.729      4.386     28.99885  21.9039        384
 3.50   0.0342   1292.7814    412.8451 -38.01        921.4     1.528            5     1.378      2.981     28.99557  20.6389        385
 4.26   0.0974   1262.0441    855.1777 -66.55       323.44     1.217            5     1.182      3.041     28.99557  21.7755        386
 7.36   0.1017   1209.7540   1415.5387  31.78       309.66     1.051            5     0.816      5.362     28.98573  21.8228        387
 3.50   0.0243   1259.3258    432.5901  10.30      1296.96     2.381            5     2.078      4.900     29.00541  20.2677        388
 3.50   0.0165   1201.7698    339.1828 -57.33      1911.86     1.723            5     1.665      3.359     28.99557  19.8464        389
 3.80   0.1977   1262.1337    216.3585 -22.44       159.26     1.104            5     0.998      2.550     28.98901  22.5447        390
 5.05   0.0347   1229.4344    599.1761 -23.21        907.8     2.005            5     1.703      5.666     28.99229  20.6550        391
 3.50   0.0164   1236.8876   1553.6559 -49.12      1914.94     1.727            5     1.664      3.396     28.97261  19.8446        392
 3.50   0.0029   1218.8630   1195.0308  77.02      11013.4     2.233            5     2.188      3.716     28.99229  17.9452        393
 3.50   0.0740   1237.5150     48.1937 -80.74        425.3     1.344            5     1.224      2.957     28.98573  21.4783        394
 3.50   0.0032   1210.4023   1279.0442  81.86     9817.101     6.056            5     3.833     10.041     29.00541  18.0700        395
 7.67   0.2226   1243.6831    613.9438  -4.63       141.36     0.736            5     0.665      3.412     28.97261  22.6742        396
 4.58   0.0172   1194.9189    124.1346 -79.05      1827.38     2.261            5     2.076      5.674     28.96604  19.8954        397
 4.06   0.0741   1228.5780   1153.7441  64.91        424.8     1.287            5     1.160      3.276     29.00213  21.4795        398
 7.24   0.1487   1210.1979    829.2667  18.60        211.9     1.100            5     0.684      4.181     29.00541  22.2347        399
 5.62   0.1136   1088.1057    396.8047  70.01       277.06     1.168            5     1.136      3.509     28.97917  21.9436        400
 3.50   0.0019   1214.5879    513.0850 -45.87     16603.22     2.183            5     2.150      3.499     28.98901  17.4995        401
 3.96   0.0961   1181.7469    176.2887 -12.50       327.58     1.225            5     1.105      2.779     28.97261  21.7617        402
 8.19   0.2466   1129.3346    504.3347  45.00       127.56     0.578            5     0.333      2.715     28.96933  22.7857        403
 5.61   0.1590   1203.8422   1217.3240 -21.40       197.94     0.957            5     0.841      2.786     28.98245  22.3087        404
 3.50   0.0006   1165.1466   1299.8308 -48.81     50553.64     2.411            5     2.346      3.654     28.99885  16.2906        405
 3.50   0.0009   1079.9946    512.2403 -23.39      34626.2     2.377            5     2.331      3.660     28.99557  16.7015        406
 3.76   0.0165   1207.4993    838.9009  18.38      1904.74     1.648            5     1.623      3.262     28.95948  19.8504        407
 5.17   0.0245   1200.5162   1442.1827  82.19      1285.78     2.099            5     1.873      5.902     28.99229  20.2771        408
 4.11   0.0535   1180.8208    549.4500 -47.73       588.78     1.434            5     1.297      3.215     28.99557  21.1251        409
 7.41   0.5238   1185.1847    313.5952 -70.15        60.08     0.733            5     0.450      3.110     28.97917  23.6032        410
 5.93   0.1542   1176.8727   1598.8506 -49.65       163.16     0.808            5     0.675      2.584     23.17004  22.5185        411
 3.50   0.0010   1138.5109    148.1657 -20.25     32634.24     2.334            5     2.294      3.625     28.97917  16.7658        412
 3.91   0.0135   1120.1593    329.8336  56.65      2337.18     2.845            5     2.022      5.740     29.00213  19.6283        413
 8.47   0.2269   1172.4976    232.4843  46.94        138.6     0.502            5     0.498      3.010     28.95291  22.6956        414
 3.86   0.0193   1151.0746     99.5253 -26.67      1634.22     1.722            5     1.615      3.496     28.97589  20.0167        415
 6.67   0.1161   1166.3237   1599.5646 -85.96       206.16     1.216            5     0.490      4.543     22.04712  22.2645        416
 3.75   0.0324   1153.2593   1353.0944 -60.81        970.4     1.776            5     1.696      3.807     28.97261  20.5826        417
 3.50   0.0046   1157.8262    236.5123  79.37      6869.78     2.002            5     1.975      3.494     28.98573  18.4576        418
 4.26   0.0418   1161.4496    887.8617  -8.35       753.56     1.503            5     1.405      3.634     28.98245  20.8572        419
 6.22   0.1177   1155.8263    567.5906 -69.41        267.4     1.347            5     0.836      3.984     28.98901  21.9821        420
 4.71   0.1380   1130.7889    359.2572  -9.37       228.28     1.074            5     0.912      2.973     29.00213  22.1538        421
 4.17   0.0292   1064.3220   1563.1912 -74.55      1079.56     2.684            5     1.933      5.792     28.99557  20.4669        422
 3.80   0.0507   1129.9449    219.7502 -24.80          621     1.589            5     1.394      3.187     28.98901  21.0673        423
 3.50   0.0017   1129.9545    183.6125 -23.63     18034.46     2.213            5     2.128      3.525     28.99229  17.4097        424
 4.47   0.0423   1128.9933    547.4111 -74.58       744.28     1.469            5     1.349      3.614     28.97261  20.8707        425
 7.98   0.0666   1092.7164    429.6616  69.17        472.3     1.453            5     1.122      8.023     28.97261  21.3645        426
 3.50   0.0038   1107.4199    428.0380 -28.08      8208.48     2.039            5     2.012      3.517     28.99885  18.2643        427
 5.51   0.0236   1110.8940    479.5029  26.36      1331.28     2.924            5     1.996      8.057     28.95948  20.2393        428
 6.34  99.0000   1106.5220   1267.4580  50.55    -2.020003     0.502            5     0.496      1.873     28.98245  99.0000        429
 4.27   0.1129   1094.6046   1136.1982  -4.83       278.82     1.133            5     1.056      2.795     28.98245  21.9367        430
 4.08   0.0153   1071.8936   1219.1644 -66.42       2050.1     2.391            5     2.098      5.319     28.96933  19.7706        431
 4.52   0.0566   1079.2899    330.1740 -25.28        556.1     1.405            5     1.242      3.150     28.98245  21.1871        432
 5.53   0.0404   1090.4669    468.4120 -57.76       779.48     2.386            5     1.398      5.654     29.00213  20.8205        433
 3.50   0.0015   1025.7091   1380.0187 -77.07     21105.64     2.308            5     2.217      3.573     28.98573  17.2390        434
 3.50   0.0317   1095.2346   1526.7329  59.84       993.04     1.578            5     1.414      2.971     28.99557  20.5576        435
 5.37   0.0019   1089.7375    783.2106  43.29     16990.52     2.526            5     1.105      5.686     29.00869  17.4745        436
 6.59   0.2526   1078.7134    922.4252  81.62       124.64     1.014            5     0.477      2.582     28.98901  22.8109        437
 7.28   0.1325   1064.0295    292.4734  27.55       237.52     1.055            5     0.662      4.239     28.98573  22.1107        438
 4.40   0.4544   1019.1926   1154.9578  89.24         69.3     0.925            5     0.751      2.449     28.99557  23.4482        439
 8.61   0.1397   1073.9982    352.4968  89.61       225.38     0.804            5     0.500      4.017     28.98573  22.1677        440
 7.40   0.1504   1052.2992    237.7063  44.84       209.12     0.952            5     0.765      3.756     28.96276  22.2490        441
 7.47   0.2511   1052.4797    400.9420   0.09       125.34     0.799            5     0.500      3.220     28.97917  22.8048        442
 8.36   0.3072   1043.4993    809.4667  47.04       102.46     0.507            5     0.492      3.043     28.98245  23.0236        443
 3.50   0.0031   1038.6838    525.4667 -20.19     10182.08     2.093            5     2.063      3.526     28.96933  18.0304        444
 7.84   0.2351   1037.1857    242.6113 -72.29       133.88     0.766            5     0.450      2.849     28.98573  22.7332        445
 4.83   0.0226    986.5775    454.1171  87.89      1395.04     2.372            5     1.930      6.121     28.98901  20.1885        446
 3.50   0.0010    984.8910    558.5637 -30.47     30843.72     2.341            5     2.294      3.644     28.97589  16.8271        447
 3.84   0.0177   1030.0736    302.7101  64.13       1776.5     2.778            5     2.035      5.300     28.96933  19.9261        448
 3.50   0.0017   1009.7690    813.8148 -52.52     18417.14     2.231            5     2.173      3.576     28.99885  17.3869        449
 4.03   0.1806   1014.4313    453.0114  62.83        174.4     1.008            5     0.976      2.624     28.99885  22.4461        450
 3.50   0.0107   1011.2687    344.8743 -86.54      2936.24     1.780            5     1.762      3.345     28.96604  19.3805        451
 6.30   0.0887   1020.8588   1269.0149  56.67       354.96     1.873            5     0.844      4.621     28.98901  21.6746        452
 6.67   0.0996   1010.9724    267.5466 -89.66       316.18     1.131            5     0.964      4.806     28.99885  21.8002        453
 7.78   0.1737    992.8915    499.8915 -45.40       181.02     0.851            5     0.668      3.861     28.95619  22.4057        454
 3.73   0.0096   1001.6528    542.6659 -66.16      3282.32     1.815            5     1.806      3.496     28.97917  19.2595        455
 3.74   0.0231   1001.3654   1555.6075 -52.00      1360.86     1.598            5     1.513      3.316     28.99229  20.2155        456
 3.74   0.0335    999.7545   1273.8553 -23.67       938.48     1.470            5     1.399      3.100     28.98573  20.6189        457
