#   1 KRON_RADIUS            Kron apertures in units of A or B                         
#   2 MAGERR_APER            RMS error vector for fixed aperture mag.                   [mag]
#   3 Y_IMAGE                Object position along y                                    [pixel]
#   4 X_IMAGE                Object position along x                                    [pixel]
#   5 THETA_IMAGE            Position angle (CCW/x)                                     [deg]
#   6 FLUX_APER              Flux vector within fixed circular aperture(s)              [count]
#   7 A_IMAGE                Profile RMS along major axis                               [pixel]
#   8 THRESHOLD              Detection threshold above background                       [count]
#   9 B_IMAGE                Profile RMS along minor axis                               [pixel]
#  10 FLUX_RADIUS            Fraction-of-light radii                                    [pixel]
#  11 FLUXERR_APER           RMS error vector for aperture flux(es)                     [count]
#  12 MAG_APER               Fixed aperture magnitude vector                            [mag]
#  13 NUMBER                 Running object number                                     
 3.77   0.0005     52.3656     61.8381  -4.11     28841.52     5.767           25     5.156     10.709     13.11841  16.9000          1
 3.50   0.0030     15.7502    983.4642 -87.95     4761.784     4.430           25     1.919      6.868     13.11395  18.8556          2
 3.50   0.0036     17.0166     89.5020 -27.30     3932.045     1.584           25     1.535      3.098     13.11247  19.0635          3
 3.50   0.0014     13.8130   1444.2402 -50.19     10069.28     1.667           25     1.653      3.159     13.11841  18.0425          4
 4.41   0.0327     16.2316    382.9453 -68.30     435.8997     1.179           25     1.108      3.213     13.11989  21.4515          5
 6.18   0.0665     12.9454    839.5240 -53.69     214.1648     1.159           25     0.755      4.008     13.11098  22.2231          6
 6.27   0.1269      5.8499   1467.8611 -42.10     107.1749     0.830           25     0.681      2.814     12.52007  22.9748          7
 4.92   0.0310      3.4645    143.1826 -89.94     396.7415     1.495           25     1.267      3.984     11.32139  21.5537          8
 6.83   0.0716      3.8580    183.6363 -19.12     175.2233     0.927           25     0.685      3.438     11.55288  22.4410          9
 3.50   0.0831      9.2221   1182.3053  14.57     171.3272     0.946           25     0.830      2.327     13.11395  22.4654         10
 7.11   0.1149      1.5458    302.4866  39.07      95.0806     0.504           25     0.494      2.735     10.06136  23.1048         11
 3.50   0.0003     58.9477   1076.9407  75.51     46001.08     2.045           25     1.922      3.366     13.11247  16.3931         12
 3.88   0.0169     23.8041    365.4746  73.25      841.868     1.319           25     1.260      2.992     13.12434  20.7369         13
 5.46   0.1966     17.0724   1213.4948  89.94      72.4185     0.771           25     0.500      2.388      13.1095  23.4004         14
 7.67   0.3202     14.5140   1561.4911 -11.76     44.44717     0.500           25     0.500      2.622     13.10356  23.9304         15
 4.90   0.0437     23.0687    381.3569  68.74     325.8316     1.192           25     1.060      3.652     13.11544  21.7675         16
 3.84   0.0296     32.9996   1108.4679  65.17     480.8281     1.995           25     1.108      3.780     13.12286  21.3450         17
 5.84   0.0724     22.8925    696.8405 -45.60     196.5248     0.813           25     0.665      3.173     13.10356  22.3165         18
 4.81   0.0392     32.3472    325.0265 -20.34     363.4084     1.271           25     1.126      3.691     13.12137  21.6490         19
 3.50   0.0670     37.1702   1519.9764 -87.99     212.7104     1.004           25     0.908      2.457     13.11692  22.2305         20
 3.50   0.0471     37.9992   1169.0452  15.42     302.3284     1.136           25     1.112      2.817     13.12434  21.8488         21
 6.78   0.1115     33.7591     14.6046  71.89     127.7427     0.734           25     0.455      2.792     13.11989  22.7842         22
 5.40   0.0441     43.4825    438.4967 -73.85     322.7194     1.314           25     1.121      4.014     13.10356  21.7779         23
 3.50   0.0003     79.0643    535.8630 -57.44     44492.47     1.925           25     1.904      3.295     13.11247  16.4293         24
 4.38   0.0495     41.5828    913.7358 -33.51      287.803     1.061           25     0.919      2.838     13.11989  21.9023         25
 5.75   0.2895     38.6411   1224.6516 -43.67     49.20955     0.867           25     0.523      2.648     13.11692  23.8199         26
 5.56   0.0670     49.4918   1433.8137 -65.21     212.4316     0.954           25     0.923      3.027     13.11544  22.2320         27
 5.18   0.0728     49.4587    263.5749 -66.18     195.8722     1.195           25     0.955      3.480     13.12137  22.3201         28
 7.80   0.2379     42.3415    226.6744  45.68     59.84716     0.577           25     0.333      2.383     13.11098  23.6074         29
 7.05   0.3741     41.6549    999.6901 -46.62     38.05433     0.572           25     0.336      2.258      13.1095  24.0990         30
 8.16   0.0942     46.6941    664.6706 -43.78     151.1839     0.563           25     0.340      2.719      13.1095  22.6012         31
 6.12   0.0813     64.8561   1146.4165  14.61     175.3134     1.051           25     0.890      3.659     13.11989  22.4405         32
 3.50   0.0086     74.1151    126.4486 -21.43     1661.727     1.427           25     1.348      2.971     13.11247  19.9986         33
 6.35   1.9821     65.5015   1514.5056 -45.72     7.178506     0.501           25     0.499      2.311     13.10207  25.9099         34
 8.49   0.2508     66.5318   1414.4746 -44.06     56.75403     0.505           25     0.494      2.799     13.10504  23.6650         35
 6.53   0.1828     70.9779   1320.5319 -89.11     77.95403     0.789           25     0.499      2.520     13.12137  23.3204         36
 4.15   0.0329     81.3945    419.8273  85.88     432.5851     1.391           25     1.173      3.490     13.11692  21.4598         37
 3.50   0.0002    120.9218    787.4944 -42.80     65822.96     1.968           25     1.946      3.310     13.10653  16.0041         38
 4.45   0.0157     89.6612    375.3125  -8.91     905.2149     2.201           25     1.789      5.255      13.1095  20.6581         39
 6.18   0.1248     78.6917   1031.9766  -2.38     114.0806     0.736           25     0.670      2.870     13.11247  22.9070         40
 3.56   0.0058     95.6111     54.3885  -6.13     2439.796     1.499           25     1.459      3.068     13.11098  19.5816         41
 7.29   0.0705     82.9674    930.9600  44.16      202.083     0.895           25     0.533      3.777     13.12137  22.2862         42
 5.73   0.0525     87.5743    757.3250  46.61     271.1493     1.080           25     0.936      3.996     13.11544  21.9670         43
 6.11   0.1902     87.1081   1358.1217 -47.31     74.83224     0.830           25     0.673      2.812     13.10802  23.3648         44
 6.78   0.0743     90.7097   1043.9907  53.54     191.7564     1.023           25     0.635      3.691     13.11247  22.3431         45
 4.26   0.0526     90.5881    494.1471 -16.01      270.837     1.006           25     0.941      2.805     13.12286  21.9682         46
 9.28   0.0752     86.4881    862.0151 -32.06     189.5033     0.798           25     0.313      3.455     13.11692  22.3560         47
 7.82   0.1060     87.6720    810.6771 -45.24     134.3182     0.570           25     0.337      2.749      13.1095  22.7297         48
 4.33   0.0243     97.0989    451.1919 -14.65     585.2806     1.886           25     1.112      4.256     13.11098  21.1316         49
 7.09   0.1216     94.3153    387.6701  44.29     117.0979     0.568           25     0.338      2.148     13.10653  22.8786         50
 8.24   0.0877    101.5233    517.4830  44.00     162.3863     0.503           25     0.496      3.019     13.11098  22.5236         51
 4.85   0.0976    107.1691    861.1779 -44.69     145.9492     0.793           25     0.684      2.413     13.11692  22.6395         52
 6.49   0.0709    114.3650    414.1011  78.71     200.5863     0.993           25     0.745      3.757     13.10356  22.2942         53
 7.57   0.4291    109.7253   1513.3552  40.66      33.1791     0.559           25     0.340      2.180     13.11098  24.2478         54
 3.86   0.0827    116.2039    989.3252  17.90     172.4149     0.959           25     0.862      2.631     13.12434  22.4586         55
 3.92   0.1094    116.6458    152.3968 -48.96     130.2597     0.987           25     0.861      2.486     13.12434  22.7630         56
 4.90   0.0549    116.3229     65.0629   2.91     259.1875     1.238           25     0.962      3.704      13.1095  22.0160         57
 5.23   0.0603    125.3040    492.6458   3.72     235.9713     1.313           25     0.899      3.727     13.10356  22.1179         58
 3.50   0.0004    161.4527   1466.8275 -62.60     37281.94     1.887           25     1.855      3.292     13.12137  16.6213         59
 4.88   0.0522    130.2532    416.4069  19.77     273.1725     0.953           25     0.914      3.091     13.12731  21.9589         60
 5.93   0.0903    128.2914    884.0579   6.49     157.5606     0.731           25     0.675      3.128     13.10802  22.5564         61
 5.03   0.3122    127.2593   1476.9744   1.55     45.64358     0.661           25     0.438      2.040     13.12137  23.9016         62
 7.12   0.0557    142.3000    885.0659  72.53      255.437     1.010           25     0.747      5.104     13.11247  22.0318         63
 3.50   0.0017    169.2886    875.6515 -60.73     8455.821     1.717           25     1.674      3.207      13.1095  18.2321         64
 3.50   0.0835    150.5815   1278.7736  82.35     170.5845     0.961           25     0.925      2.469     13.11841  22.4701         65
 4.49   0.1161    154.5294     80.6534 -67.71     122.6806     0.937           25     0.808      2.603     13.11098  22.8281         66
 4.01   0.0184    164.1869   1444.2914  47.23     773.9684     1.315           25     1.220      3.155     13.11544  20.8282         67
 5.87   0.1685    155.0629   1578.6616 -89.90     84.53851     0.730           25     0.649      2.657     13.11395  23.2324         68
 3.50   0.0266    165.7468    102.6053 -27.35      536.923     1.257           25     1.163      2.728     13.12731  21.2252         69
 5.28   0.0760    165.0033    574.9867  75.43      187.394     1.228           25     0.718      3.262     13.11247  22.3681         70
 4.67   0.0536    168.4867   1367.4685  20.67     265.7289     1.009           25     0.988      2.797     13.10504  21.9889         71
 5.84   0.0744    167.9813    649.5107   1.35      191.483     1.038           25     0.782      3.536     13.11544  22.3447         72
 4.73   0.0341    179.2377    573.5081  32.97     417.5934     1.568           25     1.257      4.283     13.10802  21.4981         73
 5.49   0.0284    185.8672   1353.5756 -50.21     501.3164     1.474           25     1.273      4.947     13.11841  21.2997         74
 3.93   0.0151    191.7892   1349.0759 -17.92     942.0615     1.315           25     1.260      3.106     13.12434  20.6148         75
 3.73   0.0040    209.8528    826.1118  -7.48      3559.83     4.622           25     2.153      8.057     13.10653  19.1714         76
 4.16   0.0045    229.0615    560.6190 -23.24     3135.529     3.757           25     3.430      8.685     13.11841  19.3092         77
 3.50   0.0082    205.7428    547.4331 -50.08     1736.322     1.413           25     1.388      2.950     13.11989  19.9509         78
 6.65   0.0800    195.0215    447.7135 -85.09     178.1093     0.732           25     0.676      3.184     13.11544  22.4233         79
 3.50   0.0082    211.4102   1304.6077 -40.53     1742.687     1.411           25     1.380      2.991     13.11098  19.9470         80
 4.33   0.0260    209.9548    683.0822 -80.09      546.646     1.518           25     1.217      3.698     13.11098  21.2057         81
 6.95   0.1269    204.8301    182.1670 -44.93     112.3069     0.758           25     0.571      3.179     13.12137  22.9240         82
 3.78   0.1134    208.1468   1224.1273 -14.49     125.6018     0.861           25     0.844      2.335     13.11098  22.8025         83
 3.50   0.0001    258.9254    995.8104 -43.31     114525.4     2.092           25     2.025      3.382     13.12434  15.4027         84
 7.67   0.0640    204.5729    935.2369 -19.75     222.4585     0.733           25     0.455      3.698     13.11692  22.1819         85
 3.50   0.0071    223.2786   1224.6028  20.19     1993.077     1.411           25     1.403      3.005     13.11989  19.8012         86
 6.28   0.0409    216.9193    739.7366 -46.49     348.1313     1.323           25     1.013      5.079     13.10802  21.6956         87
 3.50   0.0207    221.6176    773.3508 -32.33     686.7098     1.262           25     1.233      2.795     13.11841  20.9581         88
 7.43   0.0807    216.1229    881.6307 -66.69     176.4752     1.120           25     0.572      4.582     13.11544  22.4333         89
 3.50   0.0002    264.9534     65.7731 -32.20     84207.41     2.028           25     1.996      3.310     13.12286  15.7366         90
 4.32   0.0104    243.0270    111.0771 -85.87     1363.715     2.181           25     1.625      5.062     13.11544  20.2132         91
 6.77   0.0368    229.2600    546.3682 -62.66     387.3678     1.147           25     0.927      5.448     13.11841  21.5797         92
 4.17   0.0042    254.5277    611.2526 -44.96     3401.623     2.599           25     2.118      5.674     13.11098  19.2208         93
 4.56   0.0244    238.4033    837.2197  -0.07     584.6382     1.538           25     1.343      4.295     13.11544  21.1328         94
 7.00   0.3652    232.2851   1551.6707  42.41      38.9797     0.554           25     0.344      2.082     13.10653  24.0729         95
 6.05   0.1049    238.8988   1477.2656 -62.39     135.7779     1.007           25     0.650      3.103     13.11395  22.7179         96
 5.07   0.0267    249.5192    105.7907 -39.60     533.4042     1.353           25     1.158      4.242     13.11544  21.2324         97
 6.74   0.0890    247.9741   1412.9532  34.10     160.1033     0.809           25     0.777      3.746     13.12286  22.5390         98
 6.52   0.1276    250.1559   1549.1664 -46.24     111.7254     0.825           25     0.674      3.112     13.12286  22.9296         99
 8.32   0.1250    248.6070    149.8001  18.07     113.9021     0.742           25     0.453      2.838     13.11098  22.9087        100
 3.50   0.0007    286.7198   1484.9985 -34.86     19896.32     1.803           25     1.773      3.277     13.11989  17.3031        101
 3.50   0.0032    281.0606   1520.9103  78.86     4382.093     1.578           25     1.503      3.126     13.11098  18.9458        102
 7.88   0.0582    264.4987    722.9905 -89.56     244.7164     0.852           25     0.694      4.522     13.11098  22.0783        103
 6.08   0.0727    264.5280    122.1684 -89.38     195.8597     0.938           25     0.736      3.315     13.11692  22.3201        104
 4.61   0.0326    269.9497   1272.2324   9.29     437.3594     1.380           25     1.179      3.819     13.11989  21.4479        105
 7.75   0.3210    270.3510   1248.7195  48.76     44.35104     0.560           25     0.340      2.374     13.11098  23.9327        106
 3.50   0.0010    302.1461    199.9575  -1.01     14611.84     1.754           25     1.748      3.194     13.11692  17.6382        107
 8.12   0.1212    278.4984    555.4962 -45.05     117.4179     0.503           25     0.497      3.020     13.10653  22.8757        108
 4.55   0.0176    292.5302   1474.2421 -21.60     811.0072     1.506           25     1.241      4.035     13.11692  20.7774        109
 5.27   0.0644    291.4895    246.7583 -31.60     221.1104     1.130           25     0.933      3.231     13.11247  22.1885        110
 3.50   0.0189    301.2911    561.8903  -3.92     752.3511     1.383           25     1.345      3.072     13.10356  20.8589        111
 5.62   0.0290    307.7112     83.4766  74.73     491.4698     1.692           25     1.285      5.450     13.10504  21.3213        112
 3.50   0.0015    321.1615    695.6137 -47.99     9694.128     1.682           25     1.667      3.156     13.12137  18.0837        113
 3.98   0.0179    320.8418    639.7523 -62.45     796.6274     2.244           25     1.508      4.747     13.12137  20.7969        114
 4.25   0.0077    326.5584    593.7395  -1.29     1842.039     1.915           25     1.868      4.755     13.11692  19.8868        115
 7.56   0.0584    310.0077    315.3219  87.28     243.9337     0.749           25     0.679      4.145     13.11989  22.0818        116
 5.25   0.0729    315.9547    225.1773  -9.26     195.5719     1.107           25     0.728      3.175     13.11989  22.3217        117
 3.71   0.0336    331.2021     91.6054 -20.61     423.5905     1.213           25     1.064      2.749     13.11395  21.4826        118
 4.22   0.0467    328.4932   1544.6573   0.89     304.9457     1.102           25     0.968      2.810     13.10802  21.8394        119
 3.62   0.0152    349.0294     52.9462 -35.30     940.4961     1.319           25     1.295      2.947     13.12137  20.6166        120
 3.50   0.0014    367.2354    759.4962 -26.09     9995.152     1.732           25     1.685      3.182     13.10504  18.0505        121
 5.45   0.0659    347.3217     40.6653 -50.68     215.9881     0.987           25     0.848      3.765     13.10653  22.2139        122
 3.50   0.0079    360.3835   1498.9019 -13.41     1800.458     1.548           25     1.385      3.119     13.11247  19.9115        123
 3.50   0.0003    394.2159    229.6349 -70.43     48948.96     1.952           25     1.907      3.264     13.12137  16.3256        124
 3.50   0.0303    359.7347   1032.5051  38.29     469.3087     1.217           25     1.170      2.714     13.11247  21.3714        125
 4.74   0.0208    374.2932    752.1290  51.98     684.3009     2.168           25     1.272      5.426      13.1095  20.9619        126
 4.80   0.0420    369.4625     69.8472 -56.93     339.1558     1.299           25     1.090      3.659     13.11247  21.7240        127
 3.74   0.0335    372.4083   1082.3356 -32.85     426.1349     1.433           25     1.350      3.632     13.12582  21.4761        128
 6.16   0.0588    368.3817    208.3981 -49.89     242.1791     1.080           25     0.933      4.528     13.11395  22.0897        129
 3.99   0.0872    374.3221     85.4926 -20.10     163.2316     0.963           25     0.937      2.533     13.10802  22.5180        130
 3.50   0.0021    396.2272   1459.7446 -45.85     6863.417     1.624           25     1.598      3.131     13.12137  18.4586        131
 4.45   0.0441    379.1256    123.9208  61.23     322.7713     1.113           25     1.110      3.095     13.11098  21.7778        132
 3.50   0.0018    397.1835    352.8708 -58.84     7926.792     1.677           25     1.629      3.140     13.12434  18.3023        133
 5.17   0.0535    381.4269     65.5967  24.25     266.3128     1.219           25     0.932      3.275     13.11544  21.9865        134
 3.50   0.0088    392.8812   1087.1532  12.39     1623.792     1.405           25     1.374      2.916     13.11098  20.0237        135
 5.14   0.0199    395.6750    625.1777 -87.51     716.8167     1.901           25     1.613      5.898     13.11989  20.9115        136
 7.24   0.0555    381.7726      9.7077   6.31       256.52     0.910           25     0.766      4.949     13.11247  22.0272        137
 4.10   0.0823    388.2085   1193.8507 -68.22     173.1021     0.938           25     0.836      2.472     13.12434  22.4542        138
 5.53   0.0853    388.9485    259.0594 -52.23     166.8543     0.785           25     0.765      2.714     13.11247  22.4942        139
 6.06   0.0307    402.5840    524.8780  69.21     464.1445     1.851           25     1.097      5.620     13.11989  21.3834        140
 5.84   0.0988    390.9066     93.6741 -22.09     144.1397     0.924           25     0.686      3.306     13.10802  22.6530        141
 6.27  99.0000    389.5344   1166.5160 -36.27    -44.57015     0.501           25     0.498      1.224     13.10653  99.0000        142
 7.01   0.2543    391.6848    682.3162  44.95     55.97433     0.562           25     0.341      2.070     13.10504  23.6800        143
 4.24   0.0576    406.2444    280.4964 -16.87     246.9409     0.962           25     0.920      2.665     13.10504  22.0685        144
 3.50   0.0001    460.3213    806.0107 -46.26     138398.8     2.106           25     2.042      3.373     13.11989  15.1972        145
 4.58   0.0542    412.6144   1560.6858 -64.13     262.7534     1.537           25     0.822      3.661     13.11692  22.0011        146
 3.50   0.0009    436.9956    250.2900  56.83     15988.48     1.797           25     1.784      3.234     13.11098  17.5405        147
 4.69   0.0156    419.8044    157.4340  37.44     910.8245     1.859           25     1.574      4.616     13.11841  20.6514        148
 6.25   0.0220    420.4099    132.9167 -23.24     646.0394     2.382           25     1.586      8.102     13.11544  21.0244        149
 6.17   0.0454    414.2697    557.6743  73.25     313.4239     1.262           25     1.094      4.621     13.10504  21.8097        150
 5.30   0.0568    417.7565   1202.9871 -88.95     250.6985     1.063           25     0.957      3.838     13.11841  22.0521        151
 4.88   0.0676    418.9438   1579.2106 -55.51     210.7391     0.956           25     0.867      2.878     13.12286  22.2406        152
 4.22   0.0281    425.7952   1177.7819  35.72     505.9445     1.653           25     1.304      4.075     13.11395  21.2897        153
 3.58   0.0671    418.4176    773.0535 -17.29     212.2615     1.167           25     0.954      2.736     13.12137  22.2328        154
 6.96   0.0252    429.8715    717.5161  66.89     564.4657     1.757           25     1.402      6.672     13.10653  21.1709        155
 4.72   0.2315    419.8337   1090.8477  44.64     61.53612     0.737           25     0.567      2.076     13.11989  23.5772        156
 3.81   0.1013    423.4600   1062.4460  -6.26     140.5892     0.905           25     0.876      2.481     13.11544  22.6801        157
 3.50   0.0117    432.1028   1420.5724  -8.19     1221.608     1.389           25     1.301      2.919      13.1095  20.3327        158
 4.30   0.0779    425.3427    298.3037  50.64     182.5857     0.955           25     0.848      2.655     13.10504  22.3963        159
 4.28   0.0034    467.0042    848.9381  22.51      4204.45     8.370           25     2.166     13.980     13.12582  18.9907        160
 3.50   0.0028    449.3257     19.5274  89.05     5048.727     1.664           25     1.583      3.111     13.10504  18.7920        161
 7.08   0.0009    426.6717    431.8233  -4.01     15059.05     1.845           25     0.645      4.595     13.12137  17.6055        162
 3.86   0.0285    433.0565    149.3928   0.63      499.726     1.251           25     1.126      2.940     13.12731  21.3032        163
 6.16   0.3975    425.5312   1007.4691 -44.93     35.81253     0.503           25     0.495      2.234     13.10802  24.1649        164
 5.45   0.0916    432.6343    404.8666 -67.50     155.6173     0.884           25     0.681      2.676     13.11989  22.5699        165
 3.50   0.0258    439.0594    303.9707 -84.52     552.9367     1.189           25     1.152      2.623     13.12137  21.1933        166
 4.90   0.1142    432.9586    351.7667   0.24     124.8012     0.878           25     0.745      2.555     13.12286  22.8095        167
 4.52   0.0163    444.1693    120.4328 -23.43     875.2454     1.640           25     1.460      4.032     13.12137  20.6947        168
 3.50   0.0025    456.8178     32.7492 -13.24     5713.252     1.621           25     1.612      3.111     13.11989  18.6578        169
 4.74   0.0630    442.8110    653.4979   4.23     225.8943     0.955           25     0.916      2.689      13.1095  22.1652        170
 5.49   0.0566    442.7400    172.5344 -14.40     251.4543     0.969           25     0.938      3.168     13.11247  22.0489        171
 5.34   0.1771    441.2756    957.9990  -3.07     80.45433     0.736           25     0.668      2.353     13.12137  23.2861        172
 5.84   0.1040    444.6807   1503.8907 -66.53     136.8328     0.881           25     0.692      3.224      13.1095  22.7095        173
 3.50   0.0521    452.0424   1531.8308  50.93      273.468     1.087           25     1.045      2.513     13.12286  21.9577        174
 3.53   0.0079    462.7248    466.8766  54.53     1799.786     1.528           25     1.420      3.107      13.1095  19.9119        175
 4.58   0.0785    453.5055   1222.7900 -80.84     181.4693     1.005           25     0.942      3.045     13.11247  22.4030        176
 3.50   0.0245    460.1031   1094.6326  27.13      580.677     1.360           25     1.147      2.986     13.10653  21.1402        177
 7.32   0.2238    450.7377   1129.9933  -0.37     63.68477     0.680           25     0.440      2.844     13.12434  23.5399        178
 3.68   0.0089    470.5123    252.6244  50.51     1602.852     1.664           25     1.413      3.243     13.11544  20.0378        179
 3.50   0.0064    471.1100    733.2299 -28.65     2223.905     1.470           25     1.438      2.965     13.11247  19.6822        180
 4.94   0.0329    460.6171    723.3906  -3.05     432.3994     1.697           25     1.108      4.329     13.11247  21.4603        181
 4.79   0.0634    466.0485   1196.8596  64.88     224.5779     1.193           25     0.977      3.337     13.11395  22.1716        182
 3.50   0.0050    477.0088    921.4022 -48.00     2862.598     1.493           25     1.454      2.998     13.11247  19.4081        183
 5.79   0.0577    472.4925   1131.0585  85.53       246.72     1.659           25     0.712      4.745     13.10653  22.0695        184
 3.94   0.0207    488.1000    838.0156 -88.39     688.3099     2.892           25     1.117      4.824     13.11247  20.9555        185
 5.73   0.1026    464.9706    559.9498  58.03     138.9099     0.790           25     0.774      2.703     13.12137  22.6932        186
 7.57   0.0691    464.8344    127.1186  41.21     206.2734     0.830           25     0.672      4.381     13.11544  22.2639        187
 3.50   0.0135    477.0140   1275.3693 -57.85     1054.607     1.328           25     1.228      2.848     13.12137  20.4923        188
 4.42   0.0067    495.3752     81.0658 -83.31     2120.093     2.692           25     2.476      6.536     13.11841  19.7341        189
 4.01   0.0697    475.1675   1166.7126 -61.43     204.3594     1.021           25     0.867      2.606     13.11692  22.2740        190
 4.11   0.0070    495.0201   1185.2123 -22.44     2047.828     3.378           25     2.256      6.776     13.11395  19.7718        191
 7.96   0.0396    487.6410    422.9437 -43.87      359.409     1.438           25     0.744      7.174     13.11395  21.6610        192
 6.24   0.0835    471.9751    780.0502  45.27     170.7498     0.795           25     0.769      3.279     13.12434  22.4691        193
 3.50   0.0117    483.0327   1069.1105 -26.42     1214.741     1.334           25     1.295      2.858     13.11247  20.3388        194
 3.85   0.0446    477.9255    681.0380 -57.38     319.4961     1.126           25     1.091      2.981     13.11544  21.7888        195
 7.17   0.0696    480.0004   1517.9857 -44.97     204.7409     0.820           25     0.777      4.233     13.11395  22.2720        196
 6.51   0.1277    485.2421    827.3867  72.23     111.5194     0.737           25     0.454      2.674     13.11841  22.9316        197
 4.28   0.0116    503.2693    761.2949  -2.52     1229.695     2.092           25     1.899      5.183     13.11098  20.3255        198
 3.55   0.0056    514.5264   1459.5746  24.92     2559.599     4.620           25     1.709      7.334     13.11841  19.5296        199
 3.50   0.0194    501.1653    862.1982 -68.30      735.957     1.260           25     1.239      2.778     13.11544  20.8829        200
 3.93   0.0484    497.1030    364.7048  39.03     293.9737     1.115           25     1.009      2.651     13.10356  21.8792        201
 5.27   0.0808    492.0516    573.0049 -38.24     176.3254     0.786           25     0.768      2.729     13.12582  22.4342        202
 5.66   0.1244    494.6029   1419.7804  15.87      114.474     0.927           25     0.635      2.863     13.11544  22.9032        203
 8.41   0.0105    524.8232    527.8972  51.21      1349.69     2.400           25     0.992      9.374     13.11098  20.2244        204
 5.22   0.1676    501.8875    441.1881  46.80     85.02149     0.810           25     0.677      2.394     13.11841  23.2262        205
 5.47   0.0605    509.2064    451.7516  41.34     235.5116     1.114           25     1.009      3.512     13.12286  22.1200        206
 4.78   0.0189    509.0068    162.6792  -5.94     754.2137     2.318           25     1.137      4.754     13.11692  20.8563        207
 3.50   0.1884    504.1267   1567.7828  50.06     75.64358     0.794           25     0.675      2.050     13.12582  23.3531        208
 3.69   0.0191    512.8627   1177.7903 -17.94      745.868     1.269           25     1.218      2.938     13.12582  20.8683        209
 8.24   0.0637    504.5149    324.5055  43.77     223.3851     0.502           25     0.498      3.013     13.10207  22.1774        210
 7.12   0.1226    508.4908    306.9737   0.51     116.1409     0.785           25     0.500      3.429     13.11247  22.8875        211
 4.19   0.0265    518.2950    640.2903 -36.71     536.8812     1.394           25     1.256      3.398     13.10356  21.2253        212
 4.99   0.0506    519.8651    852.2338  66.63      281.471     1.133           25     1.030      3.541     13.11692  21.9264        213
 4.40   0.0649    517.4777   1517.8848   0.04     219.4513     1.046           25     0.934      2.679     13.10802  22.1967        214
 8.77   0.0132    517.8887    510.9940   3.40      1079.91     2.971           25     0.544      7.589     13.11395  20.4665        215
 3.50   0.0083    539.3477    998.3590   2.64     1709.969     1.412           25     1.384      2.945     13.11692  19.9675        216
 3.93   0.0346    535.1251    402.7598  21.84     411.9487     1.596           25     1.194      3.585     13.11544  21.5129        217
 7.99   0.0829    527.9743    163.0000  90.00      171.846     0.852           25     0.289      3.121     13.11395  22.4622        218
 4.60   0.1510    530.9355   1565.0040   9.01     94.36478     0.774           25     0.765      2.428     13.12434  23.1130        219
 4.67   0.0529    543.0765    932.5807 -68.48     269.1552     1.732           25     0.811      4.172     13.12137  21.9750        220
 3.50   0.0061    558.0293   1040.1958  -5.64     2321.452     1.549           25     1.459      3.119     13.11692  19.6356        221
 5.39   0.1364    545.0844    849.4919  -0.94     104.3767     0.802           25     0.700      2.678     13.10653  23.0035        222
 3.50   0.0779    555.0635    777.2687  27.21     182.6675     1.028           25     0.953      2.449     13.11098  22.3958        223
 3.65   0.0031    595.7348    781.1718 -63.27     4633.168     3.830           25     3.549      8.039     13.11692  18.8853        224
 3.50   0.0090    570.7157   1446.9326  22.27     1574.497     2.993           25     1.845      5.439      13.1095  20.0571        225
 3.98   0.0087    570.2687     44.1231  49.99     1645.094     2.224           25     1.535      4.421     13.10504  20.0095        226
 3.50   0.0015    581.1951    317.4497  29.54     9519.489     1.747           25     1.702      3.180     13.12582  18.1035        227
 6.12   0.3058    553.9739    804.0167  88.84     46.58448     0.623           25     0.605      2.465     13.11841  23.8794        228
 8.01   0.1800    552.5358    964.5056 -38.96     79.10089     0.502           25     0.496      2.843     13.11247  23.3045        229
 4.58   0.0317    563.7872    137.7444  32.23     449.4442     1.188           25     1.150      3.210     13.12137  21.4183        230
 6.53   0.0953    558.3522   1067.7384  70.11     149.4376     1.009           25     0.586      3.541     13.11247  22.6138        231
 3.50   0.0015    579.6493    143.1600 -43.45     9551.066     1.687           25     1.667      3.142     13.11841  18.0999        232
 3.96   0.0961    562.0146    904.2037   4.79     148.1713     0.877           25     0.747      2.303     13.11247  22.6231        233
 4.83   0.1552    562.0154    838.9894 -52.41      91.7797     0.807           25     0.770      2.768     13.11395  23.1431        234
 6.45   0.1280    563.1900   1168.8391 -43.80     111.2752     0.754           25     0.567      3.349     13.11841  22.9340        235
 3.95   0.0257    575.2686   1000.1991  28.86     555.4466     1.520           25     1.458      3.862     13.12286  21.1884        236
 6.02   0.1071    566.0034    630.5092  -1.39     132.9003     0.792           25     0.695      2.602     13.11098  22.7412        237
 8.19   0.0891    566.4948   1114.5162  54.52     159.7588     0.500           25     0.499      2.870     13.10059  22.5413        238
 5.87   0.1254    569.1263    112.1452 -45.97     113.5463     0.838           25     0.672      2.826     13.11098  22.9121        239
 5.26   0.0760    577.7077    843.5986  24.44     187.2812     1.475           25     0.762      3.852     13.11247  22.3688        240
 7.03   0.0600    577.4185    738.3541  47.92     237.3887     1.015           25     0.884      4.444     13.11989  22.1113        241
 3.50   0.0221    583.4576     74.2711 -27.96     644.7009     1.268           25     1.210      2.774     13.11247  21.0266        242
 7.36   0.0694    578.2991    677.7164  44.07     205.1272     0.967           25     0.776      4.103     13.10059  22.2699        243
 7.57   0.2297    577.6680    694.7030 -46.88     61.99343     0.560           25     0.341      2.171     13.11247  23.5691        244
 4.79   0.0680    584.4865   1171.3466  68.69     209.2436     0.959           25     0.955      3.014     13.10802  22.2484        245
 7.02   0.1224    582.9680   1099.4989 -88.09     116.2466     0.792           25     0.500      3.047     13.10504  22.8865        246
 6.04   0.7035    581.5252   1485.4666  46.11     20.23104     0.505           25     0.493      2.086     13.10504  24.7850        247
 4.82   0.0791    587.6062   1137.7240  42.86     180.0931     0.953           25     0.858      2.703     13.12286  22.4113        248
 7.49   0.1410    583.5229    209.5023  37.69     100.9791     0.501           25     0.499      2.577     13.10653  23.0394        249
 3.98   0.0539    997.2316    231.6387  84.02     264.2048     1.040           25     0.962      2.777     13.12137  21.9951        250
 5.66   0.1213   1598.8354    709.3201  17.50     93.95403     0.941           25     0.671      2.913      10.4951  23.1177        251
 4.11   0.0146   1596.7023    653.1345 -14.31     874.7856     2.011           25     1.862      4.277     11.78643  20.6952        252
 5.80   0.0513   1599.3304     17.0655   6.89     214.8555     1.583           25     0.655      4.089     10.14038  22.2196        253
 3.99   0.0252   1593.4718    372.3271  59.30     563.1349     1.523           25     1.258      3.570     13.04549  21.1735        254
 5.86   0.0895    909.0859   1573.9731 -32.13      159.086     0.798           25     0.778      3.053     13.11544  22.5459        255
 5.62   0.0731    907.3624    657.8864 -14.76     194.7827     1.056           25     0.961      3.417     13.11544  22.3261        256
 5.93   0.0629    907.9376      3.3812 -16.27     194.4794     1.031           25     0.741      3.385     11.27142  22.3278        257
 4.74   0.1265    903.0575    733.5118   2.25     112.5343     0.791           25     0.689      2.439      13.1095  22.9218        258
 3.50   0.0022    899.4453    301.1092 -79.29      6344.34     1.630           25     1.603      3.128     13.10802  18.5440        259
 4.24   0.0100    895.2208    536.9806   6.17     1419.468     2.238           25     1.768      4.852     13.11692  20.1697        260
 6.33   0.1486    898.4979    378.4744 -46.75     95.78687     0.505           25     0.494      2.376     13.10653  23.0967        261
 4.07   0.0723    896.1499    985.7686 -78.87     197.1009     1.155           25     0.969      2.979     13.12137  22.3133        262
 7.14   0.0747    894.4000   1569.8065 -19.17     190.6185     0.741           25     0.450      3.050     13.11098  22.3496        263
 4.05   0.0415    893.0034   1424.8406  -4.02     343.3785     1.175           25     1.081      3.139     13.11841  21.7106        264
 3.50   0.0001    879.3679   1591.1768 -65.43     110925.5     2.050           25     1.979      3.367     13.11544  15.4374        265
 4.85   0.0173    887.5698    324.3025  15.33     823.7224     2.155           25     1.546      4.938     13.10802  20.7605        266
 4.66   0.0600    887.7139    679.6675 -31.59     237.2251     1.207           25     0.985      3.177     13.10653  22.1121        267
 3.71   0.0176    884.8433   1498.7693 -28.53       811.24     1.263           25     1.203      2.827     13.12286  20.7771        268
 5.89   0.0282    883.9937    337.4917  14.13     505.4143     1.674           25     1.162      5.264     13.11247  21.2909        269
 6.44   0.0550    878.6037    670.2805 -33.92     258.9391     1.220           25     0.885      4.176     13.11841  22.0170        270
 3.50   0.0288    876.6116    959.5165 -75.63     494.9122     1.188           25     1.159      2.737     13.11841  21.3137        271
 4.74   0.0489    875.3988    540.0956 -18.70     291.0842     1.104           25     0.941      2.796     13.11544  21.8900        272
 3.61   0.0055    868.4432   1102.0897 -52.52     2612.493     1.978           25     1.764      4.007     13.11247  19.5074        273
 3.50   0.0141    866.7821    938.0223  43.14     1007.531     2.341           25     1.464      4.335     13.11544  20.5419        274
 4.03   0.0543    868.4462    642.1702   1.65     262.4549     1.108           25     0.971      2.675     13.12286  22.0024        275
 4.61   0.1103    865.6735    453.2921 -43.90     129.0991     1.023           25     0.859      2.912     13.11098  22.7727        276
 4.40   0.1321    863.9810   1477.9620  41.14     107.9093     0.784           25     0.771      2.538     13.12137  22.9674        277
 6.33   0.0734    863.4897    353.4914   4.48     193.9445     0.907           25     0.900      4.216     13.10504  22.3308        278
 4.68   0.0854    859.5967   1552.9791  88.22      166.726     0.982           25     0.777      2.634     13.11544  22.4950        279
 3.83   0.0207    857.4876   1338.7616 -82.33     686.8489     1.339           25     1.031      3.204     13.11395  20.9578        280
 5.43   0.0425    854.6078    543.6538 -85.84     335.5313     1.306           25     1.094      3.974     13.12731  21.7357        281
 8.00   0.1079    854.4573   1346.4805  34.07     131.9761     0.501           25     0.497      3.005     13.11098  22.7488        282
 7.29   0.0367    845.6961    360.3315 -13.21     387.5463     1.533           25     1.183      6.664     13.11098  21.5792        283
 3.54   0.0130    842.4099   1104.7104  29.74     1098.949     1.740           25     1.381      3.482     13.11544  20.4476        284
 3.50   0.0301    843.9447   1062.4344 -12.26     473.1134     1.214           25     1.148      2.730     13.11841  21.3626        285
 3.67   0.0098    835.5275    297.0648 -62.06     1449.991     1.404           25     1.343      3.026     13.10653  20.1466        286
 5.08   0.0840    836.8608    990.4802 -11.26     169.4352     1.028           25     0.873      3.102      13.1095  22.4775        287
 3.55   0.0715    835.6268   1519.0900 -19.16     199.1684     0.992           25     0.927      2.480     13.11395  22.3019        288
 3.53   0.0479    834.6511    817.5978 -14.49     297.2889     1.140           25     1.039      2.662     13.12582  21.8671        289
 3.50   0.0022    822.0486    652.7755 -40.96     6421.902     1.650           25     1.642      3.144     13.12286  18.5308        290
 5.17   0.1141    821.0284    328.9836 -51.85     124.8078     0.788           25     0.765      2.539     13.11841  22.8094        291
 3.50   0.0983    818.7283   1397.2321 -46.31     144.9785     0.961           25     0.847      2.379     13.11692  22.6467        292
 5.15   0.1481    817.8800    777.8314 -48.61     96.19104     0.840           25     0.663      2.859     13.11544  23.0922        293
 4.26   0.0718    817.8155    701.3275 -20.64     198.6681     0.960           25     0.914      2.585     13.12582  22.3047        294
 5.01   0.0492    814.5070    876.6308 -58.49       289.52     1.463           25     0.894      3.632     13.11098  21.8958        295
 3.50   1.2738    808.9119   1543.2889  72.88     11.17194     1.086           25     0.914      1.700     13.10356  25.4297        296
 5.54   0.2378    808.5829    842.7518  18.17     59.91343     0.713           25     0.463      2.152     13.11841  23.6062        297
 3.50   0.0024    802.1667   1377.2756 -63.74     5844.955     1.649           25     1.576      3.145     13.11395  18.6330        298
 3.50   0.0008    797.5811    694.0720 -87.91      16995.3     2.495           25     1.754      4.080     13.12434  17.4742        299
 3.50   0.0051    799.6505     39.3665 -22.80     2783.969     1.666           25     1.449      3.075     13.11989  19.4383        300
 7.36   0.1138    800.6880   1595.3070  45.29     118.8543     0.556           25     0.343      2.517     12.44991  22.8625        301
 6.03   0.0541    793.2582    294.0250 -66.59     263.3487     1.173           25     1.055      4.058     13.12137  21.9987        302
 4.85   0.3047    785.2255   1347.6593  61.89     46.76059     0.809           25     0.601      2.340     13.12137  23.8753        303
 3.50   0.0058    773.3425   1425.9152 -89.76     2440.489     3.452           25     2.118      6.200     13.10802  19.5813        304
 4.88   0.0395    766.9306    138.3648 -19.84      360.489     1.320           25     1.193      3.529     13.11841  21.6578        305
 4.61   0.1251    766.3534    928.7696 -73.50     113.9606     0.988           25     0.871      2.904     13.12286  22.9081        306
 4.35   0.0991    763.2698    565.8460  45.86     143.6854     0.876           25     0.849      2.523     13.11395  22.6565        307
 4.47   0.0709    756.6685   1339.7045 -45.10     200.8382     1.526           25     0.855      3.869     13.11098  22.2929        308
 8.81   0.1058    757.4788    104.4729 -45.62     134.5576     0.506           25     0.493      3.036     13.11098  22.7277        309
 5.64   0.0284    753.8141    194.1191  75.68     500.8627     1.668           25     1.595      5.350     13.11989  21.3007        310
 5.09   0.1409    751.6815   1078.8489 -67.05     101.0298     0.901           25     0.674      2.468     13.11098  23.0389        311
 7.63   0.0351    743.6953    839.3754 -42.13     405.3152     1.166           25     1.085      6.998     13.11247  21.5305        312
 3.50   0.0093    741.7999    554.6925 -20.55     1524.139     1.429           25     1.401      3.025     13.11247  20.0924        313
 3.50   0.0266    737.1581   1156.5890 -27.41     536.3928     1.215           25     1.175      2.711     13.11841  21.2263        314
 6.88   0.3044    738.4052   1271.2267  18.82     46.80895     0.739           25     0.453      2.438     13.11841  23.8742        315
 3.88   0.0234    735.0988    648.1861 -28.40      607.754     1.236           25     1.140      2.862     13.11247  21.0907        316
 3.50   0.0002    725.6367    846.8282   8.09     66296.67     1.996           25     1.970      3.328     13.11841  15.9963        317
 3.50   0.0137    726.5267   1176.8077 -19.03     1039.617     1.345           25     1.276      2.834     13.11989  20.5078        318
 8.21   0.0836    728.9957    751.5101 -89.92     170.2651     0.799           25     0.500      4.117     13.11098  22.4722        319
 5.34   0.2159    727.8087   1542.4133 -70.41     65.93552     0.728           25     0.454      2.191     13.11098  23.5022        320
 3.59   0.0393    720.4454   1393.5422  18.35     362.5791     1.348           25     1.077      2.976     13.11544  21.6515        321
 8.35   0.1476    721.4725    260.5168 -43.13     96.46268     0.503           25     0.496      2.879     13.10653  23.0891        322
 3.50   0.0108    714.9188    806.8574 -17.41     1322.441     1.377           25     1.335      2.883     13.11098  20.2466        323
 3.50   0.0108    708.0578   1162.3623   0.33     1322.213     1.370           25     1.330      2.915     13.11841  20.2467        324
 7.71   0.0946    709.1875    193.1935  45.49     150.4961     0.764           25     0.569      3.585     13.10802  22.6062        325
 3.78   0.0089    703.7951   1337.5586 -20.26     1598.284     1.801           25     1.523      4.129     13.12137  20.0409        326
 3.50   0.0059    701.9553    951.0063 -42.48     2430.715     1.553           25     1.443      3.127     13.12137  19.5857        327
 6.91   0.1851    700.5187    649.5245  45.63     76.91463     0.505           25     0.494      2.418     13.11098  23.3350        328
 4.64   0.0225    698.0004    580.9234   8.03     634.1624     2.284           25     1.152      4.533     13.11841  21.0445        329
 7.19   0.1177    695.4855    275.0860  -1.35     120.9218     0.773           25     0.500      2.710     13.10653  22.8437        330
 3.71   0.0217    690.8048   1212.2382  44.32     655.3379     1.548           25     1.379      3.423     13.11692  21.0088        331
 4.17   0.0273    685.6292   1212.3170 -39.28     522.1027     1.258           25     1.058      3.153     13.11692  21.2556        332
 4.30   0.0453    686.5704    129.2008  -8.88     314.2364     1.096           25     1.030      2.769     13.11098  21.8069        333
 3.52   0.0069    684.5384    642.6415 -84.45     2049.967     1.616           25     1.447      3.175     13.11544  19.7706        334
 8.03   0.1081    676.4891    199.5104  44.78     131.5815     0.501           25     0.499      2.933     13.10356  22.7520        335
 7.14   0.2062    674.7531   1163.0059   0.29     69.12477     0.685           25     0.431      2.531     13.12286  23.4509        336
 5.82   0.0655    671.9800    229.6126 -11.33     217.4704     0.979           25     0.961      3.568     13.11395  22.2065        337
 5.57   0.0353    668.3409   1219.9712 -70.90     403.3075     1.340           25     1.182      4.344     13.12137  21.5359        338
 4.26   0.1001    665.8835   1178.6530  11.77     142.2693     0.950           25     0.745      2.431     13.10802  22.6672        339
 7.50   0.3217    665.5051   1068.5013  44.94     44.23403     0.505           25     0.494      2.512     13.10356  23.9356        340
 3.50   0.0002    647.4293   1462.9327 -70.59     65234.12     1.946           25     1.909      3.334     13.11841  16.0138        341
 3.72   0.0242    653.6917    869.2630  74.16     588.6424     1.239           25     1.190      2.784     13.11247  21.1254        342
 4.63   0.0391    644.7474    651.3193  51.41     364.5248     1.101           25     1.066      3.116     13.10802  21.6457        343
 4.83   0.0571    640.3434    274.9605  -7.46     249.6382     1.171           25     0.974      3.047     13.11692  22.0567        344
 3.50   0.0227    629.7487    804.5778   5.00     629.1994     1.254           25     1.197      2.737     13.12286  21.0530        345
 7.77   0.1783    630.4081    853.7961 -18.78     79.89552     0.751           25     0.452      2.903     13.11544  23.2937        346
 7.08   0.2825    628.4722    940.5145 -41.98     50.38209     0.502           25     0.497      2.530     13.10653  23.7943        347
 3.50   0.0136    622.7011   1580.3177  49.75     1049.242     1.321           25     1.312      2.953     13.10207  20.4978        348
 4.72   0.0291    617.3707   1150.1875 -13.40     489.5522     1.960           25     1.193      4.684     13.11989  21.3255        349
 7.38   0.0873    618.4493     93.3292 -33.52     163.0305     0.988           25     0.686      4.392      13.1095  22.5193        350
 7.64   0.1656    615.4998    117.4616 -74.20     85.96955     0.500           25     0.498      2.888      13.1095  23.2141        351
 6.35   0.1703    610.7074    994.0096  -3.64     83.61373     0.749           25     0.679      2.880     13.11395  23.2443        352
 6.91   0.6406    610.3042    961.6640  43.40     22.22806     0.565           25     0.339      2.121     13.11098  24.6827        353
 3.66   0.0704    608.5586    943.8754  26.72     202.1952     1.010           25     0.931      2.404     13.11395  22.2856        354
 6.65   0.2509    606.5120   1009.5204 -48.06     56.74627     0.501           25     0.498      2.146     13.10802  23.6652        355
 7.64   0.2284   1550.4803    350.5271  45.95     62.33194     0.505           25     0.494      2.559      13.1095  23.5632        356
 8.65   0.1241    598.4924    666.5140 -45.30     114.7027     0.506           25     0.493      3.039     13.10504  22.9011        357
 6.73   0.1134    592.9932    881.0345  43.18     125.6203     0.800           25     0.788      3.152     13.11841  22.8023        358
 5.36   0.0556   1592.4144   1383.2700 -15.98     256.5325     1.198           25     0.926      3.642     13.12434  22.0271        359
 3.72   0.1196   1561.7380   1564.7104 -46.14     119.0101     0.922           25     0.752      2.398     13.11098  22.8610        360
 5.59   0.0522   1584.8809   1068.1311  39.68     272.8758     1.115           25     1.010      3.369     13.11098  21.9601        361
 5.37   0.0581   1522.7218    377.1894  58.52     245.1069     1.423           25     0.793      3.591     13.12137  22.0766        362
 3.50   0.0455   1535.1891   1427.3427 -50.78     313.4943     2.044           25     0.942      3.636     13.12286  21.8094        363
 4.92   0.0823   1590.3356    565.3453  39.61     173.0502     0.970           25     0.851      2.517     13.11098  22.4546        364
 3.71   0.0331    911.2531    999.6954 -23.48     430.2072     1.153           25     1.085      2.693      13.1095  21.4658        365
 3.50   0.0184    911.7423    837.0168  17.34     774.1433     1.285           25     1.216      2.756     13.11841  20.8279        366
 3.50   0.0314   1514.6006   1545.8663  72.70     453.8854     1.525           25     1.140      3.314     13.12434  21.4076        367
 4.17   0.0613   1580.3745   1412.9325  34.91     232.5254     1.257           25     1.000      3.102     13.11989  22.1338        368
 5.86   0.0634   1527.5155    731.5428  47.38     224.6531     1.125           25     0.849      3.669     13.10802  22.1712        369
 3.59   0.0088   1569.3876     90.9186 -53.66     1624.289     1.441           25     1.368      2.935     13.11989  20.0233        370
 3.76   0.0110   1583.9315   1107.3550  12.90     1296.735     1.405           25     1.363      3.015     13.11395  20.2679        371
 4.29   0.0144   1545.0386    861.8808  54.15     986.6776     1.763           25     1.527      4.087     13.11247  20.5646        372
 3.58   0.0059   1541.5220    652.9828 -62.99     2424.485     1.492           25     1.479      3.045     13.11989  19.5885        373
 3.50   0.0002   1557.0219    485.9576 -55.36     57215.56     1.948           25     1.916      3.283     13.12137  16.1562        374
 3.70   0.1190   1574.2651   1489.9102 -79.37     119.6233     0.947           25     0.750      2.326     13.11247  22.8555        375
 3.69   0.0068   1565.5607     20.2036 -43.75     2095.998     1.446           25     1.426      3.007     13.11692  19.7465        376
 6.08   0.0621   1562.0154    384.6225 -65.54     229.4788     1.333           25     0.865      4.390     13.11395  22.1481        377
 3.50   0.0002   1562.5835    302.4617 -55.01     57918.37     1.935           25     1.904      3.258     13.11544  16.1430        378
 6.29   0.1571   1570.4812   1336.9929   1.21     90.65373     0.777           25     0.499      2.574     13.11692  23.1565        379
 3.90   0.0101   1564.7999    782.9744 -74.98     1407.598     2.107           25     1.524      4.194     13.11395  20.1788        380
 4.00   0.3908   1551.1445   1512.1693  44.22     36.46209     0.747           25     0.568      2.110     13.12137  24.1454        381
 3.50   0.0042   1540.7150    133.3156 -60.59     3391.965     1.541           25     1.512      3.010     13.10356  19.2239        382
 4.36   0.0305   1549.9768   1220.6022   7.01     466.6466     1.213           25     1.118      3.146     13.11692  21.3775        383
 3.58   0.0137   1560.2474    859.8215 -43.99     1039.418     1.348           25     1.294      2.968     13.11989  20.5080        384
 3.50   0.0008   1551.5745    680.5765 -24.65     17294.97     4.830           25     4.082      8.926     13.11989  17.4552        385
 4.96   0.1187   1537.6702    261.8769 -68.69     119.9397     0.886           25     0.689      2.655     13.10653  22.8526        386
 7.88   0.0862   1553.2987   1231.3453 -42.70     165.1302     0.567           25     0.338      2.716     13.10356  22.5054        387
 5.61   0.0733   1534.7047    918.0706 -10.97     194.3087     0.727           25     0.663      2.792     13.10802  22.3288        388
 7.74   0.0514   1533.4845    974.0283 -62.62     277.3761     1.060           25     0.657      4.811     13.11544  21.9423        389
 8.35   0.0881   1538.0134    504.4654 -88.96     161.8137     0.807           25     0.499      3.548     13.12286  22.5275        390
 3.76   0.0178   1503.1592    721.7394 -78.01     801.7558     1.300           25     1.280      2.948     13.11841  20.7899        391
 4.80   0.0292   1531.6218    414.0755  10.09     488.6907     1.560           25     1.341      4.027     13.11841  21.3274        392
 5.02   0.0785   1521.5660     12.5948  37.45      181.557     0.972           25     0.870      3.091     13.11841  22.4025        393
 5.53   0.1269   1497.0098   1231.4792 -89.27     112.3075     0.778           25     0.500      2.590     13.11841  22.9240        394
 5.09   0.0602   1518.1111     83.3417 -65.31     236.6878     1.147           25     1.036      3.495      13.1095  22.1146        395
 5.67   0.0363   1519.2120   1099.3176 -88.46     392.7958     1.549           25     1.045      4.522     13.11989  21.5646        396
 5.76   0.1159   1526.1066    877.3820 -21.44     122.8716     0.904           25     0.681      2.601     13.11544  22.8264        397
 3.50   0.0005   1506.1300    267.6239 -53.50     31261.59     1.857           25     1.839      3.230     13.11989  16.8125        398
 6.48   0.2151   1501.1704   1412.1464  47.35        66.24     0.754           25     0.571      3.022     13.12137  23.4972        399
 7.24   0.1745    916.6699   1111.6492 -44.19     81.59045     0.583           25     0.330      2.363     13.11098  23.2709        400
 3.50   0.0019   1513.8696    390.9695 -28.30     7699.174     1.653           25     1.645      3.117     13.11692  18.3339        401
 6.33   0.1279   1496.5107    671.5501  68.94     111.3457     0.500           25     0.497      2.456      13.1095  22.9333        402
 6.13   0.0956    913.7955   1117.9650  89.84     148.9618     0.909           25     0.759      3.238     13.11841  22.6173        403
 4.01   0.0347   1513.6278    481.9716 -66.07     410.2675     1.166           25     1.121      2.811     13.11989  21.5173        404
 3.62   0.0526   1497.6539    842.8762 -23.08     270.8836     1.083           25     0.990      2.598     13.11098  21.9680        405
 6.13   0.0814   1503.3531   1310.4663  16.49     175.0633     0.938           25     0.817      3.563     13.11395  22.4420        406
 5.43   0.0206    937.3623    514.6446  59.14      690.246     1.931           25     1.402      5.835     13.12137  20.9525        407
 5.51   0.0737   1476.0063    197.0533   0.59     193.4346     1.018           25     0.729      3.169     13.12879  22.3337        408
 7.13   0.1116   1495.4739    928.5216 -44.56     127.6364     0.506           25     0.492      2.740     13.11098  22.7851        409
 6.36   0.0621   1502.9595   1095.0165 -41.47     229.5749     0.793           25     0.772      3.470     13.12137  22.1477        410
 3.70   0.0354    946.8018    443.5114 -10.81     402.4573     1.260           25     1.071      2.802     13.11395  21.5382        411
 7.68   0.2962    918.6908   1343.3204  44.39     48.06567     0.561           25     0.341      2.574      13.1095  23.8454        412
 3.50   0.1841    931.4678   1116.4857   3.76     77.31462     0.907           25     0.890      2.467     13.10653  23.3293        413
 3.74   0.0276   1481.3601    573.6433 -44.00     515.6949     2.130           25     1.338      4.256     13.12137  21.2690        414
 6.65   0.1068    925.0899    664.8290  47.37     133.2967     0.825           25     0.664      3.415     13.11247  22.7380        415
 4.49   0.0458   1487.1832     76.2658  28.20     311.4424     1.246           25     1.125      3.085     13.12137  21.8166        416
 6.73   0.1651    952.4832   1502.9939   0.94     86.25851     0.778           25     0.500      2.682     13.11544  23.2105        417
 5.33   0.0240   1474.0706    996.7557 -15.34     593.0257     2.365           25     1.101      5.860     13.11247  21.1173        418
 6.90   0.1676    924.3528    309.3077 -47.02     84.90806     0.574           25     0.334      2.286     13.10653  23.2276        419
 9.05   0.0774   1477.4849   1022.4782  45.65     184.0125     0.505           25     0.494      3.030     13.10653  22.3879        420
 3.50   0.0323   1431.1808    339.1158  21.39     440.8083     1.771           25     1.214      3.689     13.11841  21.4394        421
 4.25   0.0326    964.0634    414.7780 -20.00     437.5875     1.154           25     1.125      2.847     13.12137  21.4473        422
 8.41   0.1726    949.3171    825.3550 -43.42     82.50687     0.579           25     0.332      2.743     13.11247  23.2588        423
 7.34   0.2066    958.5072    891.5318 -57.35      68.8991     0.501           25     0.498      2.624     13.10802  23.4545        424
 3.50   0.0137    927.3716   1321.0503 -44.22     1041.417     1.369           25     1.315      2.972     13.12137  20.5059        425
 8.90   0.0891   1410.6099    365.6008 -68.79     159.8925     1.072           25     0.321      4.577     13.11247  22.5404        426
 4.19   0.0178    949.7249    652.6889  88.42     798.4615     1.952           25     1.462      4.508     13.10504  20.7944        427
 3.50   0.0078    938.2878   1065.6573  74.01     1833.916     1.431           25     1.383      2.973      13.1095  19.8916        428
 5.44   0.1634   1456.9949    610.2800  87.17     87.14687     0.739           25     0.672      2.790     13.11544  23.1994        429
 5.84   0.0881    940.4291    724.3670  44.87     161.7355     1.027           25     0.884      3.153     13.11841  22.5280        430
 6.45   0.3125    976.3963   1279.2194  18.26     45.57731     0.737           25     0.454      2.498     13.11544  23.9031        431
 7.57   0.4234    954.3213   1027.6919  45.71     33.62447     0.561           25     0.341      2.417     13.10802  24.2334        432
 6.59   0.0019   1440.8312   1081.2878  45.57      7610.22     4.028           25     1.419      9.102     13.11395  18.3465        433
 5.25   0.0717    981.3622   1485.5789 -43.34     198.8263     0.964           25     0.854      2.894     13.11989  22.3038        434
 3.50   0.1353   1452.4899    389.8003 -66.94     105.2531     0.945           25     0.927      2.438     13.11247  22.9944        435
 5.57   0.1275   1027.1073    462.1880 -47.15     111.6531     0.806           25     0.667      2.699     13.11247  22.9303        436
 6.77   0.0504    972.9857    546.9538 -17.77     282.4603     0.790           25     0.782      4.512     13.11841  21.9226        437
 3.50   0.0042   1434.2510    223.0160 -46.78     3433.431     1.518           25     1.487      3.038     13.12137  19.2107        438
 4.36   0.0145    979.8970    796.3403 -56.67     984.1325     1.728           25     1.564      4.355     13.10653  20.5674        439
 4.47   0.3130   1445.3281    729.7343   3.53     45.48059     1.035           25     0.950      1.794     13.10802  23.9054        440
 3.84   0.0285   1405.3000    328.1622 -84.26     499.5821     1.220           25     1.132      2.716     13.10356  21.3035        441
 7.94   0.1408    983.5096    952.4819 -45.47     101.0848     0.507           25     0.493      2.948      13.1095  23.0383        442
 5.40   0.1439   1448.3313     86.1749 -68.16     98.99582     0.891           25     0.684      2.778     13.11989  23.0610        443
 4.51   0.0336   1437.7814   1269.7209  37.09      424.117     1.171           25     1.133      3.022     13.12137  21.4813        444
 3.84   0.0066   1119.2284    328.0840  57.85     2160.651     2.792           25     1.753      5.384     13.11544  19.7135        445
 3.55   0.0589   1435.4414   1345.9382   2.19     241.9063     1.048           25     0.935      2.523     13.11544  22.0909        446
 5.35   0.0610   1437.6959    645.8911   7.62     233.1075     1.135           25     0.877      3.659     13.10356  22.1311        447
 3.50   0.0056   1438.7836    617.5071  -4.26     2522.776     1.460           25     1.417      2.956     13.11692  19.5453        448
 5.33   0.1234   1128.8336    503.1409  44.77     115.4854     0.809           25     0.680      3.023     13.11841  22.8937        449
 4.33   0.0415   1272.8525    696.4070 -22.77     343.7588     1.324           25     1.119      3.426     13.12731  21.7094        450
 5.64   0.1316   1027.2592    350.3917 -20.86      108.283     0.964           25     0.594      2.702     13.12582  22.9636        451
 7.02   0.2531   1124.4945    274.5286  49.23     56.24776     0.502           25     0.497      2.212      13.1095  23.6747        452
 5.01   0.0274    977.1620    451.1199 -76.12      519.323     1.347           25     1.151      4.053     13.11395  21.2614        453
 5.83   0.1522   1126.8915    836.1245  46.41     93.51881     0.841           25     0.670      2.810     13.10802  23.1228        454
 3.50   0.0002   1392.3209    112.7096 -60.32      78289.2     1.989           25     1.948      3.271     13.10802  15.8157        455
 5.65   0.0641   1402.7693   1361.5898  13.15     222.2233     0.956           25     0.941      3.364     13.12137  22.1830        456
 8.22   0.2333   1422.6824   1595.3485  43.67     57.86269     0.577           25     0.333      2.743     12.43269  23.6440        457
 8.51   0.0704   1128.5022    872.4724  70.37     202.2549     0.500           25     0.499      3.001     13.10802  22.2853        458
 7.47   0.2233   1419.3876    427.8067 -18.74     63.75821     0.761           25     0.445      3.244     13.10802  23.5387        459
 3.50   0.0005   1137.4629    146.3137 -65.78     30510.55     1.872           25     1.855      3.227     13.10802  16.8389        460
 3.64   0.0087   1414.4452   1385.1593 -77.94     1635.377     1.389           25     1.358      3.017     13.12137  20.0160        461
 3.50   0.0060   1407.1079    306.5768 -57.65     2378.248     1.473           25     1.412      2.923     13.11247  19.6094        462
 3.85   0.0209   1410.1370    348.2293  47.50     681.9654     1.704           25     1.337      3.699     13.11692  20.9656        463
 3.50   0.0019   1387.8843   1427.1151 -42.27     7307.043     1.627           25     1.610      3.175     13.10504  18.3906        464
 3.50   0.0005   1318.9795    658.3513 -51.83     29549.77     1.867           25     1.837      3.284     13.11989  16.8736        465
 5.96   0.0971   1305.8440    572.6506 -19.87     146.7522     0.923           25     0.675      3.050     13.11989  22.6335        466
 3.50   0.0017   1371.5431   1017.4425 -35.96     8603.552     1.844           25     1.698      3.289     13.11395  18.2133        467
 4.14   0.0377   1387.9163    805.0239 -17.20     378.1725     1.106           25     1.094      2.861     13.11692  21.6058        468
 5.75   0.1174   1387.8052   1583.8373 -41.79     121.3624     0.811           25     0.665      2.530     13.11692  22.8398        469
 4.37   0.0151   1399.7484   1029.9731  35.66     944.3911     1.571           25     1.396      3.937     13.12137  20.6121        470
 3.50   0.0056   1389.4093    711.6742  61.01      2524.55     1.534           25     1.468      3.034     13.12286  19.5445        471
 3.57   0.0081   1391.3361   1037.2961 -38.86     1752.736     1.442           25     1.415      3.041     13.11098  19.9407        472
 3.50   0.0034   1277.2167   1329.9503 -88.20     4138.228     1.568           25     1.535      3.147     13.11989  19.0080        473
 6.47   0.0569   1392.0364   1532.6101   0.68     250.5851     1.020           25     0.785      4.098     13.11841  22.0526        474
 5.91   0.0401   1384.6724   1273.8531  78.25     355.3439     1.016           25     0.747      3.870     13.11098  21.6734        475
 8.83   0.0922   1384.5093   1383.5004  41.64     154.3397     0.500           25     0.500      3.002     13.10059  22.5788        476
 6.48   0.0583   1305.5121    842.8745  13.71     244.2931     1.074           25     0.970      4.535     13.10653  22.0802        477
 7.37   0.2108   1369.6818    705.2957  46.33     67.52358     0.554           25     0.344      2.192     13.10653  23.4764        478
 4.88   0.1318   1345.9719    192.7731   0.40      108.114     0.903           25     0.749      2.753     13.11989  22.9653        479
 4.11   0.0595   1378.3208    317.2925 -13.39     239.4179     1.088           25     0.960      2.723      13.1095  22.1021        480
 5.40   0.1016   1361.8470    389.3581 -14.68     140.2424     1.054           25     0.727      3.407     13.11989  22.6828        481
 4.54   0.0721   1367.3254    147.8780  53.16     197.5779     0.998           25     0.825      2.822     13.11247  22.3107        482
 3.50   0.0239   1318.3370    262.3694 -37.88     596.2591     1.280           25     1.184      2.755     13.11841  21.1114        483
 5.45   0.0251   1351.3975    150.3783  78.48     567.0788     1.935           25     1.440      5.381     13.11544  21.1659        484
 3.50   0.0310   1329.4015    385.2875  20.28     459.4275     1.217           25     1.172      2.701     13.11544  21.3945        485
 3.71   0.0468   1345.2412    603.6646 -67.92     304.3701     1.354           25     1.065      3.106     13.11692  21.8415        486
 7.13   0.1679   1351.5321    473.5340 -45.99     84.79343     0.501           25     0.497      2.372     13.10653  23.2291        487
 3.61   0.0169   1331.7163    105.7077 -17.12     840.0084     1.313           25     1.240      2.827     13.10802  20.7393        488
 3.50   0.0050   1306.4722    668.0397 -42.74     2876.361     1.561           25     1.506      3.138     13.11692  19.4029        489
 3.50   0.0040   1328.8700    654.2535   3.86     3584.813     1.667           25     1.624      3.406     13.11098  19.1638        490
 4.78   0.0555   1290.5552    544.2146 -19.52     256.8233     1.009           25     0.925      2.903     13.11841  22.0259        491
 3.50   0.0001   1297.3068    723.3258 -20.11     183915.6     2.569           25     2.084      3.440     13.10802  14.8885        492
 6.65   0.0676   1324.2008    632.0477  12.67     210.9445     1.218           25     0.651      4.229     13.12582  22.2396        493
 3.90   0.0181   1303.7844    891.3276 -50.07       788.72     1.282           25     1.254      3.003     13.12582  20.8077        494
 7.32   0.1635   1302.4843     40.5543  59.18     87.08656     0.501           25     0.496      2.699     13.11247  23.2001        495
 5.35   0.1205   1282.1034   1567.6960 -75.79     118.0555     0.725           25     0.664      2.419     13.10207  22.8698        496
 4.39   0.0491   1298.2344     52.2682 -40.63      290.274     1.100           25     1.066      2.746     13.11841  21.8930        497
 3.50   0.0169   1291.6096    411.0975 -20.13     843.2275     1.350           25     1.232      2.768     13.11098  20.7351        498
 4.58   0.0385   1261.1510    853.7941 -51.72     370.3719     1.163           25     1.074      3.048     13.12582  21.6284        499
 3.50   0.0021   1290.3988    760.5972 -26.64     6879.793     2.181           25     1.654      3.643     13.11989  18.4561        500
 3.50   0.0044   1264.4102    806.2888  -2.02     3261.326     1.508           25     1.497      3.024     13.11544  19.2665        501
 3.50   0.0013   1271.8014    608.2728 -57.85     10878.62     4.463           25     2.548      7.067     13.12286  17.9586        502
 3.50   0.0015   1209.7850   1277.4983  81.55     9367.001     6.002           25     3.576      9.908     13.11247  18.1210        503
 7.27   0.1231   1155.5150    349.9638  -1.96     115.7182     0.782           25     0.499      2.868     13.11544  22.8915        504
 4.04   0.1000   1276.7361    341.9587  89.47     142.4078     0.883           25     0.745      2.335     13.11692  22.6662        505
 3.66   0.0087   1206.7316    837.2612 -14.96     1643.454     1.415           25     1.399      3.012     13.11098  20.0106        506
 3.88   0.0107   1258.4160    430.7781   0.30      1327.65     2.067           25     1.998      5.007     13.11395  20.2423        507
 3.50   0.0771   1261.2987    214.4610  -7.60     184.7743     0.965           25     0.934      2.341      13.1095  22.3834        508
 3.50   0.0015   1217.9849   1193.4705  59.35     9388.396     1.914           25     1.829      3.467     13.12582  18.1185        509
 3.74   0.0346   1236.6903     46.4942  12.62     411.1863     1.173           25     1.092      2.731     13.10504  21.5149        510
 5.63   0.0155   1228.8633    597.4689 -32.56     919.4567     1.748           25     1.636      6.011     13.11247  20.6412        511
 4.39   0.0098   1211.9121   1427.8794  69.21     1455.894     2.582           25     2.167      6.381     13.10653  20.1422        512
 3.50   0.0053   1233.3027    303.1225 -36.25     2685.547     1.472           25     1.459      2.978     13.10653  19.4774        513
 7.11   0.1857   1172.4825    206.5125 -43.56     76.64239     0.501           25     0.498      2.351     13.10802  23.3388        514
 3.56   0.0087   1236.1771   1552.1875 -48.84     1640.308     1.441           25     1.352      3.070     13.11544  20.0127        515
 5.99   0.0702   1242.9928    612.1877   2.24     202.7504     0.894           25     0.744      3.291     13.10802  22.2826        516
 4.51   0.0082   1193.9963    122.4217 -71.91      1740.78     2.227           25     1.840      5.372     13.11544  19.9481        517
 5.83   0.0432   1237.0295    855.9278  73.69     329.5887     1.172           25     1.153      4.500     13.11692  21.7551        518
 4.43   0.0357   1227.8544   1152.1260 -44.07     398.8782     1.137           25     1.075      2.909     13.11098  21.5479        519
 3.50   0.0010   1213.5891    511.3575 -21.22     14422.02     1.756           25     1.722      3.174     13.11841  17.6524        520
 7.34   0.2032   1222.3035    828.6625  43.30     70.06507     0.566           25     0.339      2.074      13.1095  23.4362        521
 5.13   0.0886   1171.7573    231.0094 -85.08     160.8263     0.909           25     0.746      2.858     13.11989  22.5341        522
 5.24   0.0469   1220.3372   1429.9242  73.25     303.6758     1.274           25     1.069      3.948      13.1095  21.8440        523
 4.81   0.0645   1203.3542   1215.9109  81.93     220.5624     0.973           25     0.845      2.832      13.1095  22.1912        524
 6.62   0.3305   1195.7742   1332.0226   0.96     43.10507     0.691           25     0.418      2.437     13.11989  23.9637        525
 3.50   0.0091   1200.7493    337.4133  66.45     1566.377     1.404           25     1.400      2.923     13.12286  20.0628        526
 5.33   0.0548   1209.7607    827.6060  29.35     259.7731     1.047           25     0.807      3.465     13.11841  22.0135        527
 4.03   0.0254   1179.9944    547.8141   1.30     559.7821     1.213           25     1.157      2.958      13.1095  21.1800        528
 4.63   0.0572   1209.5675   1414.1831  15.76      249.169     1.198           25     0.943      3.425     13.11989  22.0588        529
 8.67   0.0938   1176.3215     16.3410 -44.14     151.8394     0.575           25     0.334      3.021     13.11247  22.5965        530
 3.50   0.0134   1200.0382   1440.7582  67.54     1061.643     1.786           25     1.594      3.746     13.12434  20.4851        531
 3.50   0.0407   1180.7412    174.5659 -16.48     350.2185     1.129           25     1.064      2.748     13.11989  21.6892        532
 4.94   0.1034   1184.0728    312.2089  -5.46     137.8203     0.882           25     0.741      2.479     13.12286  22.7017        533
 8.47   0.1249   1179.4666   1402.5000 -42.39     113.9779     0.506           25     0.493      2.914     13.11247  22.9079        534
 3.79   0.0104   1150.1085     97.7642 -19.21     1372.712     1.397           25     1.352      3.073      13.1095  20.2061        535
 3.88   0.0230   1129.1823    217.8823  -8.95     618.8824     1.511           25     1.231      3.260     13.11841  21.0710        536
 3.50   0.0003   1164.2880   1298.2457 -66.57     48976.82     1.922           25     1.880      3.300      13.1095  16.3250        537
 4.74   0.0761   1176.0353   1597.4540  -2.43     162.2209     0.991           25     0.774      2.619     11.36773  22.5247        538
 3.96   0.0153   1152.6783   1351.5414  56.22     932.4698     1.585           25     1.541      3.845     13.11247  20.6259        539
 4.23   0.0210   1160.7585    886.2136  15.39     677.8585     1.249           25     1.172      3.113     13.11841  20.9722        540
 4.56   0.0626   1166.0389   1598.8734  88.25     181.6197     1.197           25     0.942      3.577      10.4691  22.4021        541
 3.50   0.0025   1156.7683    234.6826 -32.68     5692.641     1.622           25     1.599      3.107     13.11544  18.6617        542
 6.81   0.0827   1157.1354    184.1379 -46.27     172.1857     0.849           25     0.677      3.236     13.11098  22.4600        543
 5.22   0.0503   1155.0981    565.7803 -81.63     283.0078     1.247           25     0.919      3.855      13.1095  21.9205        544
 5.48   0.0798   1146.8527    110.7027 -22.17        178.4     0.883           25     0.684      2.723     13.10356  22.4215        545
 3.50   0.0009   1128.9263    181.7753 -55.46     15967.42     1.777           25     1.732      3.208     13.11841  17.5419        546
 6.42   0.0582   1073.6285    350.7908  28.79     244.9469     1.109           25     0.897      4.079     13.11841  22.0773        547
 4.05   0.0209   1128.1890    545.7462 -40.72     680.8597     1.251           25     1.189      3.053     13.12434  20.9674        548
 6.69   0.4482   1129.4607   1143.4618 -44.58     31.77671     0.501           25     0.496      2.193     13.11395  24.2947        549
 4.43   0.0497   1130.0223    357.5392 -42.79     286.4585     1.030           25     1.003      2.957     13.12137  21.9073        550
 4.23   0.1818   1105.8722   1265.8270 -46.31     78.35701     0.799           25     0.674      2.192     13.11692  23.3148        551
 8.14   0.0731   1028.0111    178.7182  87.98      194.874     0.748           25     0.680      3.960     13.11841  22.3256        552
 4.82   0.2156   1026.8101    605.8358 -44.10     66.06925     0.871           25     0.841      2.589     13.11841  23.5000        553
 6.77   0.0796   1115.3961   1168.6317 -30.28      179.034     1.105           25     0.740      3.866     13.11989  22.4177        554
 6.74   0.1180   1107.9915   1122.0051  89.83     120.7158     0.623           25     0.611      2.828     13.11395  22.8456        555
 5.43   0.0105   1110.1667    477.8314  30.36     1360.771     3.002           25     1.979      8.291     13.12137  20.2155        556
 3.50   0.0021   1106.4496    426.3223 -10.02     6791.354     1.654           25     1.641      3.155     13.10802  18.4701        557
 3.50   0.0363   1064.9115   1595.7524 -49.92     366.8949     1.137           25     1.109      2.652      12.2513  21.6386        558
 7.47   0.0010   1088.4707    781.3342  49.66     13898.55     1.292           25     0.498      4.083     13.10802  17.6926        559
 5.67   0.0854   1062.9246    290.3387 -15.23     166.6758     1.014           25     0.742      3.119     13.11247  22.4953        560
 4.62   0.0407   1065.8292    567.3412 -61.86     350.5409     1.297           25     1.030      3.517     13.12137  21.6882        561
 3.50   0.0169   1094.6127   1525.2114 -18.99      842.806     1.304           25     1.225      2.789     13.11395  20.7357        562
 5.00   0.0182   1089.9391    466.5366 -58.07     783.2698     2.613           25     1.233      5.520     13.11247  20.8152        563
 6.50   0.0294   1091.8363    427.4894  24.08     484.4167     1.826           25     1.293      6.967     13.11247  21.3370        564
 3.50   0.0487   1093.6808   1134.7931 -22.24     292.5773     1.078           25     0.992      2.482     13.11692  21.8844        565
 3.50   0.0004   1079.0300    510.4799 -37.68     32474.08     1.880           25     1.863      3.268     13.11544  16.7712        566
 3.50   0.0003   1039.2594    631.4073 -47.61     41598.56     1.893           25     1.873      3.261     13.12582  16.5023        567
 3.50   0.0015   1080.8483   1146.6909 -24.35     9396.476     1.677           25     1.666      3.163     13.10802  18.1176        568
 5.20   0.0502   1087.3164    395.1666  57.95     283.7552     1.234           25     0.955      3.526     13.11692  21.9176        569
 3.95   0.0278   1078.2657    328.4388 -25.72     512.0824     1.219           25     1.190      2.944     13.11692  21.2766        570
 4.20   0.0469   1085.4874   1451.3422  70.17      303.597     1.400           25     1.115      3.468     13.11098  21.8443        571
 7.72   0.0358   1066.6331   1472.0443  47.06     398.2239     1.378           25     0.913      6.045     13.12286  21.5497        572
 5.67   0.1075   1078.0466    920.9127 -72.75     132.4812     0.780           25     0.776      2.658     13.11098  22.7446        573
 3.50   0.1503   1018.5951   1153.3916 -37.83     94.75761     0.969           25     0.861      2.376     13.11395  23.1085        574
 5.17   0.0799    992.0784    498.0102 -32.96     178.2746     0.783           25     0.775      2.749     13.11989  22.4223        575
 6.16   0.0934   1077.0077    466.9885   0.40     152.4006     0.620           25     0.610      2.503     13.11098  22.5925        576
 4.21   0.0075   1071.2057   1217.5162 -68.65     1888.434     2.239           25     1.930      5.362     13.11544  19.8597        577
 4.76   0.0134   1064.2319   1561.6675 -68.85     1063.796     2.501           25     1.627      6.103     13.11841  20.4829        578
 3.50   0.0017   1037.6990    523.7823  88.97     8528.055     1.696           25     1.681      3.185     13.11247  18.2229        579
 6.06   0.0980   1051.8007    398.9987 -88.71     145.4125     0.927           25     0.749      3.377     13.11989  22.6435        580
 7.31   0.2285   1028.6842    945.6791 -44.74      62.3009     0.564           25     0.340      2.366      13.1095  23.5638        581
 5.45   0.0877   1042.1552    808.1166 -41.56     162.3188     0.810           25     0.670      2.635     13.11247  22.5241        582
 8.33   0.1564   1047.4857    206.5130  44.74     91.02567     0.502           25     0.498      3.011     13.10653  23.1521        583
 4.35   0.0710   1051.3973    235.9645  16.35     200.6555     1.202           25     0.946      3.278     13.11841  22.2939        584
 7.86   0.1924   1032.5078    491.5200 -50.77     73.99522     0.501           25     0.499      3.004      13.1095  23.3770        585
 7.64   0.1513   1046.7662   1157.0314   1.40     94.16179     0.691           25     0.423      2.758     13.12137  23.1153        586
 6.06   0.0945   1036.1702    240.3378 -20.06     150.8191     0.898           25     0.679      3.066     13.11841  22.6039        587
 6.17   0.0487   1039.5272    465.5916  20.18     292.5893     1.125           25     1.003      4.327     13.12137  21.8844        588
 5.13   0.3492   1028.5894   1033.7855  19.51     40.78388     0.735           25     0.452      1.857     13.11395  24.0238        589
 5.26   0.1088   1041.7097   1094.2051  37.41     130.9206     1.048           25     0.688      2.967     13.11098  22.7575        590
 3.93   0.0081   1029.2343    300.9294  68.86     1750.165     2.735           25     1.854      5.369     13.11692  19.9423        591
 5.12   0.0845   1016.3457    199.5304  20.23     168.5361     0.959           25     0.826      3.017     13.11098  22.4833        592
 5.04   0.0454   1020.2978   1267.2831  48.45     313.5367     2.139           25     0.808      3.978     13.10356  21.8093        593
 4.74   0.0106    985.6621    452.4799  64.48     1337.313     2.100           25     1.781      5.823     13.10802  20.2344        594
 3.50   0.0008   1024.8750   1378.5491 -86.83     18941.71     1.855           25     1.738      3.284     13.10802  17.3565        595
 3.50   0.0009   1008.8733    812.1113  37.36     16288.08     1.770           25     1.759      3.233     13.10653  17.5203        596
 4.25   0.0561   1013.5488    451.3266   9.02     253.5851     1.153           25     0.984      2.940     13.10802  22.0397        597
 3.50   0.0058   1010.2905    343.0790 -29.81     2458.274     1.491           25     1.453      3.030     13.10802  19.5734        598
 5.33   0.1417    991.3466    344.4591 -20.15      100.517     0.933           25     0.811      2.719     13.11395  23.0444        599
 3.50   0.0005    983.9279    556.8673 -87.44     28813.31     1.840           25     1.832      3.269     13.10653  16.9010        600
 5.77   0.0413   1010.0002    266.0417  37.06     345.0752     1.152           25     1.136      4.332     13.11989  21.7052        601
 3.50   0.0052   1000.7599    541.0183  23.68      2720.69     1.539           25     1.501      3.144     13.12137  19.4633        602
 3.50   0.2605   1003.1661   1236.6719  23.68     54.68895     0.918           25     0.672      2.248     13.11692  23.7052        603
 3.50   0.0126   1000.5397   1554.0548  -5.84     1127.678     1.339           25     1.272      2.827     13.11247  20.4195        604
 3.50   0.0174    998.8932   1272.4302 -42.66     820.3475     1.338           25     1.237      2.905     13.11098  20.7650        605
