#   1 KRON_RADIUS            Kron apertures in units of A or B                         
#   2 MAGERR_APER            RMS error vector for fixed aperture mag.                   [mag]
#   3 Y_IMAGE                Object position along y                                    [pixel]
#   4 X_IMAGE                Object position along x                                    [pixel]
#   5 FLUX_APER              Flux vector within fixed circular aperture(s)              [count]
#   6 THRESHOLD              Detection threshold above background                       [count]
#   7 THETA_IMAGE            Position angle (CCW/x)                                     [deg]
#   8 A_IMAGE                Profile RMS along major axis                               [pixel]
#   9 B_IMAGE                Profile RMS along minor axis                               [pixel]
#  10 FLUX_RADIUS            Fraction-of-light radii                                    [pixel]
#  11 FLUXERR_APER           RMS error vector for aperture flux(es)                     [count]
#  12 MAG_APER               Fixed aperture magnitude vector                            [mag]
#  13 NUMBER                 Running object number                                     
 4.23   0.0000     53.2652     63.6543     95544.63      43.5214   3.17     5.181     4.630      3.405   0.02344684  15.5995          1
 3.95   0.0000     16.5149    985.0804      15079.6      43.5214 -88.61     4.203     1.941      2.948   0.02343887  17.6040          2
 4.06   0.0000     18.0504     91.3141     12655.41      43.5214   0.42     1.768     1.716      1.991   0.02344418  17.7943          3
 3.50   0.0000     14.6167   1445.7477      28847.2      43.5214 -47.82     1.890     1.819      2.075   0.02346276  16.8997          4
 8.12   0.0000     10.2946   1183.6542     556.5729      43.5214  42.42     0.565     0.339      2.155   0.02343887  21.1862          5
 7.36   0.0000      4.2259    145.0241     699.4928      43.5214  89.83     0.957     0.768      2.662   0.02101359  20.9380          6
 6.64   0.0000     17.2495    384.5071     1292.301      43.5214  19.99     0.993     0.952      2.006   0.02343621  20.2716          7
 5.14   0.0000     24.7971    367.2085     2672.483      43.5214  13.81     1.305     1.234      2.021   0.02344684  19.4827          8
 3.50   0.0000     59.7850   1078.4766     114060.1      43.5214  77.02     2.287     2.159      2.151   0.02347072  15.4072          9
 8.57   0.0000     23.7800    383.3999     1424.224      43.5214 -71.85     0.755     0.452      2.145    0.0234548  20.1661         10
 6.41   0.0000     33.9023   1110.1802     1369.845      43.5214  68.24     1.657     0.778      2.245   0.02344418  20.2083         11
 7.88   0.0000     33.3076    326.9492     974.3378      43.5214  -6.92     0.747     0.677      2.252   0.02344153  20.5782         12
 5.98   0.0000     37.8655   1521.1591     884.4701      43.5214  46.72     0.834     0.669      2.162    0.0234548  20.6833         13
 7.05   0.0000     38.8750   1170.6508     866.6627      43.5214 -19.52     0.923     0.691      2.100   0.02343887  20.7054         14
 5.87   0.0000     42.4605    915.4996      1153.57      43.5214 -77.10     0.913     0.907      1.988   0.02343621  20.3949         15
 3.50   0.0000     80.1536    537.6561     105450.7      43.5214 -59.56     2.145     2.122      2.036   0.02345215  15.4924         16
 9.02   0.0000     44.6655    440.6699     1055.866      43.5214 -45.19     0.576     0.334      1.833   0.02344153  20.4910         17
 4.26   0.0000     75.2162    128.0142     5338.544      43.5214  -5.75     1.516     1.469      2.143    0.0234548  18.7314         18
 6.64   0.0000     82.2787    421.5101     1170.393      43.5214 -15.66     0.994     0.986      2.215   0.02343621  20.3792         19
 3.50   0.0000    121.8120    789.2006     163220.3      43.5214 -62.81     2.230     2.179      2.064    0.0234548  15.0181         20
 6.02   0.0000     90.7295    376.9918      2927.49      43.5214   4.47     1.628     1.442      2.613   0.02346541  19.3838         21
 4.42   0.0000     96.6151     56.2576     7888.933      43.5214 -38.95     1.639     1.566      2.004   0.02345745  18.3075         22
 6.10   0.0000     98.0585    452.9797     1864.471      43.5214 -14.82     1.454     1.005      2.147   0.02346276  19.8736         23
 7.39   0.0000     91.4945    495.9650     939.0402      43.5214  -1.40     0.788     0.500      2.139   0.02343887  20.6183         24
 3.50   0.0000    162.2989   1468.3301     86884.21      43.5214 -48.48     2.111     2.074      2.074   0.02344153  15.7026         25
 6.85   0.0000    131.2865    418.0175     821.1977      43.5214   5.64     0.729     0.681      2.207   0.02345215  20.7639         26
 3.55   0.0000    170.2996    877.3505     23485.99      43.5214  -8.96     1.882     1.865      2.029   0.02342293  17.1230         27
 8.52   0.0000    151.4999   1280.4825     608.7805      43.5214 -47.88     0.501     0.498      1.911   0.02342559  21.0888         28
 5.51   0.0000    164.9741   1445.6677     2256.578      43.5214  17.35     1.303     1.186      2.101   0.02345745  19.6664         29
 4.82   0.0000    166.8505    104.4303     1724.487      43.5214 -46.35     1.196     1.124      1.957   0.02346276  19.9583         30
 6.42   0.0000    169.3397   1368.8977     876.0537      43.5214  68.06     0.910     0.689      2.130   0.02343621  20.6937         31
 7.68   0.0000    180.3316    574.9897     1133.626      43.5214  53.18     1.039     0.643      2.135   0.02346807  20.4138         32
 7.49   0.0000    186.6387   1354.8976     1221.827      43.5214  75.59     1.045     0.753      2.360   0.02343356  20.3325         33
 5.30   0.0000    192.6023   1350.5554     2884.971      43.5214 -19.15     1.368     1.305      2.037   0.02346807  19.3996         34
 4.77   0.0000    210.7202    827.6749     11232.52      43.5214  -5.78     3.810     2.091      2.920   0.02344418  17.9238         35
 4.14   0.0000    206.7225    549.0807      5494.84      43.5214   3.37     1.545     1.484      2.072   0.02344684  18.7001         36
 4.19   0.0000    212.1664   1306.1005     5538.479      43.5214 -64.54     1.516     1.487      2.105   0.02342825  18.6915         37
 5.52   0.0000    230.1494    562.2775     10344.13      43.5214 -37.31     3.231     3.004      4.238   0.02343887  18.0133         38
 5.76   0.0000    210.8939    684.8484     1679.829      43.5214 -66.39     1.218     1.115      2.166   0.02343621  19.9868         39
 3.50   0.0000    259.7588    997.4791       280483      43.5214 -48.81     2.331     2.263      2.080   0.02344949  14.4302         40
 3.92   0.0000    223.9121   1226.0618     6456.729      43.5214  25.89     1.523     1.479      2.082   0.02344153  18.5250         41
 4.86   0.0000    222.6267    774.9695     2309.539      43.5214  81.57     1.224     1.191      2.025   0.02345745  19.6412         42
 3.50   0.0000    265.9002     67.6173     207182.2      43.5214 -49.31     2.268     2.237      2.040   0.02344418  14.7591         43
 5.52   0.0000    243.9732    112.8913     3892.367      43.5214 -88.19     1.951     1.539      2.630   0.02344684  19.0745         44
 4.81   0.0000    255.4885    613.0098     10464.37      43.5214 -41.01     2.436     2.028      2.401    0.0234548  18.0007         45
 6.52   0.0000    239.3535    838.8231     1747.774      43.5214  -5.84     1.203     1.102      2.217   0.02346011  19.9438         46
 7.18   0.0000    250.5180    107.4840     1399.023      43.5214 -42.78     1.108     0.852      2.140   0.02343887  20.1854         47
 3.50   0.0000    287.5196   1486.4733     50517.96      43.5214 -43.97     2.033     1.992      2.090   0.02344153  16.2914         48
 3.66   0.0000    281.9236   1522.4003     13800.06      43.5214   3.77     1.701     1.668      1.994   0.02345745  17.7003         49
 6.46   0.0000    270.7727   1273.6278     1166.595      43.5214  16.49     1.000     0.849      1.948   0.02346011  20.3827         50
 3.50   0.0000    303.1506    201.7659     38622.66      43.5214 -78.11     1.968     1.942      2.076   0.02345745  16.5829         51
 6.27   0.0000    293.2967   1475.8354     1509.954      43.5214 -33.66     1.250     1.086      1.984    0.0234309  20.1026         52
 4.64   0.0000    302.2875    563.6751     2301.782      43.5214  31.81     1.325     1.283      2.089   0.02343621  19.6448         53
 3.50   0.0000    322.0853    697.3419     27599.36      43.5214   1.78     1.882     1.848      1.977   0.02344418  16.9478         54
 7.64   0.0000    308.7069     85.2985     1127.844      43.5214  45.78     0.969     0.767      2.253   0.02343356  20.4194         55
 6.05   0.0000    321.9905    641.4783     2789.948      43.5214 -64.00     1.799     1.232      2.793   0.02346011  19.4360         56
 5.16   0.0000    327.5369    595.4523     5446.037      43.5214 -52.10     1.728     1.694      2.199   0.02344684  18.7098         57
 6.07   0.0000    329.2517   1546.0168     1063.345      43.5214 -87.78     0.913     0.756      2.197   0.02346276  20.4833         58
 5.83   0.0000    332.2679     93.4347     1539.664      43.5214  20.40     0.992     0.948      1.971   0.02345745  20.0814         59
 4.78   0.0000    350.1319     54.7084     2989.788      43.5214  -8.51     1.366     1.298      1.978   0.02343887  19.3609         60
 3.50   0.0000    368.1670    761.1217     26541.88      43.5214 -26.12     1.940     1.871      2.046   0.02345215  16.9902         61
 4.02   0.0000    361.1491   1500.4037     5658.242      43.5214 -15.08     1.586     1.464      2.106   0.02347072  18.6683         62
 3.50   0.0000    395.2009    231.4691     115513.4      43.5214 -63.05     2.184     2.143      2.044   0.02346541  15.3934         63
 5.78   0.0000    360.5269   1034.0070     1675.469      43.5214  -1.40     1.111     0.957      2.124   0.02346541  19.9897         64
 6.91   0.0000    375.4792    754.0627     1617.475      43.5214  56.22     1.715     0.961      1.992   0.02343887  20.0279         65
 7.68   0.0000    370.3091     71.9499     1128.504      43.5214 -10.89     0.743     0.672      2.118   0.02344684  20.4187         66
 6.47   0.0000    373.4826   1083.8826     1313.003      43.5214 -17.84     1.100     0.990      2.289   0.02343887  20.2543         67
 6.41   0.0002    380.6161      1.4882     82.40285      43.5214 -89.79     1.601     0.500      2.956   0.01792172  23.2601         68
 3.50   0.0000    397.0519   1461.2017     20195.63      43.5214 -44.85     1.804     1.797      2.074   0.02347072  17.2869         69
 3.50   0.0000    398.1799    354.6261     22060.45      43.5214 -13.53     1.890     1.844      2.007    0.0234548  17.1910         70
 8.09   0.0000    375.6552     87.2937     843.3529      43.5214  47.61     0.564     0.339      1.945   0.02344153  20.7350         71
 6.71   0.0000    380.1594    125.8447     1002.878      43.5214  44.65     0.818     0.680      1.925   0.02346011  20.5469         72
 4.22   0.0000    393.8183   1088.7736     5060.144      43.5214 -35.06     1.516     1.449      1.920   0.02345745  18.7896         73
 8.89   0.0000    382.4900     67.5055     724.3913      43.5214 -44.69     0.503     0.497      1.830    0.0234309  20.9001         74
 8.07   0.0001    388.6902   1195.3347     503.4594      43.5214  43.77     0.567     0.338      2.276   0.02344684  21.2951         75
 6.14   0.0001    412.0432      1.7727     194.6521      43.5214  90.00     2.505     0.701      4.380   0.01829638  22.3269         76
 7.90   0.0000    396.8768    626.5975     2015.425      43.5214 -73.71     1.239     0.985      2.763   0.02345745  19.7891         77
 8.16   0.0000    403.6928    526.4366     1111.942      43.5214  81.17     1.023     0.476      2.249   0.02344153  20.4348         78
 7.54   0.0000    407.0518    282.4902     715.5438      43.5214 -88.59     0.787     0.500      2.018   0.02344684  20.9134         79
 3.50   0.0000    437.9478    252.1072     42000.61      43.5214 -87.21     2.006     1.974      2.103   0.02344153  16.4919         80
 3.50   0.0000    461.0704    807.6703     279254.4      43.5214 -68.51     2.341     2.304      2.041   0.02342825  14.4350         81
 5.83   0.0000    420.9021    159.0900     2683.928      43.5214  37.62     1.694     1.421      2.108    0.0234309  19.4781         82
 7.67   0.0000    419.5386   1580.4929     744.0464      43.5214  40.47     0.504     0.495      2.097   0.02344153  20.8710         83
 4.17   0.0000    432.9492   1422.0629     3936.904      43.5214   6.85     1.427     1.396      2.036   0.02344684  19.0621         84
 6.72   0.0000    426.5748   1179.2787     1373.882      43.5214  26.35     1.188     0.957      2.055    0.0234548  20.2051         85
 6.42   0.0000    426.8329    433.0970     104375.9      43.5214  -3.27     2.183     0.735      4.264   0.02343621  15.5035         86
 5.15   0.0000    434.2586    151.1154      1450.72      43.5214 -20.05     1.138     1.034      1.983   0.02344418  20.1460         87
 3.88   0.0000    450.3392     21.3603     15489.62      43.5214 -27.47     1.777     1.769      2.014   0.02345745  17.5749         88
 5.07   0.0000    467.7993    850.4810     13347.96      43.5214  22.59     7.403     2.054      4.788   0.02345745  17.7365         89
 9.05   0.0000    430.6650    719.3185     1617.983      43.5214  45.76     0.572     0.336      1.842   0.02343621  20.0276         90
 4.48   0.0000    440.0043    305.8401     1805.713      43.5214  22.45     1.160     1.136      1.906   0.02345745  19.9084         91
 5.42   0.0000    445.2589    122.3780     2686.807      43.5214 -23.52     1.401     1.309      2.164   0.02346276  19.4769         92
 3.80   0.0000    457.8408     34.5939     17895.59      43.5214 -30.83     1.779     1.767      1.964   0.02346011  17.4181         93
 8.05   0.0000    443.6886    655.3237     1069.964      43.5214  44.36     0.563     0.340      2.059   0.02343356  20.4766         94
 4.32   0.0000    463.6414    468.6490     5684.805      43.5214  70.99     1.619     1.558      2.082   0.02346276  18.6632         95
 6.24   0.0000    452.9206   1533.0249     923.8868      43.5214 -31.03     0.792     0.774      2.169    0.0234548  20.6360         96
 5.22   0.0000    460.9918   1096.1410     1973.723      43.5214  47.71     1.191     1.080      2.147   0.02347072  19.8118         97
 4.60   0.0000    471.3581    254.2742     4792.837      43.5214 -79.51     1.510     1.439      2.036   0.02344949  18.8485         98
 4.03   0.0000    472.1380    734.9207     7112.984      43.5214  75.27     1.566     1.511      2.069   0.02343887  18.4199         99
 7.71   0.0000    461.8358    724.7247     1054.389      43.5214 -20.12     0.949     0.683      2.242   0.02344949  20.4925        100
 3.70   0.0000    477.9271    923.0840     9397.954      43.5214 -28.67     1.679     1.612      2.020   0.02343887  18.1174        101
 4.34   0.0000    477.2791   1276.4363     3448.731      43.5214 -44.53     1.334     0.920      2.973   0.02344949  19.2059        102
 5.84   0.0000    488.9431    839.6031      1856.19      43.5214  87.10     2.059     0.959      2.653   0.02347072  19.8784        103
 4.14   0.0000    484.0388   1070.6680     4349.582      43.5214 -80.82     1.429     1.400      2.009    0.0234548  18.9539        104
 7.10   0.0000    475.9789   1168.4807     720.0919      43.5214  89.68     0.781     0.500      1.951   0.02345745  20.9065        105
 5.40   0.0000    496.2654     82.9187     6651.364      43.5214  66.13     2.311     2.046      2.995   0.02343621  18.4927        106
 6.87   0.0000    478.8629    682.8434     1159.862      43.5214 -46.10     0.819     0.679      1.954   0.02344949  20.3890        107
 5.12   0.0000    495.7248   1186.8407     6517.741      43.5214 -15.71     2.996     1.931      3.257   0.02344949  18.5148        108
 5.26   0.0000    504.0796    762.8668     3198.637      43.5214 -10.71     1.688     1.646      2.446   0.02343621  19.2876        109
 4.77   0.0000    502.0138    863.8067      2439.44      43.5214  64.62     1.201     1.192      2.114   0.02344153  19.5818        110
 4.57   0.0000    515.3623   1461.0657     7810.533      43.5214  23.93     4.115     1.649      3.027   0.02345745  18.3183        111
 6.08   0.0000    498.0054    366.2516     998.6984      43.5214   0.37     0.926     0.749      2.176   0.02347072  20.5514        112
 6.08   0.0000    509.9191    164.8152     2231.177      43.5214  -5.95     1.820     1.073      2.724   0.02346011  19.6787        113
 4.83   0.0000    513.8598   1179.1876     2339.743      43.5214  24.06     1.285     1.178      2.067   0.02346011  19.6271        114
 5.52   0.0000    519.1540    641.9484     1617.396      43.5214  22.36     1.200     1.120      2.124   0.02346541  20.0280        115
 6.45   0.0000    518.1915   1519.1722     871.9363      43.5214  45.74     0.761     0.567      2.202   0.02345745  20.6988        116
 4.09   0.0000    540.2067    999.9378     5558.373      43.5214  61.15     1.534     1.490      2.093   0.02346807  18.6876        117
 6.53   0.0000    536.3547    404.5305     1253.222      43.5214  38.93     1.195     0.786      1.943   0.02344684  20.3049        118
 3.90   0.0000    558.9035   1041.7982     7321.601      43.5214   6.20     1.633     1.563      1.996   0.02345215  18.3885        119
 4.74   0.0000    571.3472     45.9143     5272.434      43.5214  46.17     2.084     1.522      2.181   0.02344153  18.7450        120
 5.98   0.0000    555.8228    778.8107     719.0101      43.5214  44.57     0.756     0.567      2.103   0.02345215  20.9082        121
 3.50   0.0000    580.7163    144.9663     27803.47      43.5214  83.47     1.885     1.868      2.059    0.0234548  16.9398        122
 4.85   0.0000    571.3085   1447.7944     4595.282      43.5214  19.43     2.258     1.637      2.727   0.02344418  18.8942        123
 5.88   0.0000    565.0881    139.5546         1318      43.5214 -69.74     1.052     0.977      1.908   0.02344418  20.2502        124
 3.50   0.0000    582.1971    319.2584     25389.86      43.5214   7.31     1.887     1.830      2.000   0.02347072  17.0383        125
 4.29   0.0000    596.7602    782.6867     15386.63      43.5214 -62.08     3.302     3.182      3.549   0.02345215  17.5821        126
 5.97   0.0000    576.2225   1001.8235     1563.664      43.5214  40.80     1.216     1.076      2.198   0.02345745  20.0646        127
 4.64   0.0000    584.5398     76.0209     2002.524      43.5214  -0.84     1.205     1.138      2.080   0.02346276  19.7961        128
 4.19   0.0000   1001.5298   1555.4829     3826.613      43.5214  54.97     1.346     1.330      2.050   0.02343621  19.0930        129
 4.71   0.0000   1597.6036    654.7847     664.6458      43.5214   1.75     1.659     1.434      2.426   0.02016714  20.9935        130
 5.16   0.0000   1594.7568    374.1190     940.6874      43.5214  42.74     1.307     1.027      1.609   0.02266114  20.6164        131
 4.05   0.0000   1584.9181   1108.9316     4168.302      43.5214 -15.59     1.433     1.357      1.996   0.02344153  19.0001        132
 6.78   0.0000   1585.9497   1069.5099     1000.963      43.5214 -88.96     0.783     0.500      2.046   0.02344418  20.5490        133
 3.60   0.0000   1541.8564    135.1745     11210.86      43.5214  54.68     1.663     1.623      2.000   0.02346011  17.9259        134
 8.74   0.0000   1519.3268     85.3294     845.0319      43.5214 -44.88     0.573     0.336      1.807   0.02343356  20.7328        135
 4.79   0.0000   1514.6519    483.6263     1334.744      43.5214 -43.74     1.049     0.951      2.112   0.02346276  20.2365        136
 4.90   0.0000    912.4185   1001.2366      1437.01      43.5214  73.44     0.989     0.957      2.004   0.02346011  20.1563        137
 3.50   0.0000    900.4997    302.8331        18898      43.5214 -64.19     1.794     1.787      2.051    0.0234309  17.3590        138
 4.92   0.0000    896.1861    538.5018     4104.113      43.5214   6.05     1.942     1.608      2.088   0.02344684  19.0170        139
 5.31   0.0000    893.7880   1426.2821     1095.281      43.5214 -16.60     0.974     0.854      1.926   0.02346011  20.4512        140
 3.50   0.0000    880.2065   1592.6320     201467.8      43.5214 -83.52     2.300     2.188      2.017   0.02346276  14.7895        141
 6.04   0.0000    888.8303    325.8213     2440.512      43.5214  17.19     1.767     1.100      2.277    0.0234548  19.5813        142
 8.02   0.0000    888.6788    681.3232     868.3182      43.5214  44.90     0.568     0.338      1.951   0.02344684  20.7033        143
 4.51   0.0000    885.7850   1500.2664     2674.219      43.5214  10.00     1.303     1.227      2.077   0.02346541  19.4820        144
 7.04   0.0000    885.0953    339.2578     1360.961      43.5214  -2.69     1.149     0.882      2.054   0.02343621  20.2154        145
 4.70   0.0000    877.6797    961.0908     1752.863      43.5214  27.86     1.126     1.034      2.102   0.02344153  19.9406        146
 6.46   0.0000    876.3213    541.9203     767.3494      43.5214  -7.28     0.737     0.667      1.995   0.02344153  20.8375        147
 4.13   0.0000    869.4717   1103.7170     7908.815      43.5214 -55.22     1.983     1.793      2.138   0.02343621  18.3047        148
 4.96   0.0000    867.9886    939.9118     3246.152      43.5214  41.19     1.806     1.355      2.121    0.0234548  19.2716        149
 6.15   0.0000    869.3575    643.8528     1002.032      43.5214  68.50     0.904     0.687      2.130   0.02345745  20.5478        150
 8.15   0.0000    860.4996   1554.4683     575.1868      43.5214  48.21     0.504     0.495      1.995   0.02344418  21.1505        151
 4.53   0.0000    858.5098   1339.6924     2059.118      43.5214 -89.55     1.308     1.113      2.146   0.02343356  19.7658        152
 9.07   0.0000    855.5103    545.4817     1006.687      43.5214 -46.32     0.502     0.497      2.187   0.02343887  20.5428        153
 4.16   0.0000    844.9837   1063.9657     1732.332      43.5214   1.03     1.169     1.133      1.999   0.02345745  19.9534        154
 4.40   0.0000    843.3248   1106.2646     3351.713      43.5214  40.34     1.667     1.341      2.028   0.02343621  19.2368        155
 4.56   0.0000    836.6466    298.8450      4514.43      43.5214  11.92     1.467     1.396      2.011   0.02346276  18.9135        156
 6.83   0.0000    836.6003   1520.7371     730.1226      43.5214  18.11     0.733     0.456      2.022   0.02347072  20.8915        157
 5.73   0.0000    835.6805    819.1954      1241.09      43.5214 -72.93     0.960     0.861      2.038   0.02345745  20.3155        158
 3.50   0.0000    822.9877    654.4249     19483.28      43.5214  74.96     1.838     1.773      1.954   0.02345215  17.3258        159
 7.91   0.0000    819.4906   1398.4888      571.674      43.5214  46.70     0.500     0.500      2.132   0.02343356  21.1571        160
 3.50   0.0000    803.0379   1378.7590     18381.46      43.5214 -72.46     1.796     1.752      1.985   0.02346276  17.3890        161
 3.50   0.0000    798.4418    695.7374     45451.96      43.5214 -88.12     2.639     1.966      2.658   0.02345215  16.4061        162
 4.17   0.0000    800.7010     41.1932     9165.295      43.5214 -23.53     1.671     1.577      2.104   0.02344684  18.1446        163
 4.28   0.0000    774.2634   1427.3890      7974.37      43.5214  89.63     2.902     1.909      2.995   0.02347072  18.2958        164
 7.20   0.0000    768.0129    140.0102     1047.068      43.5214  44.98     0.806     0.795      2.098   0.02344684  20.5001        165
 4.24   0.0000    742.8162    556.3451     4778.055      43.5214 -57.68     1.449     1.420      2.007   0.02346276  18.8519        166
 4.32   0.0000    738.1102   1158.1116     1918.051      43.5214  47.36     1.221     1.121      2.126    0.0234309  19.8428        167
 5.08   0.0000    736.0913    649.8519     2051.251      43.5214 -38.54     1.206     1.123      1.954   0.02344418  19.7700        168
 3.50   0.0000    726.6004    848.5243     167329.2      43.5214 -72.04     2.212     2.178      2.027   0.02346011  14.9911        169
 3.87   0.0000    727.4650   1178.3309     3421.992      43.5214 -10.14     1.394     1.328      2.028   0.02344153  19.2143        170
 5.23   0.0000    721.4345   1395.1035     1347.787      43.5214  16.01     1.086     0.953      2.045   0.02343621  20.2259        171
 3.96   0.0000    715.8315    808.4100       4174.1      43.5214  51.69     1.425     1.393      1.997   0.02345745  18.9986        172
 3.99   0.0000    708.9626   1163.8940      4461.74      43.5214  20.90     1.464     1.393      2.041   0.02343621  18.9262        173
 4.42   0.0000    704.4229   1339.0634     4984.551      43.5214 -25.11     1.700     1.462      2.196   0.02346276  18.8059        174
 3.68   0.0000    702.8209    952.5522     7760.535      43.5214  -9.41     1.630     1.577      2.009   0.02346011  18.3253        175
 6.02   0.0000    699.1675    582.7174     1873.776      43.5214   5.06     1.844     0.873      2.204   0.02345215  19.8682        176
 5.87   0.0000    691.6353   1213.6743     2761.269      43.5214  87.83     1.432     1.241      2.694   0.02344949  19.4472        177
 6.00   0.0000    686.6937   1213.8435     1702.792      43.5214 -47.21     1.217     0.958      1.875   0.02343356  19.9721        178
 4.18   0.0000    685.6500    644.3535     6599.677      43.5214 -73.12     1.594     1.581      2.023   0.02346276  18.5012        179
 5.68   0.0000    687.6556    130.9231     1043.785      43.5214  76.35     0.983     0.752      2.119   0.02344684  20.5035        180
 7.44   0.0000    668.9944   1221.5293     1154.474      43.5214  -0.05     0.827     0.706      2.321   0.02346276  20.3940        181
 3.50   0.0000    648.2678   1464.4448     158704.7      43.5214 -76.52     2.214     2.143      2.063   0.02344949  15.0485        182
 5.07   0.0000    654.6734    870.9016     2172.543      43.5214  21.01     1.193     1.057      2.066   0.02343621  19.7076        183
 6.84   0.0000    645.7944    653.0030     1158.271      43.5214 -88.71     0.912     0.756      2.073   0.02344684  20.3905        184
 7.26   0.0000    641.1874    276.8223     833.3067      43.5214 -45.77     0.755     0.569      2.125   0.02344949  20.7480        185
 4.14   0.0000    630.8300    806.1274     2122.666      43.5214 -34.12     1.204     1.125      2.136    0.0234548  19.7328        186
 4.30   0.0000    623.4095   1581.5348     3328.473      43.5214  49.39     1.346     1.338      2.073   0.02347072  19.2444        187
 7.18   0.0000    618.1836   1151.1306     1315.651      43.5214 -37.45     0.897     0.874      2.190   0.02346807  20.2521        188
 8.09   0.0000    609.5256    945.4929      778.551      43.5214  42.34     0.503     0.496      2.126   0.02344153  20.8218        189
 3.50   0.0000   1563.6936    304.2686     144727.7      43.5214 -77.52     2.157     2.117      2.056   0.02344153  15.1486        190
 4.14   0.0000   1566.7208     22.0779     6466.889      43.5214  75.11     1.574     1.553      1.981   0.02344418  18.5233        191
 3.94   0.0000   1542.6152    654.7387     7894.468      43.5214  29.79     1.579     1.560      1.994    0.0234548  18.3067        192
 3.50   0.0000   1558.0082    487.7251       130613      43.5214 -78.65     2.166     2.125      2.050   0.02346541  15.2600        193
 4.16   0.0000   1570.5596     92.7663     5280.852      43.5214  -2.72     1.453     1.398      1.970   0.02346541  18.7432        194
 4.48   0.0000   1546.1006    863.5362     2871.186      43.5214  60.15     1.564     1.328      2.128   0.02344418  19.4048        195
 4.36   0.0000   1561.3612    861.4875     3370.088      43.5214  19.18     1.352     1.338      1.938   0.02344949  19.2309        196
 4.38   0.0000   1565.7378    784.6730     4322.593      43.5214 -79.11     1.769     1.443      2.211   0.02344418  18.9606        197
 5.18   0.0000   1550.8444   1221.8484     1346.407      43.5214  42.51     1.082     0.925      2.174   0.02346011  20.2271        198
 3.57   0.0000   1552.6281    682.2971     57231.52      43.5214 -26.44     4.582     3.959      3.291   0.02343887  16.1559        199
 7.80   0.0000   1535.9841   1428.9976     1122.212      43.5214 -45.55     0.927     0.527      2.668   0.02344949  20.4248        200
 7.00   0.0000   1532.4937    415.7445     1393.507      43.5214 -84.33     1.017     0.979      2.174   0.02344153  20.1897        201
 7.59   0.0000   1519.9943   1100.7047     944.2607      43.5214  89.07     0.749     0.679      2.483   0.02344949  20.6123        202
 4.09   0.0000    928.4031   1322.5200     3291.769      43.5214 -44.27     1.357     1.342      2.007   0.02346011  19.2564        203
 3.50   0.0000   1514.9222    392.7349      23084.7      43.5214  66.54     1.807     1.797      1.970   0.02343887  17.1417        204
 6.00   0.0000   1515.4878   1547.1486     1549.856      43.5214  74.03     1.048     0.871      2.144   0.02344153  20.0743        205
 3.50   0.0000   1507.1836    269.3994     75410.58      43.5214 -82.06     2.049     2.030      2.009   0.02344949  15.8564        206
 5.55   0.0000   1498.4597    844.2532     1107.769      43.5214 -25.00     0.883     0.757      2.203   0.02344684  20.4389        207
 4.56   0.0000   1504.1298    723.3583     2652.617      43.5214  14.84     1.297     1.162      2.093    0.0234548  19.4908        208
 3.97   0.0000    939.1798   1067.2053     6136.995      43.5214 -23.40     1.522     1.452      2.070   0.02345215  18.5801        209
 6.96   0.0000   1488.2819     78.0035     1040.495      43.5214  -1.74     0.735     0.681      2.228    0.0234548  20.5069        210
 3.92   0.0000    912.8765    838.6033     2664.596      43.5214  -0.15     1.305     1.218      1.915   0.02345745  19.4859        211
 5.67   0.0000    950.7991    654.3572      2447.44      43.5214  65.98     1.507     1.354      2.249   0.02346541  19.5782        212
 5.84   0.0000    947.8477    445.1833     1295.312      43.5214  47.70     0.889     0.856      2.109   0.02346011  20.2691        213
 5.26   0.0001   1065.7639   1597.2657      343.031      43.5214 -14.20     0.952     0.861      1.158   0.02052812  21.7117        214
 7.26   0.0000    938.5413    516.3163     1997.971      43.5214  57.72     1.300     0.997      2.389   0.02344153  19.7985        215
 7.66   0.0000   1474.9158    998.3757     1759.785      43.5214 -14.25     1.054     0.754      3.082    0.0234548  19.9363        216
 6.42   0.0000   1482.4310    575.2145     1757.595      43.5214 -30.81     1.204     0.969      2.779   0.02346276  19.9377        217
 5.80   0.0000   1438.6464   1271.3108     1463.179      43.5214 -45.87     0.991     0.878      2.021   0.02344153  20.1368        218
 5.08   0.0000   1072.1349   1219.1719      5817.81      43.5214 -73.97     2.049     1.696      2.326    0.0234548  18.6381        219
 4.97   0.0000   1079.4351    330.1989     1675.051      43.5214   1.47     1.167     0.990      1.946   0.02344949  19.9899        220
 3.95   0.0000   1415.4110   1386.6447     5291.813      43.5214  75.55     1.498     1.406      2.011   0.02345745  18.7410        221
 3.55   0.0000   1107.4796    428.0644     20838.35      43.5214  29.41     1.816     1.783      2.020   0.02343621  17.2528        222
 3.50   0.0000   1081.7991   1148.2404     27195.58      43.5214  77.56     1.859     1.838      2.068   0.02346011  16.9638        223
 5.70   0.0000   1066.6768    569.0727     1020.368      43.5214 -72.74     1.032     0.751      2.275   0.02344153  20.5281        224
 6.53   0.0000   1110.7510    479.0507     3618.993      43.5214  19.20     1.749     1.562      2.867   0.02346541  19.1535        225
 3.54   0.0000   1435.3314    224.8159     11282.75      43.5214  21.04     1.687     1.611      2.011   0.02346541  17.9190        226
 6.26   0.0000   1090.9882    468.1736     2384.527      43.5214 -62.75     1.759     1.048      2.853    0.0234548  19.6065        227
 7.39   0.0001   1441.0785   1082.6284     390.7214      43.5214  43.16     2.974     0.680      5.773   0.02344949  21.5703        228
 4.76   0.0000   1411.0619    350.0085     2029.956      43.5214  44.81     1.366     1.125      2.081   0.02347072  19.7813        229
 8.08   0.0000   1453.3318    391.6697     608.7466      43.5214  45.06     0.575     0.334      2.194   0.02343621  21.0889        230
 3.54   0.0000   1439.7888    619.2131     8495.831      43.5214 -62.85     1.575     1.554      2.027   0.02344949  18.2270        231
 3.50   0.0000   1393.4050    114.5455     188013.3      43.5214 -80.89     2.215     2.169      2.088   0.02347337  14.8645        232
 6.42   0.0000   1436.1945   1347.1851     939.7042      43.5214  46.04     0.748     0.567      2.260   0.02344684  20.6175        233
 4.63   0.0000   1120.3417    329.8551     6944.716      43.5214  55.81     2.503     1.644      2.356   0.02344418  18.4459        234
 6.70   0.0000   1431.9259    340.6477     1597.161      43.5214  15.34     1.044     0.753      2.102   0.02344418  20.0416        235
 4.82   0.0000   1129.1801    547.4301     1961.726      43.5214  54.92     1.192     1.121      1.939   0.02345745  19.8184        236
 3.50   0.0000   1408.2377    308.3844     7993.535      43.5214  -7.03     1.547     1.510      1.966   0.02346276  18.2932        237
 5.35   0.0000   1400.5464   1031.5027      2529.72      43.5214  31.11     1.429     1.368      2.001   0.02343356  19.5423        238
 3.50   0.0000   1388.6937   1428.5571     22228.66      43.5214  55.76     1.789     1.763      2.009   0.02343356  17.1827        239
 6.79   0.0027   1412.1804      1.3059     7.057915      43.5214 -77.74     1.083     0.409      2.461   0.01768396  25.9283        240
 4.72   0.0000   1406.3345    329.8578     1579.709      43.5214  26.69     1.130     1.025      2.125   0.02344418  20.0536        241
 4.65   0.0000   1330.5002    386.9715     1743.301      43.5214   3.29     1.098     0.952      2.027   0.02343887  19.9466        242
 4.79   0.0000   1259.4657    432.5281     4226.138      43.5214  25.38     1.823     1.760      2.485   0.02343887  18.9851        243
 3.68   0.0000   1278.0730   1331.4478     13449.64      43.5214  82.55     1.714     1.699      1.928   0.02344418  17.7282        244
 3.79   0.0000   1390.4578    713.3802     8167.602      43.5214  43.10     1.588     1.550      2.034   0.02346276  18.2698        245
 5.96   0.0000   1388.9021    806.6555     1373.747      43.5214  13.85     0.984     0.753      1.965   0.02343356  20.2052        246
 4.34   0.0000   1392.2596   1038.8943     5592.537      43.5214   8.71     1.474     1.451      2.064   0.02344418  18.6810        247
 3.53   0.0000   1218.8743   1195.0033     26803.54      43.5214  54.82     1.997     1.952      1.896   0.02346807  16.9795        248
 6.99   0.0000   1291.8092    546.1708     745.7285      43.5214 -44.88     0.757     0.568      1.840   0.02345745  20.8685        249
 3.56   0.0000   1210.6931   1279.0286     31391.93      43.5214  82.87     5.696     3.445      4.460   0.02344684  16.8080        250
 3.82   0.0000   1292.8365    412.6910      3014.91      43.5214 -22.03     1.326     1.267      2.172   0.02344418  19.3518        251
 8.47   0.0000   1262.3208    216.3072      743.531      43.5214 -45.74     0.560     0.342      2.027   0.02344153  20.8718        252
 8.25   0.0000   1379.3267    319.3086      914.161      43.5214 -45.93     0.563     0.340      1.916   0.02344153  20.6474        253
 8.27   0.0000   1352.4868    152.2023     1473.703      43.5214 -89.11     1.011     0.738      2.554   0.02344949  20.1290        254
 3.50   0.0000   1372.5312   1019.0457     24834.67      43.5214 -41.64     1.951     1.869      2.019   0.02345215  17.0624        255
 3.50   0.0000   1320.0488    660.0613     73954.74      43.5214  75.91     2.093     2.039      2.049   0.02344684  15.8776        256
 5.87   0.0000   1293.5828    742.1906     3897.493      43.5214 -15.99     1.535     1.440      2.170   0.02344684  19.0730        257
 7.00   0.0000   1346.3284    605.1111     966.5125      43.5214 -68.97     0.936     0.689      2.220   0.02344153  20.5870        258
 3.97   0.0000   1329.8187    655.9049     10703.06      43.5214  67.51     1.921     1.813      2.064   0.02344949  17.9762        259
 4.12   0.0000   1332.9294    107.4837     2749.064      43.5214  -2.81     1.329     1.158      1.870   0.02343621  19.4520        260
 3.50   0.0000   1298.3828    724.9477     397249.2      43.5214 -51.40     2.371     2.297      2.137   0.02346276  14.0523        261
 4.19   0.0000   1304.7047    892.9962      2374.48      43.5214 -75.91     1.297     1.172      2.012   0.02344684  19.6111        262
 4.08   0.0000   1319.2585    264.1429     1994.233      43.5214   6.39     1.181     1.123      2.052   0.02344418  19.8006        263
 4.31   0.0000   1307.5262    669.7034     8760.528      43.5214 -32.49     1.629     1.592      1.991   0.02343887  18.1937        264
 3.65   0.0000   1272.7618    610.0184     36270.36      43.5214 -58.16     4.190     2.580      2.910   0.02346276  16.6511        265
 5.69   0.0000   1299.3568     54.0625     942.6805      43.5214 -68.39     0.901     0.697      2.046   0.02345215  20.6141        266
 3.52   0.0000   1291.4148    762.2641     19362.32      43.5214 -23.95     2.297     1.839      1.905    0.0234548  17.3326        267
 3.56   0.0000   1265.4564    807.9594     10931.92      43.5214  -7.96     1.661     1.612      2.026   0.02344949  17.9533        268
 6.36   0.0000   1273.6595    698.0986     831.5764      43.5214  68.67     0.919     0.693      2.318   0.02343621  20.7502        269
 4.97   0.0000   1228.6499   1153.6350     1229.289      43.5214  43.00     0.997     0.872      2.061   0.02346011  20.3259        270
 5.85   0.0000   1262.1962    855.0399     1147.976      43.5214 -88.04     0.907     0.755      2.198    0.0234548  20.4002        271
 5.76   0.0000   1212.7454   1429.5703     4639.128      43.5214  66.31     2.076     1.803      3.018   0.02346276  18.8839        272
 4.06   0.0000   1237.0374   1553.6448     5192.012      43.5214 -72.17     1.471     1.442      1.947   0.02346276  18.7617        273
 6.33   0.0000   1229.7732    599.1249     2765.115      43.5214 -25.96     1.422     1.267      2.335   0.02345215  19.4457        274
 3.50   0.0000   1234.4055    304.8864     9034.853      43.5214   0.76     1.619     1.566      2.013   0.02345215  18.1602        275
 5.14   0.0000   1237.6368     48.3455     1397.791      43.5214  42.97     1.043     0.951      2.002   0.02345745  20.1864        276
 4.28   0.0000   1207.6377    838.9413     5329.511      43.5214  35.87     1.470     1.451      2.038   0.02345745  18.7333        277
 3.50   0.0000   1214.6141    513.0945     39755.32      43.5214  -0.90     1.943     1.918      2.032   0.02344949  16.5515        278
 4.24   0.0000   1200.8662   1442.2368     3021.797      43.5214 -76.41     1.564     1.485      2.241    0.0234548  19.3493        279
 7.93   0.0000   1204.4742   1217.4802     680.2927      43.5214  43.31     0.502     0.497      1.834   0.02344153  20.9683        280
 5.08   0.0000   1194.9722    124.1294     5500.383      43.5214 -83.39     1.957     1.669      2.520   0.02345745  18.6990        281
 3.91   0.0000   1201.8915    339.0921     4909.799      43.5214  41.67     1.528     1.455      2.061    0.0234309  18.8223        282
 5.34   0.0000   1130.2582    219.7123     1892.193      43.5214  22.28     1.184     1.117      2.023   0.02344418  19.8576        283
 3.50   0.0000   1138.5420    148.1507     78367.97      43.5214  77.75     2.097     2.062      2.015   0.02345215  15.8147        284
 5.95   0.0000   1181.9745    176.1647     1025.555      43.5214   3.89     0.910     0.759      2.056   0.02346011  20.5226        285
 4.90   0.0000   1180.9506    549.4130     1750.164      43.5214  37.05     1.159     1.067      2.037   0.02346541  19.9423        286
 4.68   0.0000   1153.5942   1353.1537     2597.925      43.5214  23.71     1.498     1.327      2.060   0.02346541  19.5134        287
 3.50   0.0000   1165.1395   1299.8351     118921.1      43.5214 -78.19     2.141     2.108      2.083   0.02345745  15.3619        288
 3.50   0.0000   1129.9851    183.6115     41932.06      43.5214  -6.31     1.968     1.954      1.959   0.02345215  16.4936        289
 3.53   0.0000   1157.8691    236.5205     18222.38      43.5214 -59.07     1.775     1.768      1.959   0.02343887  17.3985        290
 5.31   0.0000   1161.7438    887.7606     2365.059      43.5214 -40.77     1.157     1.096      2.017   0.02345745  19.6154        291
 4.11   0.0000   1151.2296     99.5155     4399.851      43.5214   1.70     1.475     1.409      1.945    0.0234548  18.9414        292
 6.72   0.0000   1131.0312    359.2770     847.6385      43.5214  79.06     0.733     0.682      1.941   0.02345215  20.7295        293
 3.50   0.0000   1079.9672    512.2063      84755.1      43.5214  74.02     2.099     2.081      2.041   0.02345745  15.7296        294
 4.04   0.0000   1095.4258   1526.6967     3143.536      43.5214  64.24     1.332     1.261      2.056   0.02344684  19.3065        295
 7.24   0.0000   1086.1484   1452.8627     975.6082      43.5214  46.36     0.838     0.678      2.213   0.02344684  20.5768        296
 7.41   0.0000   1090.0991    782.8873     67486.67      43.5214  45.01     1.234     0.538      3.723    0.0234309  15.9770        297
 5.92   0.0000   1094.6758   1136.2837     937.8649      43.5214  42.84     0.939     0.754      1.987   0.02343887  20.6196        298
 7.13   0.0000    978.4573    452.7135      1296.81      43.5214 -88.97     0.999     0.961      2.127   0.02344418  20.2678        299
 7.77   0.0000   1088.0132    397.0000     999.2328      43.5214  90.00     0.850     0.289      2.007    0.0234548  20.5508        300
 5.99   0.0000   1065.1993   1563.2179      3350.83      43.5214 -50.91     1.822     1.345      2.996   0.02345215  19.2371        301
 3.50   0.0000    984.8825    558.5286        75171      43.5214  86.99     2.062     2.035      2.005   0.02343621  15.8599        302
 3.50   0.0000   1009.8115    813.7941     43612.83      43.5214 -23.06     1.976     1.963      1.967   0.02343887  16.4510        303
 5.37   0.0000    965.2351    416.4796     1436.219      43.5214   9.67     0.991     0.951      1.943   0.02344949  20.1569        304
 5.22   0.0000    980.8171    797.9382     2989.439      43.5214 -22.95     1.473     1.417      2.294   0.02345215  19.3610        305
 3.50   0.0000   1040.2435    633.1321     103417.5      43.5214 -86.88     2.148     2.116      2.068   0.02345215  15.5135        306
 3.50   0.0000   1038.7074    525.4634     25085.65      43.5214 -89.92     1.895     1.851      1.969   0.02344418  17.0514        307
 4.72   0.0000   1030.4277    302.7162     5361.921      43.5214  61.98     2.411     1.679      2.633   0.02345215  18.7267        308
 5.83   0.0000    986.6929    454.0457     4273.458      43.5214  71.21     1.721     1.537      2.570   0.02343356  18.9731        309
 8.75   0.0000   1014.5078    453.4610     794.3391      43.5214 -62.89     0.500     0.498      1.855   0.02344418  20.8000        310
 6.43   0.0000    998.0614    233.3179     753.3766      43.5214  83.83     0.736     0.671      2.287   0.02343887  20.8575        311
 3.50   0.0000   1025.7098   1380.0499     52502.18      43.5214  87.42     2.054     1.952      2.097   0.02344418  16.2496        312
 3.80   0.0000   1011.3396    344.7471     8183.103      43.5214 -55.24     1.591     1.561      2.024   0.02344684  18.2677        313
 8.38   0.0000   1011.2415    267.9928     1044.641      43.5214   0.33     0.699     0.428      1.905   0.02346011  20.5026        314
 4.30   0.0000    999.9335   1273.7820     2612.865      43.5214 -27.04     1.275     1.172      1.999   0.02345745  19.5072        315
 4.10   0.0000   1001.6805    542.7173     8552.295      43.5214  12.75     1.658     1.575      1.960   0.02343887  18.2198        316
