#   1 KRON_RADIUS            Kron apertures in units of A or B                         
#   2 MAGERR_APER            RMS error vector for fixed aperture mag.                   [mag]
#   3 Y_IMAGE                Object position along y                                    [pixel]
#   4 X_IMAGE                Object position along x                                    [pixel]
#   5 FLUX_APER              Flux vector within fixed circular aperture(s)              [count]
#   6 THRESHOLD              Detection threshold above background                       [count]
#   7 THETA_IMAGE            Position angle (CCW/x)                                     [deg]
#   8 A_IMAGE                Profile RMS along major axis                               [pixel]
#   9 B_IMAGE                Profile RMS along minor axis                               [pixel]
#  10 FLUX_RADIUS            Fraction-of-light radii                                    [pixel]
#  11 FLUXERR_APER           RMS error vector for aperture flux(es)                     [count]
#  12 MAG_APER               Fixed aperture magnitude vector                            [mag]
#  13 NUMBER                 Running object number                                     
 4.23   0.0000     53.2652     63.6543     80688.63      43.5214   3.17     5.181     4.630      3.533  0.006733687  15.7830          1
 3.95   0.0000     16.5149    985.0804     13462.27      43.5214 -88.61     4.203     1.941      2.983    0.0067314  17.7272          2
 4.06   0.0000     18.0504     91.3141     11995.76      43.5214   0.42     1.768     1.716      2.071  0.006732925  17.8524          3
 3.50   0.0000     14.6167   1445.7477        28245      43.5214 -47.82     1.890     1.819      2.101   0.00673826  16.9226          4
 8.12   0.0000     10.2946   1183.6542     621.0764      43.5214  42.42     0.565     0.339      2.157    0.0067314  21.0671          5
 7.36   0.0000      4.2259    145.0241     567.0228      43.5214  89.83     0.957     0.768      2.944  0.006034885  21.1660          6
 6.64   0.0000     17.2495    384.5071     1403.331      43.5214  19.99     0.993     0.952      2.096  0.006730637  20.1821          7
 5.14   0.0000     24.7971    367.2085     2566.178      43.5214  13.81     1.305     1.234      2.031  0.006733687  19.5268          8
 3.50   0.0000     59.7850   1078.4766       107492      43.5214  77.02     2.287     2.159      2.150  0.006740545  15.4716          9
 8.57   0.0000     23.7800    383.3999      1550.88      43.5214 -71.85     0.755     0.452      2.167  0.006735974  20.0736         10
 6.41   0.0000     33.9023   1110.1802     1223.046      43.5214  68.24     1.657     0.778      2.218  0.006732925  20.3314         11
 7.88   0.0000     33.3076    326.9492     996.3137      43.5214  -6.92     0.747     0.677      2.260  0.006732162  20.5540         12
 5.98   0.0000     37.8655   1521.1591     774.1097      43.5214  46.72     0.834     0.669      2.209  0.006735974  20.8280         13
 7.05   0.0000     38.8750   1170.6508     835.9016      43.5214 -19.52     0.923     0.691      2.083    0.0067314  20.7446         14
 5.87   0.0000     42.4605    915.4996     925.5895      43.5214 -77.10     0.913     0.907      2.002  0.006730637  20.6340         15
 3.50   0.0000     80.1536    537.6561     102765.4      43.5214 -59.56     2.145     2.122      2.049  0.006735212  15.5204         16
 9.02   0.0000     44.6655    440.6699     830.5243      43.5214 -45.19     0.576     0.334      2.046  0.006732162  20.7516         17
 4.26   0.0000     75.2162    128.0142     4918.406      43.5214  -5.75     1.516     1.469      2.185  0.006735974  18.8204         18
 6.64   0.0000     82.2787    421.5101     1087.975      43.5214 -15.66     0.994     0.986      2.328  0.006730637  20.4585         19
 3.50   0.0000    121.8120    789.2006     149785.2      43.5214 -62.81     2.230     2.179      2.081  0.006735974  15.1113         20
 6.02   0.0000     90.7295    376.9918     2123.751      43.5214   4.47     1.628     1.442      2.706  0.006739022  19.7322         21
 4.42   0.0000     96.6151     56.2576     7333.667      43.5214 -38.95     1.639     1.566      2.042  0.006736736  18.3867         22
 6.10   0.0000     98.0585    452.9797     1647.937      43.5214 -14.82     1.454     1.005      2.464   0.00673826  20.0076         23
 7.39   0.0000     91.4945    495.9650      638.337      43.5214  -1.40     0.788     0.500      2.086    0.0067314  21.0374         24
 3.50   0.0000    162.2989   1468.3301     89221.79      43.5214 -48.48     2.111     2.074      2.091  0.006732162  15.6738         25
 6.85   0.0000    131.2865    418.0175       545.02      43.5214   5.64     0.729     0.681      2.210  0.006735212  21.2090         26
 3.55   0.0000    170.2996    877.3505     23996.23      43.5214  -8.96     1.882     1.865      2.033  0.006726822  17.0996         27
 8.52   0.0000    151.4999   1280.4825     498.7332      43.5214 -47.88     0.501     0.498      1.880  0.006727585  21.3053         28
 5.51   0.0000    164.9741   1445.6677     2105.354      43.5214  17.35     1.303     1.186      2.128  0.006736736  19.7417         29
 4.82   0.0000    166.8505    104.4303     1618.916      43.5214 -46.35     1.196     1.124      1.968   0.00673826  20.0269         30
 6.42   0.0000    169.3397   1368.8977     774.0925      43.5214  68.06     0.910     0.689      2.152  0.006730637  20.8280         31
 7.68   0.0000    180.3316    574.9897     1023.371      43.5214  53.18     1.039     0.643      2.084  0.006739784  20.5249         32
 7.49   0.0000    186.6387   1354.8976     881.3406      43.5214  75.59     1.045     0.753      2.469  0.006729874  20.6871         33
 5.30   0.0000    192.6023   1350.5554     2707.137      43.5214 -19.15     1.368     1.305      2.032  0.006739784  19.4687         34
 4.77   0.0000    210.7202    827.6749     10154.75      43.5214  -5.78     3.810     2.091      2.869  0.006732925  18.0333         35
 4.14   0.0000    206.7225    549.0807     5274.586      43.5214   3.37     1.545     1.484      2.085  0.006733687  18.7445         36
 4.19   0.0000    212.1664   1306.1005     5216.294      43.5214 -64.54     1.516     1.487      2.098  0.006728348  18.7566         37
 5.52   0.0000    230.1494    562.2775     8389.909      43.5214 -37.31     3.231     3.004      4.283    0.0067314  18.2406         38
 5.76   0.0000    210.8939    684.8484     1336.357      43.5214 -66.39     1.218     1.115      2.166  0.006730637  20.2352         39
 3.50   0.0000    259.7588    997.4791       263314      43.5214 -48.81     2.331     2.263      2.063  0.006734449  14.4988         40
 3.92   0.0000    223.9121   1226.0618     6191.251      43.5214  25.89     1.523     1.479      2.102  0.006732162  18.5706         41
 4.86   0.0000    222.6267    774.9695     2161.303      43.5214  81.57     1.224     1.191      2.031  0.006736736  19.7132         42
 3.50   0.0000    265.9002     67.6173     192834.7      43.5214 -49.31     2.268     2.237      2.127  0.006732925  14.8370         43
 5.52   0.0000    243.9732    112.8913     3538.826      43.5214 -88.19     1.951     1.539      2.683  0.006733687  19.1779         44
 4.81   0.0000    255.4885    613.0098     10263.53      43.5214 -41.01     2.436     2.028      2.500  0.006735974  18.0218         45
 6.52   0.0000    239.3535    838.8231     1677.136      43.5214  -5.84     1.203     1.102      2.164  0.006737498  19.9886         46
 7.18   0.0000    250.5180    107.4840     1323.258      43.5214 -42.78     1.108     0.852      2.242    0.0067314  20.2459         47
 3.50   0.0000    287.5196   1486.4733     51121.85      43.5214 -43.97     2.033     1.992      2.103  0.006732162  16.2785         48
 3.66   0.0000    281.9236   1522.4003     12483.41      43.5214   3.77     1.701     1.668      2.017  0.006736736  17.8092         49
 6.46   0.0000    270.7727   1273.6278     877.6927      43.5214  16.49     1.000     0.849      2.002  0.006737498  20.6916         50
 3.50   0.0000    303.1506    201.7659     40523.17      43.5214 -78.11     1.968     1.942      2.105  0.006736736  16.5307         51
 6.27   0.0000    293.2967   1475.8354     1512.152      43.5214 -33.66     1.250     1.086      1.993  0.006729111  20.1010         52
 4.64   0.0000    302.2875    563.6751     2400.872      43.5214  31.81     1.325     1.283      2.073  0.006730637  19.5991         53
 3.50   0.0000    322.0853    697.3419     28167.51      43.5214   1.78     1.882     1.848      1.993  0.006732925  16.9256         54
 7.64   0.0000    308.7069     85.2985     990.7567      43.5214  45.78     0.969     0.767      2.208  0.006729874  20.5601         55
 6.05   0.0000    321.9905    641.4783     2210.036      43.5214 -64.00     1.799     1.232      2.877  0.006737498  19.6890         56
 5.16   0.0000    327.5369    595.4523     5445.947      43.5214 -52.10     1.728     1.694      2.389  0.006733687  18.7098         57
 6.07   0.0000    329.2517   1546.0168     925.2855      43.5214 -87.78     0.913     0.756      2.220   0.00673826  20.6343         58
 5.83   0.0000    332.2679     93.4347     1262.654      43.5214  20.40     0.992     0.948      1.988  0.006736736  20.2968         59
 4.78   0.0000    350.1319     54.7084     2661.487      43.5214  -8.51     1.366     1.298      2.024    0.0067314  19.4872         60
 3.50   0.0000    368.1670    761.1217     28508.89      43.5214 -26.12     1.940     1.871      2.064  0.006735212  16.9125         61
 4.02   0.0000    361.1491   1500.4037     5168.872      43.5214 -15.08     1.586     1.464      2.131  0.006740545  18.7665         62
 3.50   0.0000    395.2009    231.4691     117579.4      43.5214 -63.05     2.184     2.143      2.051  0.006739022  15.3742         63
 5.78   0.0000    360.5269   1034.0070     1396.975      43.5214  -1.40     1.111     0.957      2.129  0.006739022  20.1870         64
 6.91   0.0000    375.4792    754.0627      1450.35      43.5214  56.22     1.715     0.961      1.674    0.0067314  20.1463         65
 7.68   0.0000    370.3091     71.9499     818.1514      43.5214 -10.89     0.743     0.672      2.156  0.006733687  20.7679         66
 6.47   0.0000    373.4826   1083.8826     1024.512      43.5214 -17.84     1.100     0.990      2.074    0.0067314  20.5237         67
 6.41   0.0001    380.6161      1.4882     57.89966      43.5214 -89.79     1.601     0.500      3.001   0.00514693  23.6433         68
 3.50   0.0000    397.0519   1461.2017     19140.18      43.5214 -44.85     1.804     1.797      2.096  0.006740545  17.3451         69
 3.50   0.0000    398.1799    354.6261      23234.1      43.5214 -13.53     1.890     1.844      2.051  0.006735974  17.1347         70
 8.09   0.0000    375.6552     87.2937     635.5598      43.5214  47.61     0.564     0.339      1.945  0.006732162  21.0421         71
 6.71   0.0000    380.1594    125.8447      1024.02      43.5214  44.65     0.818     0.680      2.104  0.006737498  20.5242         72
 4.22   0.0000    393.8183   1088.7736     5086.122      43.5214 -35.06     1.516     1.449      1.973  0.006736736  18.7840         73
 8.89   0.0000    382.4900     67.5055     734.7621      43.5214 -44.69     0.503     0.497      2.111  0.006729111  20.8846         74
 8.07   0.0000    388.6902   1195.3347     487.1758      43.5214  43.77     0.567     0.338      2.333  0.006733687  21.3308         75
 6.14   0.0000    412.0432      1.7727     154.5251      43.5214  90.00     2.505     0.701      4.328  0.005254529  22.5775         76
 7.90   0.0000    396.8768    626.5975     2086.162      43.5214 -73.71     1.239     0.985      3.092  0.006736736  19.7516         77
 8.16   0.0000    403.6928    526.4366     1143.707      43.5214  81.17     1.023     0.476      2.159  0.006732162  20.4042         78
 7.54   0.0000    407.0518    282.4902     633.1733      43.5214 -88.59     0.787     0.500      1.975  0.006733687  21.0462         79
 3.50   0.0000    437.9478    252.1072     42717.12      43.5214 -87.21     2.006     1.974      2.118  0.006732162  16.4735         80
 3.50   0.0000    461.0704    807.6703     312498.9      43.5214 -68.51     2.341     2.304      2.063  0.006728348  14.3129         81
 5.83   0.0000    420.9021    159.0900     2430.837      43.5214  37.62     1.694     1.421      2.325  0.006729111  19.5856         82
 7.67   0.0000    419.5386   1580.4929     614.8603      43.5214  40.47     0.504     0.495      2.169  0.006732162  21.0781         83
 4.17   0.0000    432.9492   1422.0629     3818.162      43.5214   6.85     1.427     1.396      2.044  0.006733687  19.0954         84
 6.72   0.0000    426.5748   1179.2787     1382.635      43.5214  26.35     1.188     0.957      2.186  0.006735974  20.1982         85
 6.42   0.0000    426.8329    433.0970      97254.4      43.5214  -3.27     2.183     0.735      4.284  0.006730637  15.5802         86
 5.15   0.0000    434.2586    151.1154     1444.197      43.5214 -20.05     1.138     1.034      1.999  0.006732925  20.1509         87
 3.88   0.0000    450.3392     21.3603     15119.32      43.5214 -27.47     1.777     1.769      2.074  0.006736736  17.6012         88
 5.07   0.0000    467.7993    850.4810     11463.13      43.5214  22.59     7.403     2.054      5.003  0.006736736  17.9017         89
 9.05   0.0000    430.6650    719.3185     1355.642      43.5214  45.76     0.572     0.336      2.141  0.006730637  20.2196         90
 4.48   0.0000    440.0043    305.8401     1698.172      43.5214  22.45     1.160     1.136      1.928  0.006736736  19.9750         91
 5.42   0.0000    445.2589    122.3780     2427.737      43.5214 -23.52     1.401     1.309      2.236   0.00673826  19.5870         92
 3.80   0.0000    457.8408     34.5939     17248.67      43.5214 -30.83     1.779     1.767      2.006  0.006737498  17.4581         93
 8.05   0.0000    443.6886    655.3237     717.0665      43.5214  44.36     0.563     0.340      2.133  0.006729874  20.9111         94
 4.32   0.0000    463.6414    468.6490     5323.792      43.5214  70.99     1.619     1.558      2.111   0.00673826  18.7344         95
 6.24   0.0000    452.9206   1533.0249     857.2289      43.5214 -31.03     0.792     0.774      2.201  0.006735974  20.7173         96
 5.22   0.0000    460.9918   1096.1410     1895.634      43.5214  47.71     1.191     1.080      2.161  0.006740545  19.8556         97
 4.60   0.0000    471.3581    254.2742     4597.024      43.5214 -79.51     1.510     1.439      2.059  0.006734449  18.8938         98
 4.03   0.0000    472.1380    734.9207     6510.259      43.5214  75.27     1.566     1.511      2.085    0.0067314  18.5160         99
 7.71   0.0000    461.8358    724.7247     1010.178      43.5214 -20.12     0.949     0.683      2.271  0.006734449  20.5390        100
 3.70   0.0000    477.9271    923.0840     8918.647      43.5214 -28.67     1.679     1.612      2.031    0.0067314  18.1743        101
 4.34   0.0000    477.2791   1276.4363     3214.727      43.5214 -44.53     1.334     0.920      2.964  0.006734449  19.2821        102
 5.84   0.0000    488.9431    839.6031      1738.62      43.5214  87.10     2.059     0.959      2.707  0.006740545  19.9495        103
 4.14   0.0000    484.0388   1070.6680     3710.258      43.5214 -80.82     1.429     1.400      2.022  0.006735974  19.1265        104
 7.10   0.0000    475.9789   1168.4807     454.2285      43.5214  89.68     0.781     0.500      1.967  0.006736736  21.4068        105
 5.40   0.0000    496.2654     82.9187     6059.583      43.5214  66.13     2.311     2.046      3.092  0.006730637  18.5939        106
 6.87   0.0000    478.8629    682.8434     876.4062      43.5214 -46.10     0.819     0.679      1.970  0.006734449  20.6932        107
 5.12   0.0000    495.7248   1186.8407     5876.172      43.5214 -15.71     2.996     1.931      3.313  0.006734449  18.6273        108
 5.26   0.0000    504.0796    762.8668     3294.753      43.5214 -10.71     1.688     1.646      2.485  0.006730637  19.2554        109
 4.77   0.0000    502.0138    863.8067     2136.951      43.5214  64.62     1.201     1.192      2.105  0.006732162  19.7255        110
 4.57   0.0000    515.3623   1461.0657     6981.971      43.5214  23.93     4.115     1.649      2.938  0.006736736  18.4401        111
 6.08   0.0000    498.0054    366.2516     919.7504      43.5214   0.37     0.926     0.749      2.181  0.006740545  20.6408        112
 6.08   0.0000    509.9191    164.8152     2163.955      43.5214  -5.95     1.820     1.073      2.833  0.006737498  19.7119        113
 4.83   0.0000    513.8598   1179.1876     2277.215      43.5214  24.06     1.285     1.178      2.096  0.006737498  19.6565        114
 5.52   0.0000    519.1540    641.9484     1476.318      43.5214  22.36     1.200     1.120      2.196  0.006739022  20.1270        115
 6.45   0.0000    518.1915   1519.1722     733.9041      43.5214  45.74     0.761     0.567      2.278  0.006736736  20.8859        116
 4.09   0.0000    540.2067    999.9378     5238.465      43.5214  61.15     1.534     1.490      2.100  0.006739784  18.7520        117
 6.53   0.0000    536.3547    404.5305     1050.745      43.5214  38.93     1.195     0.786      1.995  0.006733687  20.4963        118
 3.90   0.0000    558.9035   1041.7982     7060.496      43.5214   6.20     1.633     1.563      2.036  0.006735212  18.4279        119
 4.74   0.0000    571.3472     45.9143     4888.153      43.5214  46.17     2.084     1.522      2.144  0.006732162  18.8271        120
 5.98   0.0000    555.8228    778.8107     659.1948      43.5214  44.57     0.756     0.567      2.055  0.006735212  21.0025        121
 3.50   0.0000    580.7163    144.9663     28083.91      43.5214  83.47     1.885     1.868      2.078  0.006735974  16.9289        122
 4.85   0.0000    571.3085   1447.7944     4378.015      43.5214  19.43     2.258     1.637      2.603  0.006732925  18.9468        123
 5.88   0.0000    565.0881    139.5546     1284.726      43.5214 -69.74     1.052     0.977      1.883  0.006732925  20.2780        124
 3.50   0.0000    582.1971    319.2584     27602.65      43.5214   7.31     1.887     1.830      2.023  0.006740545  16.9476        125
 4.29   0.0000    596.7602    782.6867     13638.27      43.5214 -62.08     3.302     3.182      3.523  0.006735212  17.7131        126
 5.97   0.0000    576.2225   1001.8235      1557.88      43.5214  40.80     1.216     1.076      2.317  0.006736736  20.0687        127
 4.64   0.0000    584.5398     76.0209      2042.03      43.5214  -0.84     1.205     1.138      2.131   0.00673826  19.7748        128
 4.19   0.0000   1001.5298   1555.4829     3493.137      43.5214  54.97     1.346     1.330      2.050  0.006730637  19.1920        129
 4.71   0.0000   1597.6036    654.7847     588.1623      43.5214   1.75     1.659     1.434      2.368  0.005791792  21.1263        130
 5.16   0.0000   1594.7568    374.1190     950.7336      43.5214  42.74     1.307     1.027      1.580  0.006508043  20.6049        131
 4.05   0.0000   1584.9181   1108.9316     4075.754      43.5214 -15.59     1.433     1.357      2.003  0.006732162  19.0245        132
 6.78   0.0000   1585.9497   1069.5099     736.5756      43.5214 -88.96     0.783     0.500      2.195  0.006732925  20.8820        133
 3.60   0.0000   1541.8564    135.1745     10618.31      43.5214  54.68     1.663     1.623      2.026  0.006737498  17.9849        134
 8.74   0.0000   1519.3268     85.3294     638.2701      43.5214 -44.88     0.573     0.336      1.664  0.006729874  21.0375        135
 4.79   0.0000   1514.6519    483.6263      1374.42      43.5214 -43.74     1.049     0.951      2.086   0.00673826  20.2047        136
 4.90   0.0000    912.4185   1001.2366     1425.469      43.5214  73.44     0.989     0.957      2.025  0.006737498  20.1651        137
 3.50   0.0000    900.4997    302.8331      19185.4      43.5214 -64.19     1.794     1.787      2.070  0.006729111  17.3426        138
 4.92   0.0000    896.1861    538.5018     3842.827      43.5214   6.05     1.942     1.608      2.125  0.006733687  19.0884        139
 5.31   0.0000    893.7880   1426.2821      925.715      43.5214 -16.60     0.974     0.854      2.002  0.006737498  20.6338        140
 3.50   0.0000    880.2065   1592.6320     183838.1      43.5214 -83.52     2.300     2.188      1.999   0.00673826  14.8889        141
 6.04   0.0000    888.8303    325.8213     2293.756      43.5214  17.19     1.767     1.100      2.164  0.006735974  19.6486        142
 8.02   0.0000    888.6788    681.3232     681.4222      43.5214  44.90     0.568     0.338      2.008  0.006733687  20.9665        143
 4.51   0.0000    885.7850   1500.2664     2522.901      43.5214  10.00     1.303     1.227      2.068  0.006739022  19.5452        144
 7.04   0.0000    885.0953    339.2578     1296.797      43.5214  -2.69     1.149     0.882      2.206  0.006730637  20.2678        145
 4.70   0.0000    877.6797    961.0908     1586.073      43.5214  27.86     1.126     1.034      2.117  0.006732162  20.0492        146
 6.46   0.0000    876.3213    541.9203     894.9301      43.5214  -7.28     0.737     0.667      1.936  0.006732162  20.6705        147
 4.13   0.0000    869.4717   1103.7170     7451.058      43.5214 -55.22     1.983     1.793      2.160  0.006730637  18.3695        148
 4.96   0.0000    867.9886    939.9118     2849.817      43.5214  41.19     1.806     1.355      2.175  0.006735974  19.4130        149
 6.15   0.0000    869.3575    643.8528      942.321      43.5214  68.50     0.904     0.687      1.984  0.006736736  20.6145        150
 8.15   0.0000    860.4996   1554.4683     512.1005      43.5214  48.21     0.504     0.495      2.008  0.006732925  21.2766        151
 4.53   0.0000    858.5098   1339.6924     1968.415      43.5214 -89.55     1.308     1.113      2.164  0.006729874  19.8147        152
 9.07   0.0000    855.5103    545.4817     711.0598      43.5214 -46.32     0.502     0.497      2.157    0.0067314  20.9202        153
 4.16   0.0000    844.9837   1063.9657     1610.312      43.5214   1.03     1.169     1.133      2.109  0.006736736  20.0327        154
 4.40   0.0000    843.3248   1106.2646       3062.5      43.5214  40.34     1.667     1.341      2.036  0.006730637  19.3348        155
 4.56   0.0000    836.6466    298.8450     4204.022      43.5214  11.92     1.467     1.396      2.015   0.00673826  18.9908        156
 6.83   0.0000    836.6003   1520.7371     759.9034      43.5214  18.11     0.733     0.456      2.010  0.006740545  20.8481        157
 5.73   0.0000    835.6805    819.1954     1064.627      43.5214 -72.93     0.960     0.861      2.038  0.006736736  20.4820        158
 3.50   0.0000    822.9877    654.4249     19530.28      43.5214  74.96     1.838     1.773      1.975  0.006735212  17.3232        159
 7.91   0.0000    819.4906   1398.4888     553.0151      43.5214  46.70     0.500     0.500      2.149  0.006729874  21.1932        160
 3.50   0.0000    803.0379   1378.7590     17333.34      43.5214 -72.46     1.796     1.752      2.003   0.00673826  17.4528        161
 3.50   0.0000    798.4418    695.7374     47196.35      43.5214 -88.12     2.639     1.966      2.666  0.006735212  16.3652        162
 4.17   0.0000    800.7010     41.1932     8442.548      43.5214 -23.53     1.671     1.577      2.119  0.006733687  18.2338        163
 4.28   0.0000    774.2634   1427.3890     7176.681      43.5214  89.63     2.902     1.909      3.053  0.006740545  18.4102        164
 7.20   0.0000    768.0129    140.0102     911.0204      43.5214  44.98     0.806     0.795      2.127  0.006733687  20.6512        165
 4.24   0.0000    742.8162    556.3451     4389.429      43.5214 -57.68     1.449     1.420      2.002   0.00673826  18.9440        166
 4.32   0.0000    738.1102   1158.1116     1761.383      43.5214  47.36     1.221     1.121      2.144  0.006729111  19.9354        167
 5.08   0.0000    736.0913    649.8519     1886.832      43.5214 -38.54     1.206     1.123      2.024  0.006732925  19.8607        168
 3.50   0.0000    726.6004    848.5243     154524.1      43.5214 -72.04     2.212     2.178      2.053  0.006737498  15.0775        169
 3.87   0.0000    727.4650   1178.3309     3263.697      43.5214 -10.14     1.394     1.328      2.024  0.006732162  19.2657        170
 5.23   0.0000    721.4345   1395.1035     1186.309      43.5214  16.01     1.086     0.953      1.948  0.006730637  20.3645        171
 3.96   0.0000    715.8315    808.4100     4036.621      43.5214  51.69     1.425     1.393      2.010  0.006736736  19.0350        172
 3.99   0.0000    708.9626   1163.8940     4098.595      43.5214  20.90     1.464     1.393      2.023  0.006730637  19.0184        173
 4.42   0.0000    704.4229   1339.0634     4422.813      43.5214 -25.11     1.700     1.462      2.254   0.00673826  18.9358        174
 3.68   0.0000    702.8209    952.5522     7164.758      43.5214  -9.41     1.630     1.577      2.013  0.006737498  18.4120        175
 6.02   0.0000    699.1675    582.7174     1528.946      43.5214   5.06     1.844     0.873      2.161  0.006735212  20.0890        176
 5.87   0.0000    691.6353   1213.6743     2506.548      43.5214  87.83     1.432     1.241      2.667  0.006734449  19.5523        177
 6.00   0.0000    686.6937   1213.8435     1258.467      43.5214 -47.21     1.217     0.958      1.988  0.006729874  20.3004        178
 4.18   0.0000    685.6500    644.3535     6032.391      43.5214 -73.12     1.594     1.581      2.020   0.00673826  18.5988        179
 5.68   0.0000    687.6556    130.9231     985.9366      43.5214  76.35     0.983     0.752      2.153  0.006733687  20.5654        180
 7.44   0.0000    668.9944   1221.5293     795.4796      43.5214  -0.05     0.827     0.706      2.459   0.00673826  20.7984        181
 3.50   0.0000    648.2678   1464.4448     154525.3      43.5214 -76.52     2.214     2.143      2.066  0.006734449  15.0775        182
 5.07   0.0000    654.6734    870.9016     1848.633      43.5214  21.01     1.193     1.057      2.095  0.006730637  19.8829        183
 6.84   0.0000    645.7944    653.0030     1055.539      43.5214 -88.71     0.912     0.756      2.090  0.006733687  20.4913        184
 7.26   0.0000    641.1874    276.8223     733.7822      43.5214 -45.77     0.755     0.569      2.187  0.006734449  20.8861        185
 4.14   0.0000    630.8300    806.1274     2011.742      43.5214 -34.12     1.204     1.125      2.137  0.006735974  19.7911        186
 4.30   0.0000    623.4095   1581.5348     3228.062      43.5214  49.39     1.346     1.338      2.097  0.006740545  19.2776        187
 7.18   0.0000    618.1836   1151.1306     1231.871      43.5214 -37.45     0.897     0.874      2.331  0.006739784  20.3236        188
 8.09   0.0000    609.5256    945.4929     762.6826      43.5214  42.34     0.503     0.496      2.101  0.006732162  20.8441        189
 3.50   0.0000   1563.6936    304.2686     133233.5      43.5214 -77.52     2.157     2.117      2.045  0.006732162  15.2385        190
 4.14   0.0000   1566.7208     22.0779     6336.086      43.5214  75.11     1.574     1.553      1.980  0.006732925  18.5454        191
 3.94   0.0000   1542.6152    654.7387     7360.664      43.5214  29.79     1.579     1.560      2.017  0.006735974  18.3827        192
 3.50   0.0000   1558.0082    487.7251       133475      43.5214 -78.65     2.166     2.125      2.096  0.006739022  15.2365        193
 4.16   0.0000   1570.5596     92.7663      5229.72      43.5214  -2.72     1.453     1.398      1.994  0.006739022  18.7538        194
 4.48   0.0000   1546.1006    863.5362     2828.156      43.5214  60.15     1.564     1.328      2.063  0.006732925  19.4212        195
 4.36   0.0000   1561.3612    861.4875     3079.725      43.5214  19.18     1.352     1.338      1.953  0.006734449  19.3287        196
 4.38   0.0000   1565.7378    784.6730      3904.64      43.5214 -79.11     1.769     1.443      2.200  0.006732925  19.0710        197
 5.18   0.0000   1550.8444   1221.8484     1256.052      43.5214  42.51     1.082     0.925      2.211  0.006737498  20.3025        198
 3.57   0.0000   1552.6281    682.2971     50752.32      43.5214 -26.44     4.582     3.959      3.275    0.0067314  16.2864        199
 7.80   0.0000   1535.9841   1428.9976      1021.92      43.5214 -45.55     0.927     0.527      2.798  0.006734449  20.5265        200
 7.00   0.0000   1532.4937    415.7445     1356.657      43.5214 -84.33     1.017     0.979      2.222  0.006732162  20.2188        201
 7.59   0.0000   1519.9943   1100.7047     1029.157      43.5214  89.07     0.749     0.679      2.473  0.006734449  20.5188        202
 4.09   0.0000    928.4031   1322.5200     3078.353      43.5214 -44.27     1.357     1.342      2.029  0.006737498  19.3292        203
 3.50   0.0000   1514.9222    392.7349     23126.06      43.5214  66.54     1.807     1.797      1.992    0.0067314  17.1397        204
 6.00   0.0000   1515.4878   1547.1486     1266.699      43.5214  74.03     1.048     0.871      2.116  0.006732162  20.2933        205
 3.50   0.0000   1507.1836    269.3994     80555.86      43.5214 -82.06     2.049     2.030      2.031  0.006734449  15.7848        206
 5.55   0.0000   1498.4597    844.2532     726.6564      43.5214 -25.00     0.883     0.757      2.215  0.006733687  20.8967        207
 4.56   0.0000   1504.1298    723.3583     2384.211      43.5214  14.84     1.297     1.162      2.120  0.006735974  19.6066        208
 3.97   0.0000    939.1798   1067.2053     5841.959      43.5214 -23.40     1.522     1.452      2.083  0.006735212  18.6336        209
 6.96   0.0000   1488.2819     78.0035     975.0526      43.5214  -1.74     0.735     0.681      2.189  0.006735974  20.5774        210
 3.92   0.0000    912.8765    838.6033     2594.522      43.5214  -0.15     1.305     1.218      1.934  0.006736736  19.5149        211
 5.67   0.0000    950.7991    654.3572     2218.972      43.5214  65.98     1.507     1.354      2.320  0.006739022  19.6846        212
 5.84   0.0000    947.8477    445.1833     1181.381      43.5214  47.70     0.889     0.856      2.095  0.006737498  20.3690        213
 5.26   0.0000   1065.7639   1597.2657     311.7438      43.5214 -14.20     0.952     0.861      1.110   0.00589546  21.8155        214
 7.26   0.0000    938.5413    516.3163     1892.122      43.5214  57.72     1.300     0.997      2.528  0.006732162  19.8576        215
 7.66   0.0000   1474.9158    998.3757     1585.619      43.5214 -14.25     1.054     0.754      2.772  0.006735974  20.0495        216
 6.42   0.0000   1482.4310    575.2145     1349.911      43.5214 -30.81     1.204     0.969      2.583   0.00673826  20.2242        217
 5.80   0.0000   1438.6464   1271.3108      1283.69      43.5214 -45.87     0.991     0.878      2.079  0.006732162  20.2788        218
 5.08   0.0000   1072.1349   1219.1719     5582.389      43.5214 -73.97     2.049     1.696      2.356  0.006735974  18.6829        219
 4.97   0.0000   1079.4351    330.1989      1527.78      43.5214   1.47     1.167     0.990      1.947  0.006734449  20.0898        220
 3.95   0.0000   1415.4110   1386.6447     4844.018      43.5214  75.55     1.498     1.406      1.984  0.006736736  18.8370        221
 3.55   0.0000   1107.4796    428.0644     20267.99      43.5214  29.41     1.816     1.783      2.037  0.006730637  17.2830        222
 3.50   0.0000   1081.7991   1148.2404     27137.64      43.5214  77.56     1.859     1.838      2.081  0.006737498  16.9661        223
 5.70   0.0000   1066.6768    569.0727     761.6075      43.5214 -72.74     1.032     0.751      2.285  0.006732162  20.8457        224
 6.53   0.0000   1110.7510    479.0507     3402.438      43.5214  19.20     1.749     1.562      2.837  0.006739022  19.2205        225
 3.54   0.0000   1435.3314    224.8159     10716.79      43.5214  21.04     1.687     1.611      2.034  0.006739022  17.9748        226
 6.26   0.0000   1090.9882    468.1736      2164.82      43.5214 -62.75     1.759     1.048      2.932  0.006735974  19.7114        227
 7.39   0.0000   1441.0785   1082.6284      373.042      43.5214  43.16     2.974     0.680      5.790  0.006734449  21.6206        228
 4.76   0.0000   1411.0619    350.0085     1960.411      43.5214  44.81     1.366     1.125      2.088  0.006740545  19.8191        229
 8.08   0.0000   1453.3318    391.6697     644.1448      43.5214  45.06     0.575     0.334      2.158  0.006730637  21.0275        230
 3.54   0.0000   1439.7888    619.2131     7977.863      43.5214 -62.85     1.575     1.554      2.043  0.006734449  18.2953        231
 3.50   0.0000   1393.4050    114.5455     179457.9      43.5214 -80.89     2.215     2.169      2.109  0.006741307  14.9151        232
 6.42   0.0000   1436.1945   1347.1851     803.7219      43.5214  46.04     0.748     0.567      2.305  0.006733687  20.7872        233
 4.63   0.0000   1120.3417    329.8551     6213.771      43.5214  55.81     2.503     1.644      2.376  0.006732925  18.5666        234
 6.70   0.0000   1431.9259    340.6477      1472.92      43.5214  15.34     1.044     0.753      2.345  0.006732925  20.1296        235
 4.82   0.0000   1129.1801    547.4301     1832.871      43.5214  54.92     1.192     1.121      2.000  0.006736736  19.8922        236
 3.50   0.0000   1408.2377    308.3844     7454.153      43.5214  -7.03     1.547     1.510      2.011   0.00673826  18.3690        237
 5.35   0.0000   1400.5464   1031.5027     2301.321      43.5214  31.11     1.429     1.368      1.961  0.006729874  19.6451        238
 3.50   0.0000   1388.6937   1428.5571     20854.01      43.5214  55.76     1.789     1.763      2.015  0.006729874  17.2520        239
 6.79   0.0015   1412.1804      1.3059       3.7844      43.5214 -77.74     1.083     0.409      2.563  0.005078649  26.6050        240
 4.72   0.0000   1406.3345    329.8578     1651.944      43.5214  26.69     1.130     1.025      2.152  0.006732925  20.0050        241
 4.65   0.0000   1330.5002    386.9715     1624.994      43.5214   3.29     1.098     0.952      2.028    0.0067314  20.0229        242
 4.79   0.0000   1259.4657    432.5281     3713.907      43.5214  25.38     1.823     1.760      2.601    0.0067314  19.1254        243
 3.68   0.0000   1278.0730   1331.4478     12336.77      43.5214  82.55     1.714     1.699      1.962  0.006732925  17.8220        244
 3.79   0.0000   1390.4578    713.3802     7445.425      43.5214  43.10     1.588     1.550      2.066   0.00673826  18.3703        245
 5.96   0.0000   1388.9021    806.6555     1182.369      43.5214  13.85     0.984     0.753      2.001  0.006729874  20.3681        246
 4.34   0.0000   1392.2596   1038.8943     5062.221      43.5214   8.71     1.474     1.451      2.101  0.006732925  18.7891        247
 3.53   0.0000   1218.8743   1195.0033     26264.13      43.5214  54.82     1.997     1.952      1.913  0.006739784  17.0016        248
 6.99   0.0000   1291.8092    546.1708     472.8295      43.5214 -44.88     0.757     0.568      1.830  0.006736736  21.3632        249
 3.56   0.0000   1210.6931   1279.0286     27217.42      43.5214  82.87     5.696     3.445      4.386  0.006733687  16.9629        250
 3.82   0.0000   1292.8365    412.6910     2784.735      43.5214 -22.03     1.326     1.267      2.197  0.006732925  19.4380        251
 8.47   0.0000   1262.3208    216.3072     595.0383      43.5214 -45.74     0.560     0.342      2.081  0.006732162  21.1136        252
 8.25   0.0000   1379.3267    319.3086     820.3005      43.5214 -45.93     0.563     0.340      1.809  0.006732162  20.7651        253
 8.27   0.0000   1352.4868    152.2023     1282.561      43.5214 -89.11     1.011     0.738      2.518  0.006734449  20.2798        254
 3.50   0.0000   1372.5312   1019.0457     23928.42      43.5214 -41.64     1.951     1.869      2.031  0.006735212  17.1027        255
 3.50   0.0000   1320.0488    660.0613     74815.62      43.5214  75.91     2.093     2.039      2.074  0.006733687  15.8650        256
 5.87   0.0000   1293.5828    742.1906     3137.287      43.5214 -15.99     1.535     1.440      2.188  0.006733687  19.3086        257
 7.00   0.0000   1346.3284    605.1111     893.7455      43.5214 -68.97     0.936     0.689      2.258  0.006732162  20.6720        258
 3.97   0.0000   1329.8187    655.9049     9171.178      43.5214  67.51     1.921     1.813      2.111  0.006734449  18.1439        259
 4.12   0.0000   1332.9294    107.4837     2531.295      43.5214  -2.81     1.329     1.158      1.905  0.006730637  19.5416        260
 3.50   0.0000   1298.3828    724.9477     414235.7      43.5214 -51.40     2.371     2.297      2.094   0.00673826  14.0069        261
 4.19   0.0000   1304.7047    892.9962     2379.462      43.5214 -75.91     1.297     1.172      2.004  0.006733687  19.6088        262
 4.08   0.0000   1319.2585    264.1429     1779.541      43.5214   6.39     1.181     1.123      2.107  0.006732925  19.9242        263
 4.31   0.0000   1307.5262    669.7034     7815.021      43.5214 -32.49     1.629     1.592      2.008    0.0067314  18.3177        264
 3.65   0.0000   1272.7618    610.0184     31701.18      43.5214 -58.16     4.190     2.580      2.911   0.00673826  16.7973        265
 5.69   0.0000   1299.3568     54.0625      754.204      43.5214 -68.39     0.901     0.697      2.058  0.006735212  20.8563        266
 3.52   0.0000   1291.4148    762.2641     18623.24      43.5214 -23.95     2.297     1.839      1.920  0.006735974  17.3749        267
 3.56   0.0000   1265.4564    807.9594     9590.064      43.5214  -7.96     1.661     1.612      2.026  0.006734449  18.0954        268
 6.36   0.0000   1273.6595    698.0986     820.7819      43.5214  68.67     0.919     0.693      2.270  0.006730637  20.7644        269
 4.97   0.0000   1228.6499   1153.6350     1095.605      43.5214  43.00     0.997     0.872      2.086  0.006737498  20.4509        270
 5.85   0.0000   1262.1962    855.0399         1039      43.5214 -88.04     0.907     0.755      2.194  0.006735974  20.5085        271
 5.76   0.0000   1212.7454   1429.5703      4305.53      43.5214  66.31     2.076     1.803      2.943   0.00673826  18.9649        272
 4.06   0.0000   1237.0374   1553.6448     4723.859      43.5214 -72.17     1.471     1.442      1.976   0.00673826  18.8643        273
 6.33   0.0000   1229.7732    599.1249     2445.153      43.5214 -25.96     1.422     1.267      2.410  0.006735212  19.5792        274
 3.50   0.0000   1234.4055    304.8864     8419.062      43.5214   0.76     1.619     1.566      2.035  0.006735212  18.2368        275
 5.14   0.0000   1237.6368     48.3455     1295.453      43.5214  42.97     1.043     0.951      1.983  0.006736736  20.2689        276
 4.28   0.0000   1207.6377    838.9413      5060.82      43.5214  35.87     1.470     1.451      2.045  0.006736736  18.7894        277
 3.50   0.0000   1214.6141    513.0945     41467.97      43.5214  -0.90     1.943     1.918      2.060  0.006734449  16.5057        278
 4.24   0.0000   1200.8662   1442.2368     2961.423      43.5214 -76.41     1.564     1.485      2.253  0.006735974  19.3712        279
 7.93   0.0000   1204.4742   1217.4802     597.8129      43.5214  43.31     0.502     0.497      1.827  0.006732162  21.1086        280
 5.08   0.0000   1194.9722    124.1294     5027.853      43.5214 -83.39     1.957     1.669      2.512  0.006736736  18.7965        281
 3.91   0.0000   1201.8915    339.0921     4720.505      43.5214  41.67     1.528     1.455      2.063  0.006729111  18.8650        282
 5.34   0.0000   1130.2582    219.7123      1764.83      43.5214  22.28     1.184     1.117      2.018  0.006732925  19.9332        283
 3.50   0.0000   1138.5420    148.1507     77743.69      43.5214  77.75     2.097     2.062      2.033  0.006735212  15.8233        284
 5.95   0.0000   1181.9745    176.1647     847.2264      43.5214   3.89     0.910     0.759      2.076  0.006737498  20.7300        285
 4.90   0.0000   1180.9506    549.4130     1555.476      43.5214  37.05     1.159     1.067      2.062  0.006739022  20.0703        286
 4.68   0.0000   1153.5942   1353.1537      2551.82      43.5214  23.71     1.498     1.327      2.068  0.006739022  19.5329        287
 3.50   0.0000   1165.1395   1299.8351     115538.3      43.5214 -78.19     2.141     2.108      2.094  0.006736736  15.3932        288
 3.50   0.0000   1129.9851    183.6115     43993.66      43.5214  -6.31     1.968     1.954      1.983  0.006735212  16.4415        289
 3.53   0.0000   1157.8691    236.5205     16965.49      43.5214 -59.07     1.775     1.768      1.973    0.0067314  17.4761        290
 5.31   0.0000   1161.7438    887.7606     2154.546      43.5214 -40.77     1.157     1.096      2.043  0.006736736  19.7166        291
 4.11   0.0000   1151.2296     99.5155     4118.831      43.5214   1.70     1.475     1.409      1.991  0.006735974  19.0131        292
 6.72   0.0000   1131.0312    359.2770     811.5459      43.5214  79.06     0.733     0.682      1.995  0.006735212  20.7767        293
 3.50   0.0000   1079.9672    512.2063     80686.25      43.5214  74.02     2.099     2.081      2.065  0.006736736  15.7830        294
 4.04   0.0000   1095.4258   1526.6967     2805.456      43.5214  64.24     1.332     1.261      2.114  0.006733687  19.4300        295
 7.24   0.0000   1086.1484   1452.8627     990.5045      43.5214  46.36     0.838     0.678      2.262  0.006733687  20.5604        296
 7.41   0.0000   1090.0991    782.8873     65178.41      43.5214  45.01     1.234     0.538      3.723  0.006729111  16.0147        297
 5.92   0.0000   1094.6758   1136.2837     881.2736      43.5214  42.84     0.939     0.754      2.061    0.0067314  20.6872        298
 7.13   0.0000    978.4573    452.7135     1088.805      43.5214 -88.97     0.999     0.961      2.156  0.006732925  20.4576        299
 7.77   0.0000   1088.0132    397.0000      793.697      43.5214  90.00     0.850     0.289      2.014  0.006735974  20.8009        300
 5.99   0.0000   1065.1993   1563.2179     3142.193      43.5214 -50.91     1.822     1.345      2.796  0.006735212  19.3069        301
 3.50   0.0000    984.8825    558.5286     72517.37      43.5214  86.99     2.062     2.035      2.023  0.006730637  15.8989        302
 3.50   0.0000   1009.8115    813.7941     45325.77      43.5214 -23.06     1.976     1.963      1.979    0.0067314  16.4091        303
 5.37   0.0000    965.2351    416.4796      1263.31      43.5214   9.67     0.991     0.951      1.947  0.006734449  20.2962        304
 5.22   0.0000    980.8171    797.9382     2949.832      43.5214 -22.95     1.473     1.417      2.316  0.006735212  19.3755        305
 3.50   0.0000   1040.2435    633.1321     101778.6      43.5214 -86.88     2.148     2.116      2.076  0.006735212  15.5309        306
 3.50   0.0000   1038.7074    525.4634     25180.18      43.5214 -89.92     1.895     1.851      2.002  0.006732925  17.0474        307
 4.72   0.0000   1030.4277    302.7162     5189.066      43.5214  61.98     2.411     1.679      2.584  0.006735212  18.7623        308
 5.83   0.0000    986.6929    454.0457     4189.474      43.5214  71.21     1.721     1.537      2.639  0.006729874  18.9946        309
 8.75   0.0000   1014.5078    453.4610     792.2023      43.5214 -62.89     0.500     0.498      1.851  0.006732925  20.8029        310
 6.43   0.0000    998.0614    233.3179      773.299      43.5214  83.83     0.736     0.671      2.398    0.0067314  20.8291        311
 3.50   0.0000   1025.7098   1380.0499      50242.3      43.5214  87.42     2.054     1.952      2.125  0.006732925  16.2973        312
 3.80   0.0000   1011.3396    344.7471     7616.595      43.5214 -55.24     1.591     1.561      2.061  0.006733687  18.3456        313
 8.38   0.0000   1011.2415    267.9928     857.1107      43.5214   0.33     0.699     0.428      1.793  0.006737498  20.7174        314
 4.30   0.0000    999.9335   1273.7820     2547.265      43.5214 -27.04     1.275     1.172      2.049  0.006736736  19.5348        315
 4.10   0.0000   1001.6805    542.7173     8080.567      43.5214  12.75     1.658     1.575      1.990    0.0067314  18.2814        316
