#   1 KRON_RADIUS            Kron apertures in units of A or B                         
#   2 MAGERR_APER            RMS error vector for fixed aperture mag.                   [mag]
#   3 Y_IMAGE                Object position along y                                    [pixel]
#   4 X_IMAGE                Object position along x                                    [pixel]
#   5 FLUX_APER              Flux vector within fixed circular aperture(s)              [count]
#   6 THRESHOLD              Detection threshold above background                       [count]
#   7 THETA_IMAGE            Position angle (CCW/x)                                     [deg]
#   8 A_IMAGE                Profile RMS along major axis                               [pixel]
#   9 B_IMAGE                Profile RMS along minor axis                               [pixel]
#  10 FLUX_RADIUS            Fraction-of-light radii                                    [pixel]
#  11 FLUXERR_APER           RMS error vector for aperture flux(es)                     [count]
#  12 MAG_APER               Fixed aperture magnitude vector                            [mag]
#  13 NUMBER                 Running object number                                     
 4.23   0.0000     53.2652     63.6543     61767.56      43.5214   3.17     5.181     4.630      3.482   0.01084251  16.0731          1
 3.95   0.0000     16.5149    985.0804     9679.799      43.5214 -88.61     4.203     1.941      2.937   0.01083882  18.0853          2
 4.06   0.0000     18.0504     91.3141     8080.434      43.5214   0.42     1.768     1.716      2.216   0.01084128  18.2814          3
 3.50   0.0000     14.6167   1445.7477     24426.33      43.5214 -47.82     1.890     1.819      2.223   0.01084987  17.0804          4
 8.12   0.0000     10.2946   1183.6542     349.7013      43.5214  42.42     0.565     0.339      2.267   0.01083882  21.6908          5
 7.36   0.0000      4.2259    145.0241     316.0465      43.5214  89.83     0.957     0.768      3.104  0.009717303  21.8006          6
 6.64   0.0000     17.2495    384.5071     897.6333      43.5214  19.99     0.993     0.952      2.326   0.01083759  20.6673          7
 5.14   0.0000     24.7971    367.2085     1599.424      43.5214  13.81     1.305     1.234      2.183   0.01084251  20.0401          8
 3.50   0.0000     59.7850   1078.4766     115236.8      43.5214  77.02     2.287     2.159      2.272   0.01085355  15.3960          9
 8.57   0.0000     23.7800    383.3999     1024.671      43.5214 -71.85     0.755     0.452      2.288   0.01084619  20.5235         10
 6.41   0.0000     33.9023   1110.1802     797.5779      43.5214  68.24     1.657     0.778      2.359   0.01084128  20.7956         11
 7.88   0.0000     33.3076    326.9492      576.218      43.5214  -6.92     0.747     0.677      2.422   0.01084005  21.1485         12
 5.98   0.0000     37.8655   1521.1591     507.8508      43.5214  46.72     0.834     0.669      2.252   0.01084619  21.2857         13
 7.05   0.0000     38.8750   1170.6508     418.9088      43.5214 -19.52     0.923     0.691      2.248   0.01083882  21.4947         14
 5.87   0.0000     42.4605    915.4996     508.3452      43.5214 -77.10     0.913     0.907      2.207   0.01083759  21.2846         15
 3.50   0.0000     80.1536    537.6561     101999.3      43.5214 -59.56     2.145     2.122      2.279   0.01084496  15.5285         16
 9.02   0.0000     44.6655    440.6699     496.8264      43.5214 -45.19     0.576     0.334      1.899   0.01084005  21.3095         17
 4.26   0.0000     75.2162    128.0142     3294.705      43.5214  -5.75     1.516     1.469      2.266   0.01084619  19.2555         18
 6.64   0.0000     82.2787    421.5101     665.2819      43.5214 -15.66     0.994     0.986      2.412   0.01083759  20.9925         19
 3.50   0.0000    121.8120    789.2006     153679.9      43.5214 -62.81     2.230     2.179      2.169   0.01084619  15.0835         20
 6.02   0.0000     90.7295    376.9918     1528.417      43.5214   4.47     1.628     1.442      2.785    0.0108511  20.0894         21
 4.42   0.0000     96.6151     56.2576     4905.644      43.5214 -38.95     1.639     1.566      2.179   0.01084742  18.8233         22
 6.10   0.0000     98.0585    452.9797     1018.408      43.5214 -14.82     1.454     1.005      2.328   0.01084987  20.5302         23
 7.39   0.0000     91.4945    495.9650     476.5868      43.5214  -1.40     0.788     0.500      2.246   0.01083882  21.3546         24
 3.50   0.0000    162.2989   1468.3301     89182.15      43.5214 -48.48     2.111     2.074      2.173   0.01084005  15.6743         25
 6.85   0.0000    131.2865    418.0175     331.4935      43.5214   5.64     0.729     0.681      2.266   0.01084496  21.7488         26
 3.55   0.0000    170.2996    877.3505     18753.41      43.5214  -8.96     1.882     1.865      2.199   0.01083145  17.3673         27
 8.52   0.0000    151.4999   1280.4825     413.2001      43.5214 -47.88     0.501     0.498      2.030   0.01083268  21.5096         28
 5.51   0.0000    164.9741   1445.6677      1285.24      43.5214  17.35     1.303     1.186      2.250   0.01084742  20.2775         29
 4.82   0.0000    166.8505    104.4303     1097.387      43.5214 -46.35     1.196     1.124      2.154   0.01084987  20.4491         30
 6.42   0.0000    169.3397   1368.8977     391.9182      43.5214  68.06     0.910     0.689      2.228   0.01083759  21.5670         31
 7.68   0.0000    180.3316    574.9897     823.3493      43.5214  53.18     1.039     0.643      2.565   0.01085232  20.7610         32
 7.49   0.0000    186.6387   1354.8976     655.5248      43.5214  75.59     1.045     0.753      2.459   0.01083637  21.0085         33
 5.30   0.0000    192.6023   1350.5554     1768.366      43.5214 -19.15     1.368     1.305      2.162   0.01085232  19.9311         34
 4.77   0.0000    210.7202    827.6749     6793.941      43.5214  -5.78     3.810     2.091      2.851   0.01084128  18.4697         35
 4.14   0.0000    206.7225    549.0807     3678.251      43.5214   3.37     1.545     1.484      2.199   0.01084251  19.1359         36
 4.19   0.0000    212.1664   1306.1005     3455.341      43.5214 -64.54     1.516     1.487      2.159   0.01083391  19.2038         37
 5.52   0.0000    230.1494    562.2775     5902.612      43.5214 -37.31     3.231     3.004      4.215   0.01083882  18.6224         38
 5.76   0.0000    210.8939    684.8484     934.1815      43.5214 -66.39     1.218     1.115      2.343   0.01083759  20.6239         39
 3.50   0.0000    259.7588    997.4791     272862.4      43.5214 -48.81     2.331     2.263      2.175   0.01084373  14.4601         40
 3.92   0.0000    223.9121   1226.0618     4335.749      43.5214  25.89     1.523     1.479      2.123   0.01084005  18.9573         41
 4.86   0.0000    222.6267    774.9695     1365.148      43.5214  81.57     1.224     1.191      2.139   0.01084742  20.2120         42
 3.50   0.0000    265.9002     67.6173     195253.9      43.5214 -49.31     2.268     2.237      2.292   0.01084128  14.8235         43
 5.52   0.0000    243.9732    112.8913     2554.999      43.5214 -88.19     1.951     1.539      3.023   0.01084251  19.5315         44
 4.81   0.0000    255.4885    613.0098     6444.896      43.5214 -41.01     2.436     2.028      2.499   0.01084619  18.5270         45
 6.52   0.0000    239.3535    838.8231     834.0782      43.5214  -5.84     1.203     1.102      2.227   0.01084864  20.7470         46
 7.18   0.0000    250.5180    107.4840     929.6422      43.5214 -42.78     1.108     0.852      2.421   0.01083882  20.6292         47
 3.50   0.0000    287.5196   1486.4733     49693.89      43.5214 -43.97     2.033     1.992      2.196   0.01084005  16.3092         48
 3.66   0.0000    281.9236   1522.4003     9804.666      43.5214   3.77     1.701     1.668      2.106   0.01084742  18.0714         49
 6.46   0.0000    270.7727   1273.6278     663.4128      43.5214  16.49     1.000     0.849      2.186   0.01084864  20.9955         50
 3.50   0.0000    303.1506    201.7659     33289.11      43.5214 -78.11     1.968     1.942      2.270   0.01084742  16.7442         51
 6.27   0.0000    293.2967   1475.8354     1234.009      43.5214 -33.66     1.250     1.086      2.115   0.01083514  20.3217         52
 4.64   0.0000    302.2875    563.6751     1593.611      43.5214  31.81     1.325     1.283      2.200   0.01083759  20.0440         53
 3.50   0.0000    322.0853    697.3419     21409.15      43.5214   1.78     1.882     1.848      2.105   0.01084128  17.2235         54
 7.64   0.0000    308.7069     85.2985     625.7094      43.5214  45.78     0.969     0.767      2.224   0.01083637  21.0591         55
 6.05   0.0000    321.9905    641.4783     1530.613      43.5214 -64.00     1.799     1.232      2.952   0.01084864  20.0878         56
 5.16   0.0000    327.5369    595.4523     3544.603      43.5214 -52.10     1.728     1.694      2.371   0.01084251  19.1761         57
 6.07   0.0000    329.2517   1546.0168     708.6262      43.5214 -87.78     0.913     0.756      2.280   0.01084987  20.9240         58
 5.83   0.0000    332.2679     93.4347     853.2532      43.5214  20.40     0.992     0.948      2.146   0.01084742  20.7223         59
 4.78   0.0000    350.1319     54.7084      1865.79      43.5214  -8.51     1.366     1.298      2.235   0.01083882  19.8728         60
 3.50   0.0000    368.1670    761.1217     21904.03      43.5214 -26.12     1.940     1.871      2.135   0.01084496  17.1987         61
 4.02   0.0000    361.1491   1500.4037      3816.57      43.5214 -15.08     1.586     1.464      2.238   0.01085355  19.0958         62
 3.50   0.0000    395.2009    231.4691     116723.3      43.5214 -63.05     2.184     2.143      2.274    0.0108511  15.3821         63
 5.78   0.0000    360.5269   1034.0070     1023.506      43.5214  -1.40     1.111     0.957      2.258    0.0108511  20.5248         64
 6.91   0.0000    375.4792    754.0627     856.4318      43.5214  56.22     1.715     0.961      1.969   0.01083882  20.7183         65
 7.68   0.0000    370.3091     71.9499     517.5765      43.5214 -10.89     0.743     0.672      2.193   0.01084251  21.2651         66
 6.47   0.0000    373.4826   1083.8826     783.5237      43.5214 -17.84     1.100     0.990      2.460   0.01083882  20.8149         67
 6.41   0.0001    380.6161      1.4882     72.88393      43.5214 -89.79     1.601     0.500      3.001  0.008287528  23.3934         68
 3.50   0.0000    397.0519   1461.2017     16145.01      43.5214 -44.85     1.804     1.797      2.123   0.01085355  17.5299         69
 3.50   0.0000    398.1799    354.6261     17275.54      43.5214 -13.53     1.890     1.844      2.234   0.01084619  17.4564         70
 8.09   0.0000    375.6552     87.2937     452.4563      43.5214  47.61     0.564     0.339      2.066   0.01084005  21.4111         71
 6.71   0.0000    380.1594    125.8447     665.2145      43.5214  44.65     0.818     0.680      2.366   0.01084864  20.9926         72
 4.22   0.0000    393.8183   1088.7736      3763.32      43.5214 -35.06     1.516     1.449      2.168   0.01084742  19.1111         73
 8.89   0.0000    382.4900     67.5055     542.9714      43.5214 -44.69     0.503     0.497      2.107   0.01083514  21.2131         74
 8.07   0.0000    388.6902   1195.3347     366.0609      43.5214  43.77     0.567     0.338      2.513   0.01084251  21.6411         75
 6.14   0.0000    412.0432      1.7727     185.8294      43.5214  90.00     2.505     0.701      4.384  0.008460782  22.3772         76
 7.90   0.0000    396.8768    626.5975     1331.799      43.5214 -73.71     1.239     0.985      2.979   0.01084742  20.2389         77
 8.16   0.0000    403.6928    526.4366     616.5467      43.5214  81.17     1.023     0.476      2.315   0.01084005  21.0751         78
 7.54   0.0000    407.0518    282.4902     484.6803      43.5214 -88.59     0.787     0.500      2.013   0.01084251  21.3364         79
 3.50   0.0000    437.9478    252.1072     36017.16      43.5214 -87.21     2.006     1.974      2.228   0.01084005  16.6587         80
 3.50   0.0000    461.0704    807.6703       301215      43.5214 -68.51     2.341     2.304      2.152   0.01083391  14.3528         81
 5.83   0.0000    420.9021    159.0900     1557.586      43.5214  37.62     1.694     1.421      2.327   0.01083514  20.0689         82
 7.67   0.0000    419.5386   1580.4929     402.4869      43.5214  40.47     0.504     0.495      2.328   0.01084005  21.5381         83
 4.17   0.0000    432.9492   1422.0629     2468.448      43.5214   6.85     1.427     1.396      2.117   0.01084251  19.5689         84
 6.72   0.0000    426.5748   1179.2787     933.3196      43.5214  26.35     1.188     0.957      2.545   0.01084619  20.6249         85
 6.42   0.0000    426.8329    433.0970     87478.73      43.5214  -3.27     2.183     0.735      4.317   0.01083759  15.6952         86
 5.15   0.0000    434.2586    151.1154     1081.703      43.5214 -20.05     1.138     1.034      2.080   0.01084128  20.4647         87
 3.88   0.0000    450.3392     21.3603     10921.21      43.5214 -27.47     1.777     1.769      2.189   0.01084742  17.9543         88
 5.07   0.0000    467.7993    850.4810     8207.515      43.5214  22.59     7.403     2.054      4.920   0.01084742  18.2645         89
 9.05   0.0000    430.6650    719.3185     771.7382      43.5214  45.76     0.572     0.336      1.959   0.01083759  20.8313         90
 4.48   0.0000    440.0043    305.8401     1217.208      43.5214  22.45     1.160     1.136      2.133   0.01084742  20.3366         91
 5.42   0.0000    445.2589    122.3780     1632.222      43.5214 -23.52     1.401     1.309      2.342   0.01084987  20.0181         92
 3.80   0.0000    457.8408     34.5939     12583.06      43.5214 -30.83     1.779     1.767      2.229   0.01084864  17.8005         93
 8.05   0.0000    443.6886    655.3237     371.5603      43.5214  44.36     0.563     0.340      2.120   0.01083637  21.6249         94
 4.32   0.0000    463.6414    468.6490     3597.098      43.5214  70.99     1.619     1.558      2.260   0.01084987  19.1601         95
 6.24   0.0000    452.9206   1533.0249      603.096      43.5214 -31.03     0.792     0.774      2.223   0.01084619  21.0990         96
 5.22   0.0000    460.9918   1096.1410     1111.488      43.5214  47.71     1.191     1.080      2.398   0.01085355  20.4352         97
 4.60   0.0000    471.3581    254.2742     3106.333      43.5214 -79.51     1.510     1.439      2.209   0.01084373  19.3194         98
 4.03   0.0000    472.1380    734.9207     4418.401      43.5214  75.27     1.566     1.511      2.201   0.01083882  18.9368         99
 7.71   0.0000    461.8358    724.7247     681.7328      43.5214 -20.12     0.949     0.683      2.467   0.01084373  20.9660        100
 3.70   0.0000    477.9271    923.0840     6013.476      43.5214 -28.67     1.679     1.612      2.144   0.01083882  18.6022        101
 4.34   0.0000    477.2791   1276.4363     2189.677      43.5214 -44.53     1.334     0.920      3.026   0.01084373  19.6990        102
 5.84   0.0000    488.9431    839.6031     976.8257      43.5214  87.10     2.059     0.959      2.865   0.01085355  20.5755        103
 4.14   0.0000    484.0388   1070.6680     2596.878      43.5214 -80.82     1.429     1.400      2.173   0.01084619  19.5139        104
 7.10   0.0000    475.9789   1168.4807     430.2747      43.5214  89.68     0.781     0.500      2.044   0.01084742  21.4656        105
 5.40   0.0000    496.2654     82.9187     3895.051      43.5214  66.13     2.311     2.046      3.163   0.01083759  19.0737        106
 6.87   0.0000    478.8629    682.8434     593.9276      43.5214 -46.10     0.819     0.679      2.177   0.01084373  21.1157        107
 5.12   0.0000    495.7248   1186.8407     3846.276      43.5214 -15.71     2.996     1.931      3.320   0.01084373  19.0874        108
 5.26   0.0000    504.0796    762.8668     2303.375      43.5214 -10.71     1.688     1.646      2.523   0.01083759  19.6441        109
 4.77   0.0000    502.0138    863.8067     1451.021      43.5214  64.62     1.201     1.192      2.262   0.01084005  20.1458        110
 4.57   0.0000    515.3623   1461.0657     4861.396      43.5214  23.93     4.115     1.649      2.875   0.01084742  18.8331        111
 6.08   0.0000    498.0054    366.2516     591.8252      43.5214   0.37     0.926     0.749      2.303   0.01085355  21.1195        112
 6.08   0.0000    509.9191    164.8152     1539.787      43.5214  -5.95     1.820     1.073      2.951   0.01084864  20.0813        113
 4.83   0.0000    513.8598   1179.1876     1541.083      43.5214  24.06     1.285     1.178      2.178   0.01084864  20.0804        114
 5.52   0.0000    519.1540    641.9484     1100.457      43.5214  22.36     1.200     1.120      2.336    0.0108511  20.4461        115
 6.45   0.0000    518.1915   1519.1722     528.3224      43.5214  45.74     0.761     0.567      2.211   0.01084742  21.2428        116
 4.09   0.0000    540.2067    999.9378     4000.219      43.5214  61.15     1.534     1.490      2.185   0.01085232  19.0448        117
 6.53   0.0000    536.3547    404.5305     713.1489      43.5214  38.93     1.195     0.786      1.929   0.01084251  20.9170        118
 3.90   0.0000    558.9035   1041.7982     5192.386      43.5214   6.20     1.633     1.563      2.198   0.01084496  18.7616        119
 4.74   0.0000    571.3472     45.9143     3485.239      43.5214  46.17     2.084     1.522      2.233   0.01084005  19.1944        120
 5.98   0.0000    555.8228    778.8107     427.4542      43.5214  44.57     0.756     0.567      2.169   0.01084496  21.4728        121
 3.50   0.0000    580.7163    144.9663     22221.83      43.5214  83.47     1.885     1.868      2.248   0.01084619  17.1831        122
 4.85   0.0000    571.3085   1447.7944     3004.882      43.5214  19.43     2.258     1.637      2.372   0.01084128  19.3554        123
 5.88   0.0000    565.0881    139.5546     942.8123      43.5214 -69.74     1.052     0.977      2.122   0.01084128  20.6139        124
 3.50   0.0000    582.1971    319.2584     21036.81      43.5214   7.31     1.887     1.830      2.123   0.01085355  17.2425        125
 4.29   0.0000    596.7602    782.6867     9764.102      43.5214 -62.08     3.302     3.182      3.568   0.01084496  18.0759        126
 5.97   0.0000    576.2225   1001.8235      994.595      43.5214  40.80     1.216     1.076      2.325   0.01084742  20.5559        127
 4.64   0.0000    584.5398     76.0209     1358.577      43.5214  -0.84     1.205     1.138      2.264   0.01084987  20.2173        128
 4.19   0.0000   1001.5298   1555.4829     2550.842      43.5214  54.97     1.346     1.330      2.155   0.01083759  19.5333        129
 4.71   0.0000   1597.6036    654.7847     719.6192      43.5214   1.75     1.659     1.434      2.643  0.009325878  20.9072        130
 5.16   0.0000   1594.7568    374.1190     1003.752      43.5214  42.74     1.307     1.027      1.916   0.01047918  20.5459        131
 4.05   0.0000   1584.9181   1108.9316     4189.161      43.5214 -15.59     1.433     1.357      2.173   0.01084005  18.9947        132
 6.78   0.0000   1585.9497   1069.5099     1289.803      43.5214 -88.96     0.783     0.500      2.343   0.01084128  20.2737        133
 3.60   0.0000   1541.8564    135.1745     8880.688      43.5214  54.68     1.663     1.623      2.132   0.01084864  18.1789        134
 8.74   0.0000   1519.3268     85.3294      925.252      43.5214 -44.88     0.573     0.336      1.937   0.01083637  20.6343        135
 4.79   0.0000   1514.6519    483.6263      1801.94      43.5214 -43.74     1.049     0.951      2.286   0.01084987  19.9106        136
 4.90   0.0000    912.4185   1001.2366     1277.624      43.5214  73.44     0.989     0.957      2.097   0.01084864  20.2840        137
 3.50   0.0000    900.4997    302.8331     14789.73      43.5214 -64.19     1.794     1.787      2.207   0.01083514  17.6251        138
 4.92   0.0000    896.1861    538.5018     3163.129      43.5214   6.05     1.942     1.608      2.233   0.01084251  19.2997        139
 5.31   0.0000    893.7880   1426.2821     938.8694      43.5214 -16.60     0.974     0.854      2.079   0.01084864  20.6185        140
 3.50   0.0000    880.2065   1592.6320     190036.3      43.5214 -83.52     2.300     2.188      2.020   0.01084987  14.8529        141
 6.04   0.0000    888.8303    325.8213     1841.366      43.5214  17.19     1.767     1.100      2.040   0.01084619  19.8871        142
 8.02   0.0000    888.6788    681.3232     528.1931      43.5214  44.90     0.568     0.338      2.161   0.01084251  21.2430        143
 4.51   0.0000    885.7850   1500.2664     1818.641      43.5214  10.00     1.303     1.227      2.116    0.0108511  19.9006        144
 7.04   0.0000    885.0953    339.2578     1084.998      43.5214  -2.69     1.149     0.882      2.197   0.01083759  20.4614        145
 4.70   0.0000    877.6797    961.0908     1298.449      43.5214  27.86     1.126     1.034      2.179   0.01084005  20.2664        146
 6.46   0.0000    876.3213    541.9203     488.3492      43.5214  -7.28     0.737     0.667      2.119   0.01084005  21.3282        147
 4.13   0.0000    869.4717   1103.7170     5290.816      43.5214 -55.22     1.983     1.793      2.230   0.01083759  18.7412        148
 4.96   0.0000    867.9886    939.9118     2313.772      43.5214  41.19     1.806     1.355      2.323   0.01084619  19.6392        149
 6.15   0.0000    869.3575    643.8528     820.6948      43.5214  68.50     0.904     0.687      2.245   0.01084742  20.7645        150
 8.15   0.0000    860.4996   1554.4683     397.9907      43.5214  48.21     0.504     0.495      2.062   0.01084128  21.5503        151
 4.53   0.0000    858.5098   1339.6924     1499.358      43.5214 -89.55     1.308     1.113      2.183   0.01083637  20.1102        152
 9.07   0.0000    855.5103    545.4817     723.9839      43.5214 -46.32     0.502     0.497      2.334   0.01083882  20.9007        153
 4.16   0.0000    844.9837   1063.9657     1117.622      43.5214   1.03     1.169     1.133      2.164   0.01084742  20.4293        154
 4.40   0.0000    843.3248   1106.2646     2126.906      43.5214  40.34     1.667     1.341      2.126   0.01083759  19.7306        155
 4.56   0.0000    836.6466    298.8450     3337.709      43.5214  11.92     1.467     1.396      2.206   0.01084987  19.2414        156
 6.83   0.0000    836.6003   1520.7371     446.2104      43.5214  18.11     0.733     0.456      2.085   0.01085355  21.4261        157
 5.73   0.0000    835.6805    819.1954     736.7352      43.5214 -72.93     0.960     0.861      2.074   0.01084742  20.8817        158
 3.50   0.0000    822.9877    654.4249     14874.17      43.5214  74.96     1.838     1.773      2.051   0.01084496  17.6189        159
 7.91   0.0000    819.4906   1398.4888     465.6644      43.5214  46.70     0.500     0.500      2.217   0.01083637  21.3798        160
 3.50   0.0000    803.0379   1378.7590     13777.92      43.5214 -72.46     1.796     1.752      2.127   0.01084987  17.7020        161
 3.50   0.0000    798.4418    695.7374     40277.07      43.5214 -88.12     2.639     1.966      2.700   0.01084496  16.5374        162
 4.17   0.0000    800.7010     41.1932     6487.941      43.5214 -23.53     1.671     1.577      2.242   0.01084251  18.5197        163
 4.28   0.0000    774.2634   1427.3890     4906.902      43.5214  89.63     2.902     1.909      3.032   0.01085355  18.8230        164
 7.20   0.0000    768.0129    140.0102     843.6343      43.5214  44.98     0.806     0.795      2.390   0.01084251  20.7346        165
 4.24   0.0000    742.8162    556.3451     3146.392      43.5214 -57.68     1.449     1.420      2.124   0.01084987  19.3055        166
 4.32   0.0000    738.1102   1158.1116     1087.201      43.5214  47.36     1.221     1.121      2.199   0.01083514  20.4592        167
 5.08   0.0000    736.0913    649.8519     1366.105      43.5214 -38.54     1.206     1.123      2.185   0.01084128  20.2113        168
 3.50   0.0000    726.6004    848.5243     140000.5      43.5214 -72.04     2.212     2.178      2.223   0.01084864  15.1847        169
 3.87   0.0000    727.4650   1178.3309     2390.206      43.5214 -10.14     1.394     1.328      2.121   0.01084005  19.6039        170
 5.23   0.0000    721.4345   1395.1035     919.1422      43.5214  16.01     1.086     0.953      2.022   0.01083759  20.6415        171
 3.96   0.0000    715.8315    808.4100     3044.032      43.5214  51.69     1.425     1.393      2.122   0.01084742  19.3414        172
 3.99   0.0000    708.9626   1163.8940     3062.557      43.5214  20.90     1.464     1.393      2.152   0.01083759  19.3348        173
 4.42   0.0000    704.4229   1339.0634     3343.536      43.5214 -25.11     1.700     1.462      2.330   0.01084987  19.2395        174
 3.68   0.0000    702.8209    952.5522     5379.102      43.5214  -9.41     1.630     1.577      2.102   0.01084864  18.7232        175
 6.02   0.0000    699.1675    582.7174     1345.041      43.5214   5.06     1.844     0.873      2.307   0.01084496  20.2282        176
 5.87   0.0000    691.6353   1213.6743     1763.863      43.5214  87.83     1.432     1.241      2.743   0.01084373  19.9338        177
 6.00   0.0000    686.6937   1213.8435     949.8912      43.5214 -47.21     1.217     0.958      2.044   0.01083637  20.6058        178
 4.18   0.0000    685.6500    644.3535     4293.229      43.5214 -73.12     1.594     1.581      2.139   0.01084987  18.9680        179
 5.68   0.0000    687.6556    130.9231     644.6285      43.5214  76.35     0.983     0.752      2.288   0.01084251  21.0267        180
 7.44   0.0000    668.9944   1221.5293     635.0849      43.5214  -0.05     0.827     0.706      2.523   0.01084987  21.0429        181
 3.50   0.0000    648.2678   1464.4448     153356.1      43.5214 -76.52     2.214     2.143      2.157   0.01084373  15.0857        182
 5.07   0.0000    654.6734    870.9016     1221.404      43.5214  21.01     1.193     1.057      2.224   0.01083759  20.3329        183
 6.84   0.0000    645.7944    653.0030     916.2523      43.5214 -88.71     0.912     0.756      2.243   0.01084251  20.6450        184
 7.26   0.0000    641.1874    276.8223     428.1189      43.5214 -45.77     0.755     0.569      2.360   0.01084373  21.4711        185
 4.14   0.0000    630.8300    806.1274     1382.395      43.5214 -34.12     1.204     1.125      2.260   0.01084619  20.1984        186
 4.30   0.0000    623.4095   1581.5348     2286.776      43.5214  49.39     1.346     1.338      2.117   0.01085355  19.6519        187
 7.18   0.0000    618.1836   1151.1306     886.2643      43.5214 -37.45     0.897     0.874      2.280   0.01085232  20.6811        188
 8.09   0.0000    609.5256    945.4929     567.2467      43.5214  42.34     0.503     0.496      2.247   0.01084005  21.1656        189
 3.50   0.0000   1563.6936    304.2686     126570.8      43.5214 -77.52     2.157     2.117      2.231   0.01084005  15.2942        190
 4.14   0.0000   1566.7208     22.0779     5564.832      43.5214  75.11     1.574     1.553      2.132   0.01084128  18.6864        191
 3.94   0.0000   1542.6152    654.7387     6370.634      43.5214  29.79     1.579     1.560      2.239   0.01084619  18.5395        192
 3.50   0.0000   1558.0082    487.7251     130623.4      43.5214 -78.65     2.166     2.125      2.219    0.0108511  15.2599        193
 4.16   0.0000   1570.5596     92.7663     4595.743      43.5214  -2.72     1.453     1.398      2.179    0.0108511  18.8941        194
 4.48   0.0000   1546.1006    863.5362     2949.587      43.5214  60.15     1.564     1.328      2.207   0.01084128  19.3756        195
 4.36   0.0000   1561.3612    861.4875      3223.58      43.5214  19.18     1.352     1.338      2.127   0.01084373  19.2792        196
 4.38   0.0000   1565.7378    784.6730     3753.676      43.5214 -79.11     1.769     1.443      2.415   0.01084128  19.1139        197
 5.18   0.0000   1550.8444   1221.8484     1633.426      43.5214  42.51     1.082     0.925      2.342   0.01084864  20.0173        198
 3.57   0.0000   1552.6281    682.2971     39766.47      43.5214 -26.44     4.582     3.959      3.590   0.01083882  16.5512        199
 7.80   0.0000   1535.9841   1428.9976     1413.945      43.5214 -45.55     0.927     0.527      2.688   0.01084373  20.1739        200
 7.00   0.0000   1532.4937    415.7445      1642.33      43.5214 -84.33     1.017     0.979      2.260   0.01084005  20.0113        201
 7.59   0.0000   1519.9943   1100.7047     1320.046      43.5214  89.07     0.749     0.679      2.491   0.01084373  20.2485        202
 4.09   0.0000    928.4031   1322.5200     2400.647      43.5214 -44.27     1.357     1.342      2.168   0.01084864  19.5992        203
 3.50   0.0000   1514.9222    392.7349     19479.19      43.5214  66.54     1.807     1.797      2.188   0.01083882  17.3261        204
 6.00   0.0000   1515.4878   1547.1486     1439.527      43.5214  74.03     1.048     0.871      2.166   0.01084005  20.1544        205
 3.50   0.0000   1507.1836    269.3994     71090.44      43.5214 -82.06     2.049     2.030      2.192   0.01084373  15.9205        206
 5.55   0.0000   1498.4597    844.2532     1284.312      43.5214 -25.00     0.883     0.757      2.341   0.01084251  20.2783        207
 4.56   0.0000   1504.1298    723.3583     2410.283      43.5214  14.84     1.297     1.162      2.189   0.01084619  19.5948        208
 3.97   0.0000    939.1798   1067.2053     4213.139      43.5214 -23.40     1.522     1.452      2.132   0.01084496  18.9885        209
 6.96   0.0000   1488.2819     78.0035     1268.024      43.5214  -1.74     0.735     0.681      2.336   0.01084619  20.2922        210
 3.92   0.0000    912.8765    838.6033     1868.023      43.5214  -0.15     1.305     1.218      2.207   0.01084742  19.8715        211
 5.67   0.0000    950.7991    654.3572     2027.385      43.5214  65.98     1.507     1.354      2.448    0.0108511  19.7827        212
 5.84   0.0000    947.8477    445.1833     920.9721      43.5214  47.70     0.889     0.856      2.157   0.01084864  20.6394        213
 5.26   0.0000   1065.7639   1597.2657     273.8918      43.5214 -14.20     0.952     0.861      0.990  0.009492803  21.9561        214
 7.26   0.0000    938.5413    516.3163     1564.085      43.5214  57.72     1.300     0.997      2.584   0.01084005  20.0643        215
 7.66   0.0000   1474.9158    998.3757     2066.048      43.5214 -14.25     1.054     0.754      2.838   0.01084619  19.7621        216
 6.42   0.0000   1482.4310    575.2145     1886.514      43.5214 -30.81     1.204     0.969      2.553   0.01084987  19.8608        217
 5.80   0.0000   1438.6464   1271.3108     1610.317      43.5214 -45.87     0.991     0.878      2.135   0.01084005  20.0327        218
 5.08   0.0000   1072.1349   1219.1719     4384.457      43.5214 -73.97     2.049     1.696      2.464   0.01084619  18.9452        219
 4.97   0.0000   1079.4351    330.1989     1301.121      43.5214   1.47     1.167     0.990      2.021   0.01084373  20.2642        220
 3.95   0.0000   1415.4110   1386.6447      4494.43      43.5214  75.55     1.498     1.406      2.129   0.01084742  18.9183        221
 3.55   0.0000   1107.4796    428.0644     16539.03      43.5214  29.41     1.816     1.783      2.147   0.01083759  17.5037        222
 3.50   0.0000   1081.7991   1148.2404     22435.04      43.5214  77.56     1.859     1.838      2.144   0.01084864  17.1727        223
 5.70   0.0000   1066.6768    569.0727     707.0882      43.5214 -72.74     1.032     0.751      2.423   0.01084005  20.9263        224
 6.53   0.0000   1110.7510    479.0507      3658.49      43.5214  19.20     1.749     1.562      3.137    0.0108511  19.1417        225
 3.54   0.0000   1435.3314    224.8159     8858.217      43.5214  21.04     1.687     1.611      2.208    0.0108511  18.1816        226
 6.26   0.0000   1090.9882    468.1736     1994.437      43.5214 -62.75     1.759     1.048      3.044   0.01084619  19.8004        227
 7.39   0.0000   1441.0785   1082.6284     316.3292      43.5214  43.16     2.974     0.680      5.956   0.01084373  21.7997        228
 4.76   0.0000   1411.0619    350.0085     2337.351      43.5214  44.81     1.366     1.125      2.141   0.01085355  19.6282        229
 8.08   0.0000   1453.3318    391.6697     744.7767      43.5214  45.06     0.575     0.334      2.307   0.01083759  20.8699        230
 3.54   0.0000   1439.7888    619.2131     6766.715      43.5214 -62.85     1.575     1.554      2.137   0.01084373  18.4741        231
 3.50   0.0000   1393.4050    114.5455     180040.5      43.5214 -80.89     2.215     2.169      2.279   0.01085478  14.9116        232
 6.42   0.0000   1436.1945   1347.1851     1067.429      43.5214  46.04     0.748     0.567      2.436   0.01084251  20.4792        233
 4.63   0.0000   1120.3417    329.8551     5069.582      43.5214  55.81     2.503     1.644      2.525   0.01084128  18.7876        234
 6.70   0.0000   1431.9259    340.6477     1528.587      43.5214  15.34     1.044     0.753      2.623   0.01084128  20.0893        235
 4.82   0.0000   1129.1801    547.4301     1502.608      43.5214  54.92     1.192     1.121      2.129   0.01084742  20.1079        236
 3.50   0.0000   1408.2377    308.3844     6512.638      43.5214  -7.03     1.547     1.510      2.099   0.01084987  18.5156        237
 5.35   0.0000   1400.5464   1031.5027     2817.172      43.5214  31.11     1.429     1.368      2.177   0.01083637  19.4255        238
 3.50   0.0000   1388.6937   1428.5571     18036.67      43.5214  55.76     1.789     1.763      2.118   0.01083637  17.4096        239
 6.79   0.0013   1412.1804      1.3059     6.635468      43.5214 -77.74     1.083     0.409      2.545  0.008177583  25.9953        240
 4.72   0.0000   1406.3345    329.8578     2030.707      43.5214  26.69     1.130     1.025      2.236   0.01084128  19.7809        241
 4.65   0.0000   1330.5002    386.9715     1504.202      43.5214   3.29     1.098     0.952      2.150   0.01083882  20.1067        242
 4.79   0.0000   1259.4657    432.5281     4173.862      43.5214  25.38     1.823     1.760      2.522   0.01083882  18.9987        243
 3.68   0.0000   1278.0730   1331.4478      10098.8      43.5214  82.55     1.714     1.699      2.019   0.01084128  18.0393        244
 3.79   0.0000   1390.4578    713.3802     6710.066      43.5214  43.10     1.588     1.550      2.139   0.01084987  18.4832        245
 5.96   0.0000   1388.9021    806.6555     1515.997      43.5214  13.85     0.984     0.753      2.256   0.01083637  20.0983        246
 4.34   0.0000   1392.2596   1038.8943     5048.107      43.5214   8.71     1.474     1.451      2.223   0.01084128  18.7922        247
 3.53   0.0000   1218.8743   1195.0033     22286.51      43.5214  54.82     1.997     1.952      2.079   0.01085232  17.1799        248
 6.99   0.0000   1291.8092    546.1708     815.6785      43.5214 -44.88     0.757     0.568      2.012   0.01084742  20.7712        249
 3.56   0.0000   1210.6931   1279.0286     21410.85      43.5214  82.87     5.696     3.445      4.573   0.01084251  17.2234        250
 3.82   0.0000   1292.8365    412.6910     2861.813      43.5214 -22.03     1.326     1.267      2.366   0.01084128  19.4084        251
 8.47   0.0000   1262.3208    216.3072     783.3331      43.5214 -45.74     0.560     0.342      2.099   0.01084005  20.8151        252
 8.25   0.0000   1379.3267    319.3086     1042.514      43.5214 -45.93     0.563     0.340      1.937   0.01084005  20.5048        253
 8.27   0.0000   1352.4868    152.2023     1630.342      43.5214 -89.11     1.011     0.738      2.588   0.01084373  20.0193        254
 3.50   0.0000   1372.5312   1019.0457     21013.63      43.5214 -41.64     1.951     1.869      2.164   0.01084496  17.2437        255
 3.50   0.0000   1320.0488    660.0613     65204.31      43.5214  75.91     2.093     2.039      2.215   0.01084251  16.0143        256
 5.87   0.0000   1293.5828    742.1906     2985.082      43.5214 -15.99     1.535     1.440      2.275   0.01084251  19.3626        257
 7.00   0.0000   1346.3284    605.1111     1168.242      43.5214 -68.97     0.936     0.689      2.329   0.01084005  20.3812        258
 3.97   0.0000   1329.8187    655.9049     7295.636      43.5214  67.51     1.921     1.813      2.249   0.01084373  18.3923        259
 4.12   0.0000   1332.9294    107.4837     2506.752      43.5214  -2.81     1.329     1.158      2.055   0.01083759  19.5522        260
 3.50   0.0000   1298.3828    724.9477     394875.4      43.5214 -51.40     2.371     2.297      2.269   0.01084987  14.0588        261
 4.19   0.0000   1304.7047    892.9962     2137.224      43.5214 -75.91     1.297     1.172      2.206   0.01084251  19.7254        262
 4.08   0.0000   1319.2585    264.1429     2179.646      43.5214   6.39     1.181     1.123      2.171   0.01084128  19.7040        263
 4.31   0.0000   1307.5262    669.7034     6474.357      43.5214 -32.49     1.629     1.592      2.193   0.01083882  18.5220        264
 3.65   0.0000   1272.7618    610.0184     24789.03      43.5214 -58.16     4.190     2.580      3.073   0.01084987  17.0644        265
 5.69   0.0000   1299.3568     54.0625     1177.471      43.5214 -68.39     0.901     0.697      2.167   0.01084496  20.3726        266
 3.52   0.0000   1291.4148    762.2641     14746.33      43.5214 -23.95     2.297     1.839      2.000   0.01084619  17.6283        267
 3.56   0.0000   1265.4564    807.9594     7756.915      43.5214  -7.96     1.661     1.612      2.153   0.01084373  18.3258        268
 6.36   0.0000   1273.6595    698.0986     886.7056      43.5214  68.67     0.919     0.693      2.473   0.01083759  20.6806        269
 4.97   0.0000   1228.6499   1153.6350     1134.189      43.5214  43.00     0.997     0.872      2.344   0.01084864  20.4133        270
 5.85   0.0000   1262.1962    855.0399     1425.431      43.5214 -88.04     0.907     0.755      2.280   0.01084619  20.1651        271
 5.76   0.0000   1212.7454   1429.5703     3898.074      43.5214  66.31     2.076     1.803      3.297   0.01084987  19.0729        272
 4.06   0.0000   1237.0374   1553.6448     4069.976      43.5214 -72.17     1.471     1.442      2.103   0.01084987  19.0260        273
 6.33   0.0000   1229.7732    599.1249     2167.387      43.5214 -25.96     1.422     1.267      2.436   0.01084496  19.7102        274
 3.50   0.0000   1234.4055    304.8864     6483.729      43.5214   0.76     1.619     1.566      2.182   0.01084496  18.5204        275
 5.14   0.0000   1237.6368     48.3455     1265.234      43.5214  42.97     1.043     0.951      2.086   0.01084742  20.2946        276
 4.28   0.0000   1207.6377    838.9413     4315.116      43.5214  35.87     1.470     1.451      2.167   0.01084742  18.9625        277
 3.50   0.0000   1214.6141    513.0945     34344.76      43.5214  -0.90     1.943     1.918      2.185   0.01084373  16.7103        278
 4.24   0.0000   1200.8662   1442.2368     2967.095      43.5214 -76.41     1.564     1.485      2.212   0.01084619  19.3692        279
 7.93   0.0000   1204.4742   1217.4802     563.5102      43.5214  43.31     0.502     0.497      1.998   0.01084005  21.1727        280
 5.08   0.0000   1194.9722    124.1294     4232.914      43.5214 -83.39     1.957     1.669      2.703   0.01084742  18.9834        281
 3.91   0.0000   1201.8915    339.0921     4204.538      43.5214  41.67     1.528     1.455      2.187   0.01083514  18.9907        282
 5.34   0.0000   1130.2582    219.7123     1499.445      43.5214  22.28     1.184     1.117      2.183   0.01084128  20.1102        283
 3.50   0.0000   1138.5420    148.1507     70357.07      43.5214  77.75     2.097     2.062      2.196   0.01084496  15.9317        284
 5.95   0.0000   1181.9745    176.1647     1375.894      43.5214   3.89     0.910     0.759      2.232   0.01084864  20.2035        285
 4.90   0.0000   1180.9506    549.4130     1682.324      43.5214  37.05     1.159     1.067      2.151    0.0108511  19.9852        286
 4.68   0.0000   1153.5942   1353.1537     2349.459      43.5214  23.71     1.498     1.327      2.161    0.0108511  19.6226        287
 3.50   0.0000   1165.1395   1299.8351     117086.4      43.5214 -78.19     2.141     2.108      2.203   0.01084742  15.3787        288
 3.50   0.0000   1129.9851    183.6115     37664.88      43.5214  -6.31     1.968     1.954      2.214   0.01084496  16.6102        289
 3.53   0.0000   1157.8691    236.5205     13249.97      43.5214 -59.07     1.775     1.768      2.136   0.01083882  17.7445        290
 5.31   0.0000   1161.7438    887.7606     1427.581      43.5214 -40.77     1.157     1.096      2.267   0.01084742  20.1635        291
 4.11   0.0000   1151.2296     99.5155     3255.987      43.5214   1.70     1.475     1.409      2.114   0.01084619  19.2683        292
 6.72   0.0000   1131.0312    359.2770     1055.625      43.5214  79.06     0.733     0.682      2.126   0.01084496  20.4912        293
 3.50   0.0000   1079.9672    512.2063     72560.27      43.5214  74.02     2.099     2.081      2.171   0.01084742  15.8983        294
 4.04   0.0000   1095.4258   1526.6967     2031.066      43.5214  64.24     1.332     1.261      2.215   0.01084251  19.7807        295
 7.24   0.0000   1086.1484   1452.8627     825.6727      43.5214  46.36     0.838     0.678      2.278   0.01084251  20.7580        296
 7.41   0.0000   1090.0991    782.8873     60082.33      43.5214  45.01     1.234     0.538      3.738   0.01083514  16.1031        297
 5.92   0.0000   1094.6758   1136.2837     690.7714      43.5214  42.84     0.939     0.754      2.158   0.01083882  20.9517        298
 7.13   0.0000    978.4573    452.7135     1138.536      43.5214 -88.97     0.999     0.961      2.271   0.01084128  20.4091        299
 7.77   0.0000   1088.0132    397.0000     724.0419      43.5214  90.00     0.850     0.289      2.000   0.01084619  20.9006        300
 5.99   0.0000   1065.1993   1563.2179     2622.289      43.5214 -50.91     1.822     1.345      3.096   0.01084496  19.5033        301
 3.50   0.0000    984.8825    558.5286     64015.02      43.5214  86.99     2.062     2.035      2.180   0.01083759  16.0343        302
 3.50   0.0000   1009.8115    813.7941     38392.73      43.5214 -23.06     1.976     1.963      2.164   0.01083882  16.5894        303
 5.37   0.0000    965.2351    416.4796     933.0435      43.5214   9.67     0.991     0.951      2.168   0.01084373  20.6252        304
 5.22   0.0000    980.8171    797.9382     2249.285      43.5214 -22.95     1.473     1.417      2.415   0.01084496  19.6699        305
 3.50   0.0000   1040.2435    633.1321     87550.05      43.5214 -86.88     2.148     2.116      2.208   0.01084496  15.6944        306
 3.50   0.0000   1038.7074    525.4634     19796.91      43.5214 -89.92     1.895     1.851      2.124   0.01084128  17.3085        307
 4.72   0.0000   1030.4277    302.7162     4089.381      43.5214  61.98     2.411     1.679      2.790   0.01084496  19.0209        308
 5.83   0.0000    986.6929    454.0457     3091.111      43.5214  71.21     1.721     1.537      2.953   0.01083637  19.3247        309
 8.75   0.0000   1014.5078    453.4610     708.5527      43.5214 -62.89     0.500     0.498      2.023   0.01084128  20.9241        310
 6.43   0.0000    998.0614    233.3179     1230.453      43.5214  83.83     0.736     0.671      2.414   0.01083882  20.3248        311
 3.50   0.0000   1025.7098   1380.0499     46177.94      43.5214  87.42     2.054     1.952      2.168   0.01084128  16.3889        312
 3.80   0.0000   1011.3396    344.7471      5524.52      43.5214 -55.24     1.591     1.561      2.221   0.01084251  18.6943        313
 8.38   0.0000   1011.2415    267.9928      952.222      43.5214   0.33     0.699     0.428      1.969   0.01084864  20.6032        314
 4.30   0.0000    999.9335   1273.7820     2079.161      43.5214 -27.04     1.275     1.172      2.115   0.01084742  19.7553        315
 4.10   0.0000   1001.6805    542.7173     5913.787      43.5214  12.75     1.658     1.575      2.117   0.01083882  18.6203        316
