#   1 KRON_RADIUS            Kron apertures in units of A or B                         
#   2 MAGERR_APER            RMS error vector for fixed aperture mag.                   [mag]
#   3 Y_IMAGE                Object position along y                                    [pixel]
#   4 X_IMAGE                Object position along x                                    [pixel]
#   5 THETA_IMAGE            Position angle (CCW/x)                                     [deg]
#   6 FLUX_APER              Flux vector within fixed circular aperture(s)              [count]
#   7 A_IMAGE                Profile RMS along major axis                               [pixel]
#   8 THRESHOLD              Detection threshold above background                       [count]
#   9 B_IMAGE                Profile RMS along minor axis                               [pixel]
#  10 FLUX_RADIUS            Fraction-of-light radii                                    [pixel]
#  11 FLUXERR_APER           RMS error vector for aperture flux(es)                     [count]
#  12 MAG_APER               Fixed aperture magnitude vector                            [mag]
#  13 NUMBER                 Running object number                                     
 3.50   0.0006     52.4330     61.7851  -1.53     151932.9     6.647           15     6.022     10.879     79.57745  15.0959          1
 3.50   0.0004     58.9505   1076.9386  81.87     241497.3     2.119           15     1.993      2.832     79.55043  14.5927          2
 3.50   0.0035     15.7535    983.4631 -88.04      25032.7     4.568           15     2.012      6.681     79.54143  17.0537          3
 3.50   0.0440     16.2663    382.9737 -60.13     1965.756     1.470           15     1.238      2.563     79.57745  19.8162          4
 3.50   0.0043     17.0164     89.4733 -38.81     20327.16     1.668           15     1.628      2.719     79.62244  17.2798          5
 3.50   0.0016     13.8116   1444.2358 -43.73      52827.5     1.732           15     1.705      2.670     79.58644  16.2428          6
 4.25   0.0831     13.2794    839.4593 -64.29     1039.447     1.755           15     1.135      3.501     79.54143  20.5080          7
 3.50   0.1390      9.1434   1182.2228 -58.17     621.8527     1.088           15     1.052      2.189     79.60445  21.0658          8
 3.50   0.1937      5.7230   1467.8273  -3.91     424.2633     1.183           15     0.926      2.471     75.67387  21.4809          9
 4.00   0.0371      3.6141    143.2476  67.80     2025.256     1.689           15     1.561      3.569     69.20652  19.7838         10
 5.03   0.0986      3.6377    183.7684 -16.02     763.5202     1.193           15     0.959      3.252     69.29962  20.8429         11
 6.83   0.2029      2.4338    843.2668  19.71     346.5045     0.732           15     0.456      3.122     64.74646  21.7007         12
 6.06   0.1492      1.8042    302.4686   3.74     452.4421     0.943           15     0.716      3.346     62.14967  21.4111         13
 3.78   0.0199     23.8595    365.4591   4.31     4350.372     1.406           15     1.341      2.714     79.53242  18.9537         14
 3.50   0.0625     23.0221    381.4540  24.11     1382.786     1.355           15     1.214      2.893     79.60445  20.1981         15
 3.50   0.3445     17.3073   1213.4205  41.48     250.7957     0.956           15     0.859      1.954     79.55043  22.0517         16
 3.50   0.4779     14.7703   1561.4890  -0.83     180.7663     0.945           15     0.720      2.259     79.54143  22.4072         17
 5.13   0.4565     15.4900    192.9881  -3.42     189.2853     0.788           15     0.499      2.591     79.55944  22.3572         18
 3.50   0.0353     33.1031   1108.5421  62.13     2442.669     2.061           15     1.306      3.424     79.50539  19.5803         19
 5.07   0.1269     22.8381    696.7360  14.91     680.8682     0.927           15     0.843      2.345     79.56844  20.9673         20
 5.64   0.5771     20.9432    212.0454 -45.15     149.7109     0.892           15     0.530      2.562     79.55944  22.6119         21
 4.02   0.2013     24.2986   1451.6597 -46.75     428.9598     1.018           15     0.855      2.561     79.50539  21.4690         22
 4.67   0.0514     32.4480    325.0097 -26.15     1680.536     1.563           15     1.264      3.223     79.60445  19.9864         23
 6.92   0.2939     24.8343    529.8266  45.19     294.0574     0.759           15     0.567      2.639     79.57745  21.8789         24
 6.71   0.1587     25.9111    701.3083  17.52     544.0784     0.916           15     0.682      4.272     79.49638  21.2108         25
 5.31   0.1281     33.6394     14.6521  53.71     674.6398     0.979           15     0.853      2.910     79.57745  20.9773         26
 3.50   0.0946     37.0468   1519.9733 -74.83     913.3905     1.084           15     1.067      2.101     79.60445  20.6484         27
 4.62   0.0536     43.2929    438.5793 -53.91      1612.55     1.729           15     1.304      3.859     79.55043  20.0312         28
 3.50   0.0609     38.0196   1169.1295  12.61     1418.957     1.289           15     1.179      2.603     79.61344  20.1701         29
 3.50   0.0004     79.0623    535.8591 -63.07       231853     1.999           15     1.965      2.779     79.53242  14.6370         30
 3.80   0.0610     41.4935    913.7980 -64.45     1416.618     1.227           15     1.051      2.285     79.54143  20.1719         31
 7.06   0.2195     33.9667   1066.4921  58.09      393.513     0.803           15     0.311      2.317     79.52341  21.5626         32
 3.50   0.4069     38.6000   1224.6489 -30.78     212.5112     1.228           15     0.776      2.313     79.62244  22.2315         33
 3.98   0.0812     49.4767    263.4285 -82.12     1064.113     1.552           15     1.130      3.369     79.55944  20.4825         34
 4.64   0.2897     42.6057    226.7916  40.20     298.2358     1.079           15     0.654      2.584     79.55043  21.8636         35
 6.74   0.5133     39.4747   1126.5171 -43.85     168.2215     0.504           15     0.495      1.950      79.5144  22.4853         36
 3.79   2.2830     41.4937   1000.3300  -1.36     37.82919     1.054           15     0.499      1.769     79.52341  24.1054         37
 3.50   0.5387     46.5432   1429.2083  87.55     160.5334     0.923           15     0.722      1.896     79.63144  22.5361         38
 6.67   0.1964     45.7285    473.0389 -10.42     439.9734     0.733           15     0.681      3.025     79.56844  21.4414         39
 3.50   0.1313     49.4534   1433.9270   9.10     657.8093     1.096           15     0.936      2.180     79.53242  21.0047         40
 5.18   0.1566     46.8039    664.5821  -3.69     551.5414     0.953           15     0.724      2.668     79.54143  21.1961         41
 6.15   0.1293     50.2181    119.8695  39.13     668.4885     0.807           15     0.669      2.949     79.60445  20.9873         42
 8.27   0.2129     49.3352    879.6919  46.34     405.7375     0.567           15     0.339      2.747     79.55043  21.5294         43
 3.50   0.0103     74.1091    126.4795 -33.04     8355.409     1.503           15     1.437      2.567      79.5144  18.2451         44
 5.86   0.2717     58.9934    469.1689  53.55     318.0837     0.918           15     0.474      2.430     79.57745  21.7936         45
 3.50   0.0881     65.0521   1146.3165  -0.29     980.2261     1.444           15     1.193      3.234      79.5144  20.5717         46
 5.64  99.0000     57.5757   1240.1871 -21.10    -56.23118     0.749           15     0.444      2.083     79.55944  99.0000         47
 4.17  99.0000     65.6561   1514.5503 -81.65    -113.7518     0.917           15     0.484      1.913     79.55944  99.0000         48
 4.99   0.1966     66.6765   1414.3184 -42.10     439.2983     1.020           15     0.862      2.662     79.54143  21.4431         49
 7.28   0.0978     68.4343     17.8153  78.11     883.7417     1.055           15     0.885      5.023     79.57745  20.6842         50
 3.50   0.3297     70.9527   1320.7626 -65.92     262.1346     1.010           15     0.818      2.237     79.58644  22.0037         51
 8.63   0.0475     75.6857     80.4453 -38.45     1819.406     1.551           15     0.939      8.926     79.55043  19.9002         52
 3.50   0.0003    120.9301    787.4855 -53.39     344482.2     2.055           15     2.021      2.818     79.50539  14.2071         53
 3.50   0.0410     81.3387    419.7172 -81.40     2108.474     1.587           15     1.314      3.092     79.52341  19.7401         54
 3.84   0.0188     89.6813    375.3947 -15.16     4587.184     2.397           15     2.065      4.806     79.57745  18.8961         55
 7.72   0.2814     73.9792    732.2733  88.65     307.2475     0.662           15     0.446      2.799     79.61344  21.8313         56
 3.50   0.0068     95.5787     54.3880  31.88     12671.52     1.639           15     1.612      2.784     79.55944  17.7929         57
 3.50   0.1915     78.5913   1031.9655  -4.49     451.2211     1.095           15     0.928      2.515     79.58644  21.4140         58
 7.43   1.1067     73.6413   1255.6760 -46.35     78.06483     0.584           15     0.329      1.880     79.55043  23.3189         59
 6.48   0.0833     82.9982    930.8804  35.38     1037.091     1.250           15     0.967      4.565     79.57745  20.5105         60
 5.35   0.0697     87.5067    757.2294  64.46     1238.931     1.285           15     1.195      3.798     79.54143  20.3174         61
 3.79   0.2375     86.9773   1358.2859 -79.17     363.8406     1.119           15     0.894      2.383     79.56844  21.6477         62
 6.23   0.0952     86.7000    862.2626 -36.18     907.1944     1.407           15     0.998      4.896     79.52341  20.6557         63
 5.33   0.0628    141.2934    884.3462  52.27      1374.32     2.182           15     1.014      4.797     79.52341  20.2048         64
 5.03   0.0951     90.7042   1043.9059  53.72     907.9844     1.594           15     0.914      3.637     79.47836  20.6548         65
 3.50   0.0692     90.6289    494.1025 -78.53     1248.192     1.205           15     1.125      2.421      79.5144  20.3093         66
 6.27   0.1621     87.7103    810.8326 -66.09      532.994     0.934           15     0.667      3.077     79.54143  21.2332         67
 6.08   1.2945     85.0338   1559.0720  45.28     66.75443     0.911           15     0.525      2.503     79.56844  23.4888         68
 6.91   0.1351     85.7778    923.1917 -46.11     639.4838     0.760           15     0.561      3.578     79.55944  21.0354         69
 3.79   0.0297     97.1720    451.1183 -15.24     2909.962     2.158           15     1.288      3.769     79.56844  19.3903         70
 3.75   0.2277     94.2044    387.5457   0.79      379.736     0.925           15     0.726      2.056     79.63144  21.6013         71
 5.99   0.5245     95.9941    559.7446 -89.68     164.9087     0.676           15     0.436      1.978     79.64043  22.5069         72
 7.61   0.3207     93.6627    870.6544 -44.67      269.322     0.584           15     0.329      2.235     79.54143  21.9743         73
 5.82   0.1175    101.7271    517.3472  34.32     734.7764     1.114           15     0.881      3.524     79.53242  20.8846         74
 4.54   0.1652    107.3400    861.3597  41.72     523.2788     0.978           15     0.859      2.175     79.57745  21.2532         75
 4.59   0.0913    114.3043    414.1663 -68.21     945.9858     1.226           15     1.013      3.328      79.5144  20.6103         76
 5.58   0.2164    106.9801   1420.9814 -40.64     399.3461     0.798           15     0.763      2.743     79.56844  21.5466         77
 6.57   0.2260    106.4793    180.0427  -2.31     382.1572     0.780           15     0.499      2.495     79.54143  21.5944         78
 3.51   0.7752    109.9083   1513.3596  20.21     111.3868     0.884           15     0.681      1.995     79.50539  22.9329         79
 3.50   0.1181    116.1240    989.4617 -58.20     731.1182     1.138           15     1.019      2.541     79.52341  20.8900         80
 4.21   0.0673    116.2476     65.0520  14.02     1285.172     1.548           15     1.061      3.440     79.58644  20.2776         81
 3.50   0.1562    116.7219    152.4536 -86.25     552.8585     1.123           15     0.971      2.198     79.52341  21.1935         82
 4.01   0.2770    117.6549    911.8856 -66.63     311.7781     0.935           15     0.682      2.548     79.53242  21.8154         83
 3.64   0.0716    125.2984    492.6189  -0.32     1205.895     1.665           15     1.219      3.524     79.53242  20.3467         84
 3.50   0.0004    161.4541   1466.8248 -58.74     195253.4     1.941           15     1.902      2.759     79.61344  14.8235         85
 7.32  11.7336    118.4848   1400.5156 -45.05       7.3569     0.503           15     0.497      1.898     79.48737  25.8833         86
 4.30   0.0732    130.2065    416.2744  57.73     1180.626     1.100           15     1.057      2.305     79.61344  20.3697         87
 3.50   0.4851    127.2841   1476.9161  64.33     178.0001     0.882           15     0.673      1.711     79.50539  22.4239         88
 3.66   0.1624    128.3044    884.3072  39.90     531.5745     0.974           15     0.855      2.210     79.48737  21.2361         89
 8.22   0.2396    129.4937    461.4671  79.24     360.5147     0.500           15     0.499      2.589     79.52341  21.6577         90
 7.97   4.5392    134.2148     97.6237 -71.27     19.03256     0.773           15     0.439      2.858     79.55043  24.8513         91
 6.93   1.7682    134.2994   1274.6626  43.05     48.84874     0.564           15     0.340      1.862     79.53242  23.8279         92
 5.52   0.6619    138.1961   1599.6533 -73.31     98.78233     0.751           15     0.443      2.064     60.20591  23.0633         93
 3.50   0.0020    169.2865    875.6407 -68.74     43881.98     1.816           15     1.770      2.768     79.55043  16.4443         94
 3.50   0.1047    150.7619   1278.9016  88.63     824.4921     1.163           15     1.081      2.480     79.48737  20.7595         95
 3.72   0.0219    164.2101   1444.3116  58.08     3954.163     1.478           15     1.334      2.713     79.56844  19.0574         96
 3.50   0.1661    154.5426     80.6307 -48.09     520.2849     1.063           15     0.915      2.140     79.59544  21.2594         97
 4.37   0.2479    155.2148   1578.5200  33.04     348.6453     0.963           15     0.777      2.329     79.59544  21.6940         98
 4.42   0.0866    164.9884    574.8645  77.32     997.9759     1.398           15     1.054      3.016     79.61344  20.5522         99
 5.40   0.3039    154.6382    822.7685 -65.92     284.4096     0.715           15     0.649      2.378     79.58644  21.9151        100
 3.50   0.0334    165.7110    102.5932 -26.53     2590.085     1.316           15     1.213      2.339     79.54143  19.5167        101
 6.06   0.2371    159.1147    491.3987   9.60     364.4577     1.137           15     0.669      3.163     79.55944  21.6459        102
 3.98   0.0564    168.5005   1367.4280  -3.63     1530.317     1.273           15     1.097      2.530      79.5144  20.0880        103
 4.33   0.0773    167.9214    649.5801  10.30     1117.912     1.346           15     1.111      3.009     79.57745  20.4290        104
 3.88   0.0441    179.2475    573.4441  24.34     1960.268     1.806           15     1.458      3.788     79.58644  19.8192        105
 7.05  99.0000    168.5139    168.5129  44.91    -13.81906     0.504           15     0.496      1.994     79.50539  99.0000        106
 7.80   0.4918    172.5058     30.4449  54.32     175.5533     0.503           15     0.494      2.750     79.50539  22.4390        107
 3.50   0.0001    258.9322    995.8043 -40.78     597391.9     2.197           15     2.091      2.819     79.61344  13.6094        108
 3.68   0.0181    191.7790   1349.0507 -29.04     4764.467     1.434           15     1.382      2.568     79.58644  18.8550        109
 4.98   0.0373    185.8884   1353.4352 -60.76     2315.626     1.564           15     1.434      4.408     79.55043  19.6383        110
 6.84   0.1956    182.3312     58.4811 -53.73     441.5607     0.998           15     0.697      3.259     79.53242  21.4375        111
 6.21   0.1555    186.4667    834.7823 -22.86     555.8209     1.172           15     0.796      4.068     79.58644  21.1877        112
 3.50   0.0046    209.8897    826.0682  -8.26      18916.3     5.062           15     2.311      7.833     79.52341  17.3579        113
 7.38   0.4500    183.4921    493.5126  45.65     191.8409     0.502           15     0.498      2.384     79.49638  22.3426        114
 3.62   0.0052    229.0160    560.6641 -22.76     16512.05     4.037           15     3.709      8.166     79.57745  17.5055        115
 3.50   0.0095    205.7506    547.4508  51.32     9080.812     1.491           15     1.485      2.584     79.60445  18.1547        116
 3.50   0.0002    264.9563     65.7550 -47.06     441264.6     2.161           15     2.086      2.817     79.59544  13.9383        117
 5.54   0.1028    194.7835    447.7415 -54.85     840.4289     1.067           15     0.894      3.009     79.57745  20.7387        118
 3.50   0.0096    211.4027   1304.6294 -28.12     8972.556     1.498           15     1.454      2.581     79.55043  18.1677        119
 3.88   0.0326    209.9436    683.1042 -79.14     2649.141     1.698           15     1.384      3.302     79.50539  19.4922        120
 6.49   0.1171    204.5183    935.3228 -12.20     737.4755     1.134           15     0.832      4.496     79.54143  20.8806        121
 3.66   0.1639    204.7073    182.1929 -25.95     527.1103     1.088           15     0.881      2.667     79.55043  21.2452        122
 5.02   0.2933    205.1469    940.4786   2.45     294.4882     0.957           15     0.726      2.071     79.52341  21.8773        123
 3.50   0.0084    223.2675   1224.6123  77.27     10295.87     1.482           15     1.452      2.497     79.61344  18.0183        124
 3.50   0.1383    208.2826   1224.1099  -9.72     624.4844     1.086           15     0.922      2.179     79.52341  21.0612        125
 5.60   0.0786    216.7452    881.1793 -58.27     1100.007     1.992           15     0.918      4.657     79.59544  20.4465        126
 4.87   0.0511    216.7865    739.7549 -45.18     1689.836     1.731           15     1.248      4.702     79.57745  19.9804        127
 3.50   0.0247    221.6765    773.3259 -20.01     3499.439     1.345           15     1.265      2.419     79.52341  19.1900        128
 6.22   0.1432    214.2040    791.6286 -30.93     603.5598     1.057           15     0.805      3.548     79.55944  21.0982        129
 3.71   0.0127    243.0105    111.1027 -86.87     6794.736     2.419           15     1.752      4.323     79.53242  18.4696        130
 3.83   0.0048    254.5513    611.2030 -40.46      17859.6     2.890           15     2.353      5.370     79.61344  17.4203        131
 5.94   0.0540    229.3252    546.4078 -52.26     1601.576     1.514           15     1.120      5.470     79.60445  20.0386        132
 7.38   0.8761    220.5160   1401.4563  63.36     98.57059     0.500           15     0.498      2.221     79.52341  23.0656        133
 3.50   0.0299    238.3811    837.2602  -1.16     2888.968     1.874           15     1.611      3.884     79.57745  19.3981        134
 3.50  99.0000    231.9676   1551.6797 -22.09    -24.56166     0.883           15     0.678      1.829     79.55043  99.0000        135
 3.88   0.1436    238.9686   1477.4473 -68.21     601.8446     1.283           15     0.919      2.752     79.60445  21.1013        136
 4.96   0.0358    249.4536    105.7775 -19.28     2414.331     1.432           15     1.278      3.325     79.60445  19.5930        137
 4.78   0.1061    247.8289   1412.9543  45.09     815.0767     1.290           15     1.085      3.420     79.60445  20.7720        138
 4.45   0.1732    248.6849    149.8071 -32.28     498.7743     0.992           15     0.922      2.954     79.55944  21.3052        139
 3.66   0.1738    250.4527   1549.4178  83.80      497.253     1.043           15     1.025      2.699     79.59544  21.3086        140
 3.89   0.2389    247.9675    561.0492 -36.33     361.7563     0.788           15     0.758      2.039     79.59544  21.6540        141
 3.50   0.0008    286.7185   1484.9955 -50.47     104215.2     1.884           15     1.854      2.723     79.56844  15.5052        142
 5.26  18.8486    252.2202    693.4165  70.77     4.584488     0.739           15     0.454      1.876     79.56844  26.3968        143
 6.42   0.0850    263.9649    723.0098 -83.33     1016.769     1.516           15     1.127      4.290     79.57745  20.5319        144
 3.50   0.0038    281.0552   1520.9050  81.15     22980.66     1.663           15     1.589      2.611      79.5144  17.1466        145
 3.86   0.0389    270.0475   1272.1318  15.61      2219.12     1.537           15     1.399      3.145     79.55043  19.6845        146
 5.39   2.9733    261.1553   1207.8533 -41.82     29.06228     0.752           15     0.567      2.182     79.56844  24.3917        147
 5.02   0.0918    264.4726    122.0912  11.32     940.4131     1.190           15     1.003      3.175     79.52341  20.6167        148
 3.50   0.0011    302.1516    199.9386 -74.69      76266.9     1.842           15     1.825      2.738     79.54143  15.8442        149
 3.50   1.8275    270.4892   1248.9794  87.18     47.27377     0.779           15     0.695      1.964     79.55043  23.8634        150
 7.67   0.1481    272.1040    724.8116 -49.42     583.4545     0.771           15     0.566      3.760     79.54143  21.1350        151
 5.30   0.1643    278.5140    555.5240  -1.69     525.6147     0.949           15     0.878      2.948     79.50539  21.2483        152
 3.87   0.0209    292.5160   1474.2141 -30.72      4131.39     1.605           15     1.442      3.139     79.57745  19.0098        153
 3.85   0.0741    291.3944    246.6814 -43.05     1165.918     1.412           15     1.094      2.884     79.57745  20.3833        154
 3.50   0.0210    301.2967    561.9062  72.44     4102.672     1.461           15     1.411      2.812     79.49638  19.0173        155
 4.97   0.0321    307.7422     83.5914  75.44     2695.967     2.123           15     1.426      5.240     79.63144  19.4732        156
 6.15   0.3419    290.1804      4.6054 -71.51     230.2781     0.728           15     0.454      2.286     72.49257  22.1444        157
 3.50   0.0017    321.1690    695.6151 -34.71     50623.72     1.736           15     1.733      2.704     79.59544  16.2891        158
 9.06   0.1881    291.5226    780.4788  44.85      459.173     0.505           15     0.494      3.032     79.54143  21.3951        159
 7.13   0.2524    291.6668    263.3293  45.17     342.1584     0.576           15     0.334      1.944      79.5144  21.7144        160
 3.50   0.0205    320.7332    639.8378 -62.89     4217.707     2.540           15     1.728      4.443     79.56844  18.9873        161
 3.85   0.0089    326.5693    593.7131   9.39     9744.118     2.153           15     2.097      4.456     79.56844  18.0781        162
 6.58   0.0824    310.3900    315.6748  72.63     1049.607     1.427           15     0.934      5.187     79.61344  20.4974        163
 4.14   0.0951    315.9833    225.2863  -6.62     909.1116     1.330           15     0.991      2.949     79.56844  20.6535        164
 3.50   4.0909    312.8518   1494.8325  39.69     21.13015     0.738           15     0.561      1.777     79.59544  24.7377        165
 8.15   0.2730    313.3218    152.6642  44.36     316.2881     0.573           15     0.335      2.821      79.5144  21.7998        166
 6.30   0.1551    315.3415     14.2786 -48.58     556.8909     0.556           15     0.342      1.715     79.54143  21.1856        167
 3.63   0.0538    328.4418   1544.6156 -37.02     1605.196     1.211           15     1.128      2.405     79.58644  20.0362        168
 5.62   0.1832    320.6384    574.5311   7.47     471.7708     0.998           15     0.630      2.611     79.56844  21.3657        169
 3.50   0.0406    331.3190     91.5485 -34.79     2127.447     1.266           15     1.220      2.321     79.52341  19.7304        170
 5.74   0.2529    328.1288    242.2959 -59.72     341.5502     0.867           15     0.594      2.684     79.52341  21.7164        171
 6.17   0.1514    335.5205    609.4713  -0.23     570.3509     0.942           15     0.881      3.488     79.52341  21.1596        172
 3.51   0.0181    349.0352     52.9466 -66.01      4786.39     1.419           15     1.370      2.566     79.56844  18.8500        173
 4.95   0.4259    335.0284    621.9882  75.78     202.9486     0.805           15     0.785      2.331     79.58644  22.2815        174
 3.50   0.0017    367.2340    759.5012  -5.27     52267.38     1.798           15     1.758      2.719     79.47836  16.2544        175
 3.50   0.6613    340.1329   1502.1545 -46.17     130.6474     0.819           15     0.661      1.988     79.55944  22.7597        176
 4.73   0.0886    347.0912     40.8081 -59.41     974.8688     1.156           15     1.027      2.828     79.54143  20.5776        177
 3.50   0.0003    394.2318    229.6257 -54.48     256462.8     2.050           15     1.972      2.792     79.55043  14.5274        178
 3.50   0.0093    360.3794   1498.8564 -12.11     9299.646     1.714           15     1.460      2.727     79.59544  18.1288        179
 3.85   0.0281    374.2936    752.1292  57.43     3068.492     2.573           15     1.490      4.414     79.52341  19.3327        180
 5.06   0.3555    352.5029   1578.9875 -62.41     242.9802     1.057           15     0.655      2.664     79.53242  22.0861        181
 3.50   0.0387    359.6951   1032.4893 -13.02     2228.085     1.260           15     1.219      2.323     79.48737  19.6802        182
 5.90   0.3696    358.6621   1046.3116 -45.38      233.655     1.169           15     0.570      2.875     79.52341  22.1286        183
 5.26   0.0688    368.4125    208.4630 -52.86     1255.963     1.392           15     1.114      4.280     79.59544  20.3026        184
 3.50   0.0401    372.3954   1082.2760   7.02     2154.256     1.626           15     1.462      3.300     79.59544  19.7168        185
 3.71   0.0497    369.4850     69.7813 -43.69     1740.594     1.452           15     1.283      3.263     79.57745  19.9483        186
 6.25   0.2198    361.8470     14.8623  45.73     392.9492     0.748           15     0.571      2.381     79.54143  21.5642        187
 3.50   0.0024    396.2114   1459.7427 -51.44      36362.9     1.708           15     1.661      2.655     79.60445  16.6484        188
 3.50   0.1246    374.2860     85.5446 -72.70     693.0364     1.103           15     1.034      2.236     79.53242  20.9481        189
 3.50   0.0021    397.1684    352.8747 -53.60     41559.41     1.767           15     1.699      2.695     79.55043  16.5033        190
 3.50   0.1345    390.9100     93.7870 -35.21     642.1628     1.205           15     1.022      2.640     79.55944  21.0309        191
 4.46   0.0618    381.4601     65.5889  37.25     1398.279     1.439           15     1.201      3.082     79.61344  20.1860        192
 6.90   0.0670    381.7107      9.4692  34.94     1288.432     1.385           15     1.308      7.949     79.50539  20.2748        193
 4.46   0.0539    379.1584    123.8874  45.20     1603.319     1.189           15     1.142      2.470     79.54143  20.0374        194
 3.84   0.0236    395.5988    625.2861 -85.56     3661.472     2.336           15     1.898      5.262     79.55043  19.1409        195
 7.83   0.2926    377.1904    139.6098 -71.65     295.2016     0.745           15     0.451      3.179     79.53242  21.8747        196
 3.50   0.0101    392.8825   1087.1373  27.17     8554.391     1.484           15     1.464      2.559     79.52341  18.2195        197
 3.50   0.1088    388.0514   1193.9818 -63.50     794.4424     1.105           15     1.083      2.346     79.58644  20.7998        198
 6.96   0.1126    382.6901    248.5648  29.99     767.2993     0.952           15     0.535      3.716     79.53242  20.8376        199
 7.15   0.4696    381.4868   1483.5352 -46.53     183.9247     0.509           15     0.489      2.369     79.52341  22.3884        200
 3.72   0.1456    388.7853    259.2869  82.09      593.417     1.047           15     0.950      2.356     79.55944  21.1166        201
 5.40   0.0353    402.7172    524.9601  63.32     2450.566     2.147           15     1.291      5.627     79.55944  19.5768        202
 3.50   0.0010    436.9847    250.2869  80.48     83589.94     1.880           15     1.858      2.755     79.55944  15.7446        203
 3.50   4.3304    389.8449   1166.6427 -22.22     19.96137     0.858           15     0.687      1.732     79.59544  24.7995        204
 6.33   0.0498    411.2217      2.0090 -89.01     1373.778     2.935           15     0.925      6.939     63.01957  20.2052        205
 7.44   0.1968    393.3539    144.1269 -69.60     438.9489     0.947           15     0.685      3.351     79.53242  21.4440        206
 4.91   0.4546    391.8285    682.1618  45.39     190.1199     0.805           15     0.665      1.769     79.58644  22.3524        207
 5.27   0.6479    390.4884   1063.9827  -1.27     133.3388     0.773           15     0.500      1.973     79.55043  22.7376        208
 3.50   0.0001    460.3274    806.0079 -43.01     724695.3     2.213           15     2.103      2.822     79.59544  13.3996        209
 3.50   0.0737    412.5606   1560.8337 -63.29     1172.151     1.820           15     0.996      3.324     79.59544  20.3775        210
 5.67   0.0248    420.6196    132.7295 -31.62      3480.06     3.012           15     2.100      8.181     79.61344  19.1960        211
 3.50   0.0783    406.1489    280.5368 -33.78     1103.576     1.222           15     1.041      2.242     79.55043  20.4430        212
 3.58   0.0549    414.0773    557.5623  76.11     1573.741     1.733           15     1.474      3.986     79.55043  20.0577        213
 4.17   0.0177    419.8095    157.4447  27.89     4880.692     2.027           15     1.739      4.091     79.58644  18.8288        214
 3.50   0.0803    417.8195   1203.0179 -80.77     1075.623     1.233           15     1.166      3.025     79.56844  20.4708        215
 3.50   0.0906    418.4508    772.9764 -80.68     953.8654     1.319           15     1.181      2.682     79.60445  20.6013        216
 4.68   0.0301    429.8530    717.5466  54.55     2871.478     2.400           15     1.918      6.832     79.56844  19.4047        217
 3.50   0.0326    425.7675   1177.7944  33.32     2648.281     1.916           15     1.539      4.029     79.57745  19.4926        218
 4.62   0.0804    419.0101   1579.1522 -62.86     1074.732     1.102           15     1.024      2.380     79.60445  20.4717        219
 7.81   0.1071    413.4175    178.7532 -18.59     807.1429     0.755           15     0.454      3.395     79.57745  20.7826        220
 3.82   0.0040    467.0056    848.9196  22.67     21715.49     8.865           15     2.319     13.498     79.55944  17.2081        221
 6.82   0.1124    421.8432    629.8857 -28.83     768.4821     1.314           15     0.776      3.705     79.55043  20.8359        222
 3.67   0.1067    425.2735    298.3060  83.26     809.3218     1.071           15     1.002      1.827      79.5144  20.7797        223
 3.50   0.2500    419.9527   1090.9771  44.56     345.7781     0.780           15     0.760      1.692     79.58644  21.7030        224
 3.50   0.0033    449.3142     19.5246  76.83     26476.89     1.763           15     1.665      2.737     79.50539  16.9928        225
 3.50   0.1409    423.4485   1062.2931  -2.88      612.671     1.125           15     0.962      2.134     79.50539  21.0819        226
 3.50   0.0137    432.1284   1420.5691 -15.23     6308.686     1.471           15     1.335      2.467     79.56844  18.5502        227
 3.50   0.0337    433.0605    149.3733  16.36     2565.408     1.392           15     1.306      2.751     79.58644  19.5271        228
 3.50   1.0930    425.7820   1007.1625 -62.72     79.07655     0.910           15     0.730      1.867     79.58644  23.3049        229
 6.17   0.0535    427.1066    431.4993  -2.11     1613.554     2.823           15     0.911      7.316     79.48737  20.0305        230
 5.68   0.0737    434.7188    118.4007  -8.19     1172.136     1.583           15     1.476      4.753     79.56844  20.3776        231
 3.79   0.0196    444.1181    120.4188 -29.29     4404.027     1.778           15     1.606      3.467     79.58644  18.9404        232
 3.50   0.0319    439.0537    303.9864  66.69     2713.668     1.313           15     1.282      2.431     79.59544  19.4661        233
 3.50   0.0029    456.8188     32.7342  71.02     29803.43     1.721           15     1.707      2.706     79.57745  16.8643        234
 4.19   0.1330    432.5095    404.8405 -30.74     649.6096     1.005           15     0.924      2.456     79.53242  21.0184        235
 4.34   0.1343    432.7837    351.6006  15.55     643.4122     0.945           15     0.926      2.154     79.55043  21.0288        236
 4.69   0.0760    442.8842    653.6063  40.25     1136.907     1.101           15     1.031      2.364     79.55944  20.4107        237
 4.23   0.0804    442.8299    172.7107  88.58     1074.992     1.146           15     1.114      2.693     79.54143  20.4715        238
 4.10   0.2209    441.2750    957.8518 -61.55     390.8365     0.952           15     0.841      2.284      79.5144  21.5700        239
 5.91   0.7672    436.5045     52.4718 -49.06     112.5754     0.502           15     0.497      1.820     79.52341  22.9214        240
 4.22   0.1151    444.6239   1503.9014 -14.24     749.9482     1.124           15     0.935      2.628      79.5144  20.8624        241
 3.50   0.0091    462.7146    466.8772  49.50     9456.456     1.634           15     1.521      2.770     79.49638  18.1107        242
 3.50   0.0982    453.5330   1222.8749 -56.47     878.8531     1.249           15     1.089      2.503     79.49638  20.6902        243
 3.50   0.0657    452.0466   1531.8092 -15.24     1315.847     1.156           15     1.071      2.175     79.60445  20.2520        244
 4.13   0.3754    450.6602   1129.9235  76.00     230.0893     1.003           15     0.756      2.388     79.53242  22.1453        245
 3.50   0.0105    470.5872    252.7215  52.06     8260.207     1.923           15     1.490      2.881     79.60445  18.2575        246
 3.50   0.0295    460.1024   1094.5745  39.48     2928.147     1.470           15     1.287      2.710     79.53242  19.3835        247
 4.07   0.0731    472.2964   1131.0360  86.33     1180.484     2.431           15     0.883      4.249     79.48737  20.3698        248
 3.59   0.0402    460.4799    723.4733 -13.17     2147.484     1.874           15     1.317      3.577     79.52341  19.7202        249
 3.50   0.0074    471.0857    733.2172 -22.08     11739.66     1.545           15     1.502      2.621     79.56844  17.8759        250
 6.99   0.2531    456.0136    483.0009  -0.12     341.3352     0.616           15     0.611      3.045     79.55944  21.7170        251
 3.77   0.0076    495.2566     80.9949 -75.58     11392.02     3.127           15     2.714      5.956     79.63144  17.9085        252
 3.50   0.0058    477.0055    921.4139 -40.47     15016.32     1.569           15     1.508      2.581     79.52341  17.6086        253
 5.24   0.0767    464.4754    127.5465 -21.31     1126.699     1.660           15     1.062      3.891     79.53242  20.4205        254
 8.68   0.3192    456.3340   1235.6608  44.78     270.6111     0.580           15     0.332      2.337     79.53242  21.9691        255
 4.39   0.0776    466.0786   1196.8776  82.31     1112.847     1.291           15     1.182      2.977     79.54143  20.4339        256
 4.34   0.1127    464.8790    559.8107  65.00     766.8859     1.109           15     1.024      2.604     79.58644  20.8382        257
 3.71   0.0247    488.1693    838.0694 -89.64     3500.411     3.072           15     1.199      4.636     79.56844  19.1897        258
 3.50   0.0080    495.0998   1185.2753 -26.16     10812.21     3.613           15     2.536      6.363     79.46935  17.9652        259
 3.50   0.0168    477.0033   1275.3079 -41.29     5138.918     1.399           15     1.285      2.301     79.53242  18.7728        260
 3.50   0.0567    478.1635    680.9523 -65.20      1524.74     1.563           15     1.056      2.779     79.58644  20.0920        261
 5.31   0.0864    471.7993    780.1220  23.95     1000.348     1.139           15     1.007      3.251     79.58644  20.5496        262
 5.67   0.3324    468.1573    662.1224 -41.34     259.9311     0.821           15     0.674      2.340     79.55043  22.0129        263
 3.50   0.0957    475.0752   1166.8884   1.76      902.424     1.107           15     1.092      2.277     79.49638  20.6615        264
 5.95   0.0568    487.8893    422.9884 -49.23     1522.479     2.176           15     1.063      6.614     79.55944  20.0936        265
 5.40   0.0827    479.9283   1518.1958 -47.30     1044.623     1.487           15     1.118      4.157     79.59544  20.5026        266
 5.62   0.0930    483.3886    427.0773  87.07     929.5515     1.674           15     0.969      4.180     79.60445  20.6293        267
 3.50   0.0140    483.0341   1069.1205 -13.33     6175.024     1.409           15     1.340      2.410     79.55043  18.5734        268
 6.92   0.0780    481.1826     77.1426  58.34     1108.475     1.810           15     0.985      6.350     79.57745  20.4382        269
 3.62   0.0131    503.2301    761.2233  -4.04     6603.474     2.381           15     2.117      4.801     79.55944  18.5006        270
 5.61   0.1691    485.3775    827.2341  57.85      510.997     1.007           15     0.787      2.826     79.57745  21.2790        271
 7.17   0.0357    524.8239    527.8973  45.10     2421.395     6.536           15     1.651     19.741     79.53242  19.5898        272
 7.37   0.3438    484.1759    253.5986 -69.90     251.3315     0.742           15     0.446      2.160     79.55944  22.0494        273
 3.50   0.0064    514.5536   1459.5905  24.85     13539.97     4.878           15     1.874      7.260     79.60445  17.7210        274
 7.85   0.3943    484.2979   1228.3258 -43.45     218.9564     0.558           15     0.342      2.065     79.50539  22.1991        275
 4.56   0.1160    492.2623    572.9792 -16.88     744.9695     1.049           15     0.996      2.353     79.59544  20.8697        276
 5.82  99.0000    484.5482    941.4947  -5.07    -74.35367     0.500           15     0.498      1.751      79.5144  99.0000        277
 3.50   0.0225    501.1273    862.1901 -16.89     3837.571     1.334           15     1.327      2.463     79.60445  19.0899        278
 3.50   0.0554    497.0681    364.6265  11.28      1559.29     1.268           15     1.120      2.302     79.57745  20.0677        279
 3.50   0.1427    494.4064   1419.9204   1.58     605.3354     1.198           15     0.974      2.354     79.56844  21.0950        280
 3.50   0.1727    501.8904    441.4088 -66.56     500.1543     1.008           15     0.949      2.049     79.54143  21.3022        281
 3.95   0.0222    509.0423    162.5956  -4.82     3888.271     2.507           15     1.321      4.216     79.59544  19.0756        282
 7.44   0.0384    517.6046    511.1506  -0.00     2253.666     5.270           15     2.081     21.511     79.61344  19.6678        283
 3.50   0.3262    504.1844   1567.6553 -16.97      264.969     0.927           15     0.827      1.787     79.59544  21.9920        284
 7.12   0.0835    504.4329    324.4170  47.55     1034.923     1.010           15     0.880      4.942     79.58644  20.5127        285
 3.50   0.0230    512.9147   1177.8210 -35.72     3761.188     1.383           15     1.285      2.476     79.57745  19.1117        286
 4.72   0.0665    509.1272    451.8443   5.49     1299.655     1.266           15     1.167      3.265     79.53242  20.2654        287
 3.50   0.0308    518.2557    640.3034 -41.43     2805.173     1.607           15     1.444      3.098     79.50539  19.4301        288
 6.05   0.1298    508.3752    306.8041 -19.91       665.65     1.071           15     0.857      3.641     79.56844  20.9919        289
 3.50   0.0710    517.3838   1517.8750  82.45     1217.636     1.163           15     1.121      2.436     79.61344  20.3362        290
 7.42   0.1374    509.7285    323.9870   2.30     629.4542     0.727           15     0.687      3.879     79.62244  21.0526        291
 4.16   0.0676    519.7965    852.2980 -59.33     1276.966     1.296           15     1.237      2.887     79.54143  20.2846        292
 5.01   1.3895    510.5995    804.8359  19.75      62.1697     0.751           15     0.445      2.024     79.54143  23.5661        293
 6.22   0.1379    516.0262    165.0444  45.65     626.9145     0.900           15     0.528      2.921     79.61344  21.0570        294
 5.89   0.1872    519.4958    580.8436 -88.03     461.1176     0.948           15     0.742      3.189     79.50539  21.3905        295
 7.28   0.3396    519.0308    828.0000  90.00     254.3796     0.843           15     0.289      2.489     79.55043  22.0363        296
 6.24   0.1008    528.0430    163.3423  63.64     856.9269     1.365           15     0.878      4.253     79.55944  20.7176        297
 3.50   0.0097    539.3129    998.3310 -70.29     8862.851     1.493           15     1.462      2.587     79.50539  18.1811        298
 3.50   0.0402    535.0595    402.7670  29.08     2151.587     1.780           15     1.365      3.347     79.57745  19.7181        299
 7.27   2.7752    523.4644   1056.4950  39.70     31.12651     0.503           15     0.496      1.810     79.54143  24.3172        300
 7.90   0.6005    522.5049    307.4641 -47.03     143.8483     0.508           15     0.490      2.315     79.54143  22.6552        301
 3.50   0.0594    543.1094    932.6140 -66.88      1453.74     2.273           15     1.031      4.051     79.55944  20.1438        302
 3.50   0.1991    530.8118   1565.2172  44.85       434.02     0.940           15     0.889      1.973     79.55043  21.4562        303
 9.17   0.1461    535.5113    282.4944  43.82     591.0712     0.501           15     0.499      3.006     79.49638  21.1209        304
 3.50   0.0071    558.0371   1040.2251  -9.90     12219.56     1.655           15     1.506      2.698     79.57745  17.8324        305
 3.81   0.1444    545.2867    849.4888  -7.60     598.0214     0.977           15     0.940      2.442      79.5144  21.1082        306
 3.51   0.0100    570.2460     44.0987  49.45     8667.035     2.443           15     1.669      4.067     79.46033  18.2053        307
 3.50   0.0017    581.1934    317.4510  36.99     50007.37     1.838           15     1.778      2.761     79.62244  16.3024        308
 3.50   0.0104    570.6835   1446.9796  20.63     8317.298     3.167           15     1.966      5.277     79.57745  18.2500        309
 3.50   0.0869    554.9998    777.1388  23.87     994.8078     1.096           15     1.071      2.026     79.62244  20.5557        310
 4.68   0.2551    552.7538    964.6172  15.60     338.7766     0.969           15     0.848      2.545     79.58644  21.7252        311
 4.32   0.1425    558.3867   1067.7919  68.18      606.103     1.434           15     0.961      2.766     79.52341  21.0936        312
 3.50   0.0017    579.6481    143.1503 -58.12     50064.24     1.752           15     1.731      2.714     79.60445  16.3012        313
 3.50   0.0035    595.7391    781.1534 -55.17     24381.77     4.007           15     3.719      7.899     79.55944  17.0823        314
 4.41   0.0384    563.8170    137.7230  87.64     2253.635     1.327           15     1.273      2.928     79.59544  19.6678        315
 4.84   0.2230    553.9764    804.0148 -87.45     387.4239     0.783           15     0.774      2.244     79.55944  21.5795        316
 3.50   0.1479    562.0296    904.3709  80.46     584.3154     1.039           15     0.920      2.141     79.56844  21.1334        317
 3.50   0.1901    561.8604    839.1833 -53.65     454.5303     1.293           15     0.878      2.448     79.56844  21.4061        318
 3.50   1.2886    560.1372   1502.7888  48.52     67.10595     0.816           15     0.673      1.972     79.62244  23.4831        319
 4.70   0.1326    565.9980    630.5018 -86.06     651.2518     1.039           15     0.935      2.591     79.53242  21.0156        320
 4.83   0.1525    563.3328   1168.7266 -46.71     566.2321     1.008           15     0.854      2.837     79.50539  21.1675        321
 3.50   0.0296    575.3124   1000.2608 -15.35     2921.746     1.717           15     1.618      3.558     79.52341  19.3859        322
 7.76   0.3144    561.3551    592.7014  47.64     274.5839     0.571           15     0.336      2.037     79.48737  21.9533        323
 5.63   0.1273    569.2311    112.3170 -74.42     678.9849     1.106           15     0.970      3.042     79.55944  20.9703        324
 5.51   0.1132    566.4101   1114.6134  46.64     762.9374     1.049           15     0.942      3.197     79.54143  20.8438        325
 4.73   0.0686    577.0698    737.9145  52.47     1259.147     1.553           15     1.316      4.047     79.50539  20.2998        326
 8.39   0.1471    568.1765    708.6044 -71.44     587.4269     0.754           15     0.449      3.641     79.56844  21.1276        327
 8.20   0.1816    569.7476   1108.5878  71.26     476.0445     0.743           15     0.455      2.981     79.60445  21.3559        328
 3.50   0.0258    583.4811     74.1989   9.33     3353.126     1.345           15     1.330      2.495     79.56844  19.2364        329
 4.82   0.0832    578.4114    677.8210  22.31     1038.744     1.400           15     1.333      3.955     79.55944  20.5087        330
 7.81   1.3799    569.6770   1177.3269  44.81     62.58715     0.570           15     0.337      2.117     79.52341  23.5588        331
 3.93   0.0845    577.7634    843.4693  24.52     1022.369     1.852           15     0.943      3.732     79.57745  20.5260        332
 4.85   0.1491    583.0475   1099.5220 -71.68     579.5234     1.075           15     0.944      2.925     79.54143  21.1423        333
 6.25   0.2261    578.2902   1555.9836   1.85     382.2518     0.741           15     0.685      2.633     79.57745  21.5941        334
 4.25   0.2988    577.9362    694.9722  48.91     289.1901     0.801           15     0.763      2.353     79.57745  21.8970        335
 4.63   0.0842    584.4149   1171.3857  -1.89      1025.97     1.178           15     1.031      2.553     79.56844  20.5222        336
 3.50   0.8659    581.6339   1485.3845  21.76     99.80319     0.911           15     0.783      1.736     79.57745  23.0521        337
 5.91   0.2974    582.4998   1183.7992  89.48      290.403     0.951           15     0.733      2.848     79.53242  21.8925        338
 4.35   0.1601    583.6613    209.6293  40.40     539.6451     0.985           15     0.860      2.412     79.57745  21.2197        339
 4.22   0.1062    587.5735   1137.8687 -13.30     814.1167     1.082           15     0.926      2.094     79.57745  20.7733        340
 3.50   0.0726    997.2489    231.6879 -45.36     1190.141     1.222           15     1.169      2.477     79.52341  20.3610        341
 3.84   0.1140   1598.6643    709.2864   9.91     612.7515     1.296           15     0.906      2.532     64.34692  21.0818        342
 3.77   0.0153   1596.5712    653.1467 -22.61     5108.579     2.113           15     2.024      4.145     71.94702  18.7792        343
 5.26   0.0430   1599.1162     17.0043   3.59      1578.59     1.927           15     0.882      4.364     62.48303  20.0543        344
 3.50   0.0287   1593.4677    372.3283  55.12     2989.954     1.714           15     1.434      3.310     79.14417  19.3608        345
 8.48   0.2823   1593.4901    299.4872  45.17     304.4141     0.505           15     0.494      2.908     79.12606  21.8413        346
 4.81   0.0866   1590.3218    565.2696  12.19     996.6229     1.090           15     1.009      2.266     79.50539  20.5537        347
 5.12   0.1798    924.6558    308.9607 -63.67     480.7342     0.904           15     0.680      2.171     79.57745  21.3452        348
 4.69   0.5857    924.1212    932.8450  44.49     147.4619     0.819           15     0.672      2.220     79.53242  22.6283        349
 5.29   0.2377    918.7391   1343.1337  67.03     363.3011     0.904           15     0.679      2.291     79.53242  21.6493        350
 3.50   0.6155    916.6985   1111.4067 -71.93     140.3504     0.945           15     0.613      2.068     79.54143  22.6820        351
 3.90   0.1203    913.7256   1117.9791  42.97     718.5319     1.244           15     1.026      2.850     79.59544  20.9089        352
 3.50   0.0217    911.7667    837.0067  37.12     3978.907     1.355           15     1.304      2.426     79.58644  19.0506        353
 3.50   0.0386    911.3054    999.6420  24.80     2237.658     1.219           15     1.175      2.178     79.49638  19.6755        354
 6.99   0.8790    911.4835    457.5421 -54.55     98.25274     0.501           15     0.497      2.092     79.52341  23.0691        355
 5.25   0.1114    909.3325   1573.9618  -1.64     776.0209     1.186           15     0.984      2.716     79.56844  20.8253        356
 6.41  99.0000    909.2690    758.5991 -71.28   -0.1389394     0.749           15     0.451      2.404     79.60445  99.0000        357
 5.04   0.0698    907.8105      3.4959  -7.19      1069.82     1.307           15     1.081      3.316     68.77041  20.4767        358
 4.56   0.0786    907.0887    657.8475  43.72     1099.414     1.223           15     1.186      3.103     79.52341  20.4471        359
 4.94   0.1477    903.2176    733.5343  10.01     585.2768     0.954           15     0.909      2.044     79.58644  21.1316        360
 3.50   0.0026    899.4393    301.1285 -80.47     32810.98     1.700           15     1.660      2.676     79.56844  16.7600        361
 3.99   0.0114    895.2024    537.0011   7.32     7576.118     2.365           15     1.971      4.569     79.58644  18.3514        362
 4.34   0.3320    899.2005    449.7508 -46.26      260.456     0.736           15     0.557      1.691     79.62244  22.0107        363
 3.50   0.3081    898.5992    378.3526 -44.08     280.6189     0.989           15     0.830      1.974     79.62244  21.9297        364
 3.80   0.0808    896.2007    985.9028 -65.28     1068.839     1.349           15     1.096      2.631     79.55043  20.4777        365
 6.04   0.3221    897.3219    727.9781   1.55     268.3339     0.729           15     0.672      2.787     79.57745  21.9783        366
 3.50   0.0464    892.9716   1424.8123 -15.48     1862.341     1.348           15     1.271      2.765     79.58644  19.8749        367
 6.54   0.0966    894.1020   1570.1129  -6.01     893.2162     0.902           15     0.751      3.915     79.47836  20.6726        368
 3.50   0.0001    879.3785   1591.1549 -62.18     582825.7     2.163           15     2.036      2.802     79.58644  13.6362        369
 4.38   0.0196    887.5998    324.2739  12.94     4415.132     2.317           15     1.681      4.454     79.59544  18.9376        370
 3.50   0.0705    887.6968    679.4929 -39.65      1224.67     1.485           15     1.173      2.814     79.48737  20.3300        371
 4.62   1.1912    888.2027    989.3417  74.47     72.59327     0.742           15     0.447      1.690     79.62244  23.3978        372
 3.50   0.0198    884.8168   1498.7977 -46.66     4355.686     1.366           15     1.290      2.338     79.55043  18.9524        373
 7.82   0.1310    886.6954     12.8620 -31.07     659.0891     0.871           15     0.602      4.167     79.53242  21.0026        374
 4.81   0.0322    883.8887    337.3006  26.18     2684.614     2.122           15     1.365      4.990     79.47836  19.4778        375
 6.24   0.2279    882.1483    443.6690  20.73     378.9305     0.902           15     0.688      2.943     79.53242  21.6036        376
 3.50   0.0702    878.5627    670.3316 -29.48     1231.347     1.540           15     1.409      3.570     79.56844  20.3240        377
 3.50   0.0366    876.5948    959.5047 -79.09     2357.741     1.289           15     1.221      2.371     79.55043  19.6188        378
 3.98   0.0619    875.3674    540.0736 -52.83     1396.655     1.226           15     1.152      2.462     79.55043  20.1873        379
 3.50   0.0063    868.4336   1102.0602 -58.18     13692.74     2.098           15     1.880      3.654     79.57745  17.7088        380
 3.50   0.0165    866.6861    937.9076  43.73     5226.476     2.547           15     1.557      4.102     79.49638  18.7545        381
 3.50   0.0642    868.3865    642.1345  64.28     1346.761     1.208           15     1.085      2.247     79.60445  20.2268        382
 3.86   0.4944    868.9888   1434.9374   8.40     174.8663     0.789           15     0.770      2.129     79.61344  22.4432        383
 3.50   0.1217    865.7175    453.1240 -24.91     709.6508     1.218           15     1.040      2.685      79.5144  20.9224        384
 6.56   0.3323    865.8102    814.8403  45.72     260.1047     0.755           15     0.565      2.688     79.57745  22.0121        385
 3.50   0.2089    863.9714   1477.8024  47.19     413.5746     1.102           15     0.956      2.345     79.55043  21.5086        386
 5.85   0.1460    863.2290    772.0788   9.50      591.907     1.228           15     0.837      3.544     79.55043  21.1194        387
 5.98   0.0809    863.4698    353.5137  30.65     1067.108     1.029           15     1.016      4.099     79.50539  20.4795        388
 3.50   0.0942    859.6398   1552.9724  32.19     917.5497     1.148           15     0.968      2.316     79.59544  20.6434        389
 5.09   0.1793    861.0914    635.3044  14.31     481.4532     1.009           15     0.758      3.078     79.48737  21.3436        390
 3.50   0.0373    857.4657   1338.7916 -83.66     2319.629     1.519           15     1.107      2.535     79.62244  19.6365        391
 6.89   0.0868    857.5911    572.8773 -26.69     995.6466     1.630           15     0.770      4.612     79.59544  20.5547        392
 4.26   0.0512    854.6438    543.5765 -83.91     1688.384     1.617           15     1.270      3.686     79.58644  19.9813        393
 7.42   0.1846    854.8513   1428.6572 -19.16     467.9839     0.935           15     0.687      3.385     79.55944  21.3744        394
 6.92   0.3422    854.9912    685.0032  43.99     252.4545     0.917           15     0.527      2.865     79.54143  22.0445        395
 6.15   0.1438    854.0582   1346.4340  -1.78     600.8792     1.030           15     0.777      3.448     79.58644  21.1030        396
 7.69   0.6828    847.9819   1458.7313 -88.90     126.6025     0.671           15     0.443      2.613     79.59544  22.7939        397
 5.40   0.1418    846.7172   1562.2914  43.95     609.1736     0.950           15     0.757      2.843     79.52341  21.0881        398
 5.26   0.0442    845.4421    359.5751   0.35     1956.114     2.402           15     1.473      6.523     79.60445  19.8215        399
 3.50   0.0350    843.9017   1062.4144 -66.76     2466.503     1.299           15     1.234      2.371     79.54143  19.5698        400
 3.50   0.0148    842.4244   1104.7135  23.53     5846.343     1.893           15     1.500      3.308     79.56844  18.6328        401
 6.49   2.4842    841.5250   1496.4904 -43.62     34.75693     0.505           15     0.494      1.908     79.50539  24.1974        402
 5.87   0.2311    839.9103    545.6884 -21.13     373.5469     0.925           15     0.681      2.642     79.48737  21.6191        403
 5.63   0.1452    837.5941    898.5250 -48.44     595.4727     1.330           15     0.892      3.994     79.61344  21.1128        404
 3.50   0.1026    836.8246    990.4078 -12.61     842.1183     1.278           15     1.128      2.570     79.56844  20.7366        405
 3.50   0.0114    835.5145    297.0743 -21.56     7566.235     1.481           15     1.463      2.605     79.50539  18.3528        406
 3.50   0.0888    835.7469   1519.0468 -32.55     972.9029     1.132           15     1.030      2.112     79.57745  20.5798        407
 4.21   0.6615    837.2447    493.3615  72.92     130.6887     0.745           15     0.448      1.954     79.60445  22.7594        408
 3.50   0.0517    834.6254    817.6035 -27.22     1672.182     1.266           15     1.166      2.365     79.55944  19.9918        409
 7.43  99.0000    830.7037   1057.6527 -42.48    -202.7333     0.566           15     0.338      1.876      79.5144  99.0000        410
 3.50   0.0025    822.0414    652.7550  82.83     33901.75     1.739           15     1.725      2.713     79.57745  16.7244        411
 6.26   0.2898    825.9578    597.4583 -88.91     298.1549     0.785           15     0.498      2.416     79.55043  21.8639        412
 4.77   0.2135    823.8602    673.1241  46.34     404.6443     0.815           15     0.674      1.951     79.54143  21.5323        413
 4.22   0.1350    821.0692    329.1193 -57.14     639.9198     1.069           15     0.848      2.359     79.52341  21.0347        414
 3.50   0.1340    818.8883   1397.0548 -47.99     644.6508     1.091           15     1.064      2.035     79.52341  21.0267        415
 5.71   0.1813    818.5995   1574.1520 -79.31     477.0341     0.861           15     0.603      2.241     79.62244  21.3536        416
 3.50   0.0878    817.9454    701.0992  -5.45     983.5373     1.095           15     1.079      2.342     79.48737  20.5680        417
 7.24   1.8655    818.4544    745.4844 -23.65      46.2903     0.500           15     0.497      2.479      79.5144  23.8863        418
 3.50   0.0551    814.6810    876.8893  83.37     1566.051     1.616           15     1.435      3.515      79.5144  20.0630        419
 7.06   0.2607    816.5355    598.5270 -41.29     331.2645     0.501           15     0.497      2.308     79.52341  21.7496        420
 3.50   0.1927    818.0857    777.6890 -59.97     448.0358     1.300           15     0.811      2.572      79.5144  21.4217        421
 3.50   0.0785    808.9895   1543.1666  57.66     1101.402     1.136           15     1.036      1.992     79.58644  20.4451        422
 3.50   0.2346    808.5921    842.6832 -70.50     368.3695     0.919           15     0.796      2.015     79.55944  21.6343        423
 7.30   0.1490    826.0181    666.4921  87.92     579.9771     0.789           15     0.499      2.661     79.55944  21.1415        424
 3.50   0.0028    802.1636   1377.2766 -69.91     30816.35     1.736           15     1.651      2.675     79.55043  16.8280        425
 3.50   0.0010    797.5810    694.0712 -88.16     89750.55     2.540           15     1.802      3.768     79.61344  15.6674        426
 3.50   0.0059    799.6675     39.3221 -29.10     14597.76     1.807           15     1.542      2.776     79.49638  17.6393        427
 7.01   0.1394    800.8705   1595.1715  49.26     591.3759     0.799           15     0.678      4.069     75.92902  21.1203        428
 4.82   0.0603    793.4406    293.9878 -72.35     1433.529     1.487           15     1.192      4.033     79.57745  20.1590        429
 4.22   0.4211    785.3290   1347.5829  22.92      205.306     0.892           15     0.783      1.799     79.61344  22.2690        430
 3.50   0.0066    773.2756   1425.9465 -89.53     12994.43     3.775           15     2.243      6.170     79.52341  17.7656        431
 7.53  99.0000    778.2861   1366.3441 -41.89    -114.5507     0.560           15     0.340      2.077      79.5144  99.0000        432
 3.94   0.0420    767.0451    138.3304 -52.97     2055.937     1.580           15     1.419      3.361     79.54143  19.7675        433
 3.80   0.1188    766.5131    928.8765  38.23     726.7689     1.226           15     1.123      2.663     79.49638  20.8965        434
 3.50   0.1354    763.4185    565.9860 -13.80     638.3343     1.121           15     0.932      2.342     79.55944  21.0374        435
 6.87   3.6168    763.5124   1010.5046  44.84      23.8645     0.512           15     0.488      1.935     79.47836  24.6056        436
 6.14   0.4387    762.5088   1570.5133 -45.38     196.7726     0.504           15     0.496      1.830     79.48737  22.3151        437
 3.50   0.0774    756.5867   1339.8333 -42.46     1116.745     1.989           15     1.058      3.636     79.57745  20.4301        438
 5.90   0.3731    758.4918    540.5508  71.42     231.4738     0.500           15     0.497      1.655     79.52341  22.1387        439
 5.95   0.1221    757.3130    104.2901 -57.36     707.2205     1.097           15     0.892      3.577     79.48737  20.9261        440
 4.51   0.0331    753.7781    194.2249  70.13     2611.123     2.055           15     1.887      4.981     79.57745  19.5079        441
 8.63   0.1965    753.5063    163.4724  54.39     439.4221     0.501           15     0.498      3.004     79.52341  21.4428        442
 3.50   0.1762    751.6179   1078.6741 -49.49     490.5851     1.048           15     0.892      2.315     79.61344  21.3232        443
 5.97  99.0000    746.5100   1108.5317  64.24    -84.15541     0.500           15     0.499      1.817      79.5144  99.0000        444
 6.87   0.0453    743.6679    839.2269  -5.82      1905.82     1.520           15     1.427      7.191     79.57745  19.8498        445
 6.32   0.1660    744.9675    833.1708 -58.87     520.6937     1.061           15     0.660      2.843     79.58644  21.2585        446
 3.50   0.0111    741.8317    554.6776 -39.14     7775.976     1.558           15     1.484      2.703     79.55944  18.3231        447
 4.98   0.6577    740.4764    917.9952   2.69     131.4147     0.789           15     0.499      1.889     79.58644  22.7534        448
 7.42   0.1790    740.0167    120.9845  43.41     482.6406     0.896           15     0.533      3.019     79.56844  21.3409        449
 3.50   0.2957    738.4902   1271.3287  50.55     292.0912     1.127           15     0.782      2.513     79.52341  21.8862        450
 3.50   0.0311    737.0906   1156.6687 -48.73     2776.879     1.332           15     1.237      2.339      79.5144  19.4411        451
 3.50   0.0002    725.6438    846.8092  -8.10     347326.7     2.092           15     2.050      2.829     79.58644  14.1982        452
 3.56   0.0274    735.1107    648.1402   1.49     3151.119     1.314           15     1.279      2.448     79.52341  19.3038        453
 8.06   1.2157    732.6804     95.6733 -44.66     71.03938     0.568           15     0.338      2.324     79.52341  23.4213        454
 6.22   0.0894    729.0665    751.7090  80.10     966.6313     1.363           15     0.980      4.624     79.53242  20.5868        455
 3.50   0.0160    726.5311   1176.7500 -35.84     5398.352     1.427           15     1.384      2.535     79.53242  18.7193        456
 3.50   0.3279    727.9200   1542.3892 -15.43     263.5782     0.984           15     0.733      1.962     79.58644  21.9977        457
 3.50   0.0443    720.4925   1393.5988   9.56      1948.75     1.516           15     1.226      2.836     79.54143  19.8256        458
 3.78   0.2024    721.3456    260.6550 -42.60     426.8999     0.999           15     0.873      2.558     79.55944  21.4742        459
 3.50   0.0124    714.8616    806.8423  -2.43     6967.903     1.453           15     1.415      2.549     79.56844  18.4422        460
 3.50   0.0125    708.0568   1162.3643  25.23     6920.161     1.431           15     1.423      2.509     79.58644  18.4497        461
 5.49   0.1114    709.3889    193.4371  40.53     775.5018     1.342           15     0.903      3.638     79.57745  20.8260        462
 3.50   0.0128    703.9196   1337.5720 -22.92     6743.476     1.897           15     1.704      3.266     79.56844  18.4778        463
 3.50   0.0068    701.9553    950.9884 -45.14     12801.97     1.654           15     1.543      2.718     79.57745  17.7818        464
 6.30   0.2312    704.7881    610.4400 -69.71     373.8286     0.747           15     0.451      2.209     79.57745  21.6183        465
 9.47   0.1229    704.5004    603.4851  45.60     702.0573     0.505           15     0.495      3.031     79.46935  20.9341        466
 5.98   0.2495    702.2057    632.3746  73.41     346.3476     0.728           15     0.456      2.012     79.57745  21.7012        467
 4.72   0.3585    700.6744    649.9207   6.43     240.9368     0.736           15     0.659      1.999     79.53242  22.0952        468
 4.15   0.0260    697.9974    581.0242   6.67     3327.887     2.426           15     1.403      4.332     79.55944  19.2446        469
 5.82   0.4270    696.0619   1199.0396  43.69     202.3884     0.869           15     0.534      2.414     79.56844  22.2845        470
 4.42   0.1649    695.5082    275.3399 -46.93     523.6996     0.985           15     0.851      2.899     79.52341  21.2523        471
 3.50   0.0258    690.8049   1212.2382  38.79     3348.279     1.743           15     1.402      3.177     79.56844  19.2379        472
 3.51   0.0363    685.6292   1212.3169 -12.19     2378.136     1.344           15     1.157      2.457     79.56844  19.6094        473
 5.86   0.2063    688.7242    666.9899  65.11     419.2008     1.003           15     0.597      2.930     79.61344  21.4939        474
 3.50   0.0081    684.5392    642.6725 -87.73     10696.27     1.757           15     1.587      2.831     79.54143  17.9769        475
 3.50   0.0531    686.5309    129.1956 -68.31      1627.03     1.222           15     1.194      2.342     79.60445  20.0215        476
 5.50   0.5657    686.2997   1043.4269  30.75     152.6546     0.951           15     0.534      1.965      79.5144  22.5907        477
 5.18   0.4403    683.1298   1564.1487 -47.60     196.1592     0.821           15     0.675      2.504     79.53242  22.3185        478
 5.90   0.1795    676.3763    199.5715  13.30     481.4948     0.952           15     0.801      3.027     79.58644  21.3435        479
 4.39   0.3372    674.9564   1163.1382   1.42     256.2424     0.921           15     0.751      2.322     79.55944  22.0284        480
 5.03   0.0727    671.9017    229.6998  15.72     1188.203     1.293           15     1.122      3.620     79.48737  20.3628        481
 4.55   0.0400    668.2275   1219.9333 -72.12     2161.132     1.550           15     1.474      4.023     79.56844  19.7133        482
 3.50   0.1247    665.8412   1178.6086 -73.27     693.2886     1.061           15     0.934      1.993     79.58644  20.9477        483
 3.50   0.4378    665.4398   1068.4226  47.86     197.4181     0.995           15     0.848      2.262     79.58644  22.3115        484
 5.39   0.2885    661.9376     80.7693   1.96     299.5179     0.935           15     0.741      2.356     79.56844  21.8589        485
 3.50   0.0003    647.4383   1462.9248 -65.69     341851.1     2.033           15     1.959      2.767     79.55944  14.2154        486
 3.50   0.0274    653.7339    869.2443 -79.24     3150.968     1.348           15     1.292      2.504     79.55944  19.3039        487
 5.56   0.1059    649.5137   1159.3687 -16.72     815.7953     1.369           15     0.895      3.825     79.56844  20.7710        488
 6.77   0.1637    646.1516   1152.8938  42.03     527.4915     0.842           15     0.668      2.957     79.50539  21.2445        489
 4.07   0.0480    644.7930    651.3752 -43.29     1800.825     1.258           15     1.211      2.869     79.58644  19.9113        490
 3.51   0.0612    640.3278    274.9030 -27.79     1411.327     1.396           15     1.143      2.722      79.5144  20.1759        491
 8.71   0.1379    636.4829    646.4597  69.64     626.3052     0.500           15     0.498      3.000     79.52341  21.0580        492
 3.50   0.0267    629.7294    804.6353  57.10     3237.369     1.347           15     1.284      2.371     79.57745  19.2745        493
 3.50   0.2285    630.3719    853.8053 -21.80      378.212     1.096           15     0.863      2.572     79.56844  21.6057        494
 7.22   0.4238    631.4944     67.4594 -47.98     203.7857     0.507           15     0.491      2.236     79.52341  22.2771        495
 3.50   0.3896    628.4142    940.7632 -89.84     221.8535     0.920           15     0.723      2.029     79.59544  22.1848        496
 4.49   0.2195    625.8839    131.8183 -48.93      393.669     0.823           15     0.662      2.478     79.57745  21.5622        497
 3.50   0.0156    622.6724   1580.3527  13.45     5522.625     1.402           15     1.390      2.505     79.54143  18.6946        498
 6.10   0.1154    623.9185    342.5090   5.19      748.527     1.334           15     0.903      4.050     79.53242  20.8645        499
 6.64   0.6352    622.9833   1077.7543 -89.15     136.0792     0.680           15     0.430      1.924     79.58644  22.7155        500
 3.67   0.0333    617.2492   1150.4242 -12.63     2596.688     2.261           15     1.411      4.219     79.60445  19.5140        501
 6.28   0.0869    618.4885     93.1205 -24.59     993.3765     1.295           15     0.927      4.339      79.5144  20.5572        502
 3.50   0.2319    615.5867    117.1060 -73.69     372.5544     0.995           15     0.741      2.132     79.55043  21.6220        503
 6.30   0.1500    614.1476    288.1102 -44.12     575.7631     0.829           15     0.670      2.906     79.54143  21.1494        504
 3.50   0.2309    610.5753    994.0144  -0.25     374.2079     1.143           15     0.948      2.440     79.55043  21.6172        505
 4.38  99.0000    610.1757    961.7768  47.67    -39.53831     0.782           15     0.667      1.691     79.58644  99.0000        506
 3.50   0.0873    608.4755    943.9404  49.50     989.7884     1.213           15     0.989      2.204     79.54143  20.5611        507
 3.50   0.3451    606.5281   1009.5546 -58.12     250.3307     0.876           15     0.865      1.935     79.54143  22.0537        508
 4.01   3.5698   1540.0460    328.3202  81.78     24.19535     0.725           15     0.669      1.912     79.53242  24.5907        509
 6.14   0.1285    601.7967    763.1487  43.01     672.9885     0.821           15     0.670      2.905     79.62244  20.9800        510
 6.00   0.1616    598.2537    666.6852 -64.15     534.5294     1.101           15     0.878      3.698     79.52341  21.2301        511
 7.70   0.3653    597.5757    356.2340 -19.66     236.6046     0.749           15     0.451      3.336     79.57745  22.1149        512
 4.96   0.3131    595.9663   1124.0198 -47.83     276.0772     0.796           15     0.776      2.764     79.58644  21.9474        513
 4.29   0.1111    592.9527    881.0997  71.99     776.8152     1.215           15     1.098      3.124     79.46033  20.8242        514
 4.35   0.0614   1592.2582   1383.2957 -11.28     1406.847     1.526           15     1.129      3.280     79.50539  20.1794        515
 5.12  99.0000   1552.9885   1370.2683 -84.68    -29.28679     0.732           15     0.663      1.752     79.61344  99.0000        516
 3.50   0.1729   1537.6019    261.7692 -29.99     499.8488     1.067           15     0.935      2.222     79.55944  21.3029        517
 3.50   0.0124   1583.9221   1107.3611  85.18     6974.625     1.496           15     1.456      2.633     79.55043  18.4412        518
 3.50   0.0048   1540.7058    133.3067 -30.45     17840.14     1.597           15     1.574      2.672     79.48737  17.4215        519
 5.40   0.0524   1584.9180   1068.0917 -36.90     1647.711     1.156           15     1.084      3.341     79.54143  20.0078        520
 4.74   0.1565   1495.4766    928.6411 -51.51     552.0866     1.114           15     0.767      2.562     79.55043  21.1950        521
 6.04   0.7259   1588.4656   1334.4880  43.28     119.0076     0.508           15     0.491      1.853     79.54143  22.8611        522
 3.50   0.0797   1580.4094   1412.8583  60.08      1085.61     1.413           15     1.197      2.668     79.62244  20.4608        523
 6.60   0.0628   1533.5510    973.9435 -45.96     1374.734     1.599           15     1.063      6.352     79.55944  20.2045        524
 3.50   0.0329   1531.6090    414.0503   4.22     2624.995     1.813           15     1.592      3.679     79.61344  19.5022        525
 3.50   0.1270   1574.2085   1489.8726  48.94     680.4927     1.094           15     0.981      1.886     79.59544  20.9679        526
 5.47   0.1260   1585.3646    639.9453  55.17     685.7516     1.007           15     0.830      3.025     79.57745  20.9596        527
 4.00   0.2217   1570.4760   1337.0015  61.29     389.7896     0.979           15     0.669      2.341     79.58644  21.5729        528
 8.47   0.2005   1585.4020   1081.1866  19.32      430.877     0.746           15     0.449      2.838     79.55043  21.4641        529
 5.82   0.1968   1556.3767    736.7157 -18.27     439.0498     0.913           15     0.634      2.635     79.55944  21.4437        530
 7.10   0.1116   1552.9561   1231.5955  13.46     774.7961     0.994           15     0.749      4.726     79.59544  20.8270        531
 3.50   0.0101   1569.3855     90.9244 -41.91     8531.479     1.547           15     1.465      2.632     79.61344  18.2224        532
 6.11   0.2523   1563.3801   1056.7480 -16.56     342.6091     0.735           15     0.457      2.050     79.58644  21.7130        533
 5.13   0.1000   1534.6698    918.3033 -41.64     863.7854     0.969           15     0.847      2.557     79.54143  20.7090        534
 3.50   0.0003   1562.5890    302.4531 -45.85     302821.2     2.014           15     1.964      2.789     79.61344  14.3470        535
 3.50   0.0160   1560.2655    859.8251  74.07      5411.28     1.435           15     1.356      2.568     79.57745  18.7167        536
 3.50   0.0078   1565.5536     20.2132  87.94     11054.63     1.566           15     1.552      2.662     79.57745  17.9411        537
 4.80   0.1054   1537.9054    504.3604 -79.66      818.752     1.326           15     1.004      3.617     79.49638  20.7671        538
 3.50   0.2206   1561.7708   1564.7494 -64.12     391.8938     1.056           15     1.024      2.333     79.59544  21.5671        539
 3.50   0.0009   1551.5602    680.5723 -23.98     91454.04     5.059           15     4.234      8.834     79.59544  15.6470        540
 3.75   0.0679   1561.5504    384.5741 -86.12      1272.47     1.969           15     1.012      3.960     79.61344  20.2884        541
 3.81   0.0162   1545.0364    861.9048  43.89     5345.361     1.943           15     1.700      3.775     79.50539  18.7301        542
 3.62   0.0114   1564.7646    782.9753 -75.08     7562.361     2.289           15     1.662      4.015     79.56844  18.3534        543
 3.50   0.0003   1557.0251    485.9522 -48.14     300324.2     2.023           15     1.971      2.754     79.60445  14.3560        544
 6.15   0.2045   1551.1417    131.7934  45.45     422.8392     0.821           15     0.672      2.939     79.62244  21.4846        545
 4.06   0.0360   1549.9312   1220.6552 -15.27     2398.331     1.317           15     1.206      2.694     79.53242  19.6002        546
 3.50   0.0529   1535.1492   1427.4189 -48.79     1633.624     2.269           15     1.117      3.585     79.58644  20.0171        547
 3.50   0.2100   1550.4473    350.6767  67.18     411.3382     0.938           15     0.819      2.167     79.53242  21.5145        548
 6.23   0.1805   1534.5162   1151.1300 -54.21     478.4029     0.909           15     0.671      2.790     79.50539  21.3505        549
 3.50   0.8305   1551.0107   1512.1771   1.13     104.0383     0.881           15     0.749      1.896     79.55944  23.0070        550
 5.45   0.0628   1527.4613    731.5829  51.89     1375.132     1.479           15     1.129      3.767     79.55944  20.2041        551
 6.31   0.4427   1528.1403    548.5298 -30.90      195.167     1.042           15     0.466      2.415     79.55043  22.3240        552
 6.37   0.1971   1508.4961   1207.4698 -54.80      438.137     0.501           15     0.498      1.848     79.53242  21.4460        553
 3.50   0.0312   1481.3420    573.6694 -42.68     2771.677     2.344           15     1.538      4.073     79.54143  19.4431        554
 3.50   0.0067   1541.5586    652.9531 -77.26     12931.17     1.612           15     1.584      2.692     79.58644  17.7709        555
 6.87   0.1718   1535.1721   1059.8419 -49.98     503.1094     0.753           15     0.567      2.809     79.59544  21.2958        556
 7.75   1.4140   1529.3199    894.3311 -44.47     61.06798     0.570           15     0.337      2.022      79.5144  23.5855        557
 5.11   0.0728   1521.6088     12.4769  -7.77      1187.15     1.164           15     1.074      2.781     79.59544  20.3637        558
 4.90   0.0426   1518.9514   1099.4447 -74.39      2028.89     1.797           15     1.408      4.219     79.58644  19.7819        559
 3.50   0.2366    931.4564   1116.4851   8.64     365.0239     1.019           15     1.005      2.271     79.52341  21.6442        560
 3.50   0.0646   1518.1683     83.3237  15.59     1338.028     1.472           15     1.288      3.277     79.55944  20.2338        561
 3.50   0.0005   1506.1298    267.6162 -47.10     164012.7     1.913           15     1.896      2.756     79.61344  15.0128        562
 3.50   0.0802   1522.6522    377.0815  64.85      1077.07     1.751           15     1.044      3.467     79.52341  20.4694        563
 3.50   0.0381   1514.4874   1545.7643  74.89     2264.973     1.728           15     1.297      3.150     79.54143  19.6623        564
 4.91   0.1371   1526.1040    877.5257 -49.22     629.9984     1.023           15     0.927      2.802     79.52341  21.0517        565
 7.30   0.2637   1524.4740   1214.5237  44.72     327.4705     0.505           15     0.493      2.146     79.52341  21.7621        566
 7.12   0.2035   1511.4639      3.5066  40.99     367.3269     0.504           15     0.495      2.384     68.83288  21.6374        567
 5.75   0.0919   1503.3700   1310.4868  39.29     940.2386     1.047           15     0.937      3.448     79.56844  20.6169        568
 3.50   0.0021   1513.8733    390.9593   5.83     40248.13     1.729           15     1.693      2.666     79.55944  16.5381        569
 5.31   0.1605   1500.3174    678.8658  69.82     537.8376     0.944           15     0.676      2.429     79.50539  21.2234        570
 3.52   0.0401   1513.5613    482.0047 -34.15     2154.151     1.236           15     1.187      2.345     79.56844  19.7168        571
 4.81   0.2612   1496.0406   1123.2915  87.25     330.5906     0.731           15     0.665      1.927     79.50539  21.7518        572
 8.03   0.1687   1491.4912   1094.4882 -45.23     511.7682     0.504           15     0.496      3.023     79.49638  21.2773        573
 5.69   0.0747   1502.9541   1095.0155 -33.18     1156.347     1.143           15     1.119      3.703     79.57745  20.3923        574
 4.67   0.1821   1501.4293   1412.0208  86.71     474.5847     1.052           15     0.777      2.572     79.56844  21.3592        575
 5.68   0.8561   1470.8156    428.6272  73.27     100.9417     0.747           15     0.452      2.134     79.57745  23.0398        576
 3.50   0.0209   1503.1013    721.7958  86.02     4128.192     1.452           15     1.342      2.585     79.55043  19.0106        577
 6.42   0.2249   1465.1569    117.1400  45.47     384.2737     0.764           15     0.574      2.649     79.56844  21.5884        578
 4.11   0.1871   1496.6438    671.8790 -68.72     461.5721     0.852           15     0.694      1.848     79.54143  21.3894        579
 4.53   0.1930   1496.9937   1231.2518   3.86     448.0446     0.885           15     0.749      2.105     79.63144  21.4217        580
 5.09   0.1624    952.3457   1502.9412 -74.55     531.9102     0.953           15     0.747      2.370     79.54143  21.2354        581
 3.50   0.0156    927.3387   1321.0692 -66.03     5546.195     1.490           15     1.389      2.604     79.53242  18.6900        582
 3.50   0.0634   1497.6678    842.9132 -81.73     1361.489     1.148           15     1.129      2.330     79.50539  20.2150        583
 3.77   0.0960   1475.9598    197.0665  16.39     900.5267     1.276           15     1.094      3.019     79.56844  20.6638        584
 3.71   0.0960    940.5369    724.2392  51.69     900.0529     1.253           15     1.154      3.200     79.56844  20.6643        585
 4.39   0.0506   1487.1908     76.3170  -5.75     1709.184     1.362           15     1.208      2.698     79.55944  19.9680        586
 3.50   0.0091    938.2679   1065.6361  78.67     9545.873     1.518           15     1.428      2.541     79.57745  18.1005        587
 6.58   0.2047   1493.3007    870.6550  48.87     421.7241     0.973           15     0.752      3.536     79.48737  21.4874        588
 4.75   0.1170    925.0792    664.7285  57.75     738.1074     1.136           15     1.000      3.044     79.52341  20.8797        589
 4.41   0.0231    937.2828    514.7414  60.58     3734.779     2.450           15     1.768      5.495     79.52341  19.1193        590
 7.95   0.2118   1482.4895    766.5070  44.88     407.7235     0.507           15     0.493      2.989     79.50539  21.5241        591
 3.50   0.0424    946.7222    443.5330  -8.94     2034.651     1.342           15     1.216      2.668     79.49638  19.7788        592
 6.96   0.1442   1125.0598    164.7228 -85.29     599.0032     0.729           15     0.669      3.331     79.53242  21.1064        593
 3.50   0.1859    949.3659    825.2734  22.84     464.8129     1.103           15     0.906      2.599     79.55043  21.3818        594
 6.48  99.0000    951.6313   1301.6997 -47.92    -32.58647     0.577           15     0.332      1.941     79.49638  99.0000        595
 4.01   0.0185   1399.6986   1029.9487  28.88     4653.162     1.765           15     1.515      3.396     79.46935  18.8806        596
 6.01   0.1025   1477.3461   1022.5084  46.49     842.3289     1.400           15     0.771      4.003     79.53242  20.7363        597
 3.82   0.0808   1437.7800    645.7078   3.42      1069.57     1.472           15     1.033      3.006     79.55944  20.4770        598
 3.94   0.0385   1437.7501   1269.6799 -57.52     2244.844     1.278           15     1.216      2.721     79.53242  19.6720        599
 6.39   0.2348   1401.2941     61.0093   0.56      367.965     0.740           15     0.671      2.516     79.55043  21.6355        600
 7.15   0.7822   1464.1952    446.6033 -70.86     110.4281     0.759           15     0.446      2.593     79.54143  22.9423        601
 6.63   0.1980   1474.9757   1569.1626   1.47     436.5186     0.929           15     0.765      3.627     79.56844  21.4500        602
 4.15   1.1210    954.2116   1027.9540  88.46     77.09386     0.891           15     0.746      1.954     79.57745  23.3324        603
 4.58   0.0295   1474.1271    996.7732 -17.04     2925.051     2.786           15     1.350      5.481     79.57745  19.3847        604
 3.50   0.0206    949.6531    652.6551  89.17     4186.045     2.301           15     1.607      4.209     79.55944  18.9955        605
 8.13   0.3312   1453.3553    660.3170 -46.60     260.8119     0.579           15     0.332      2.901     79.54143  22.0092        606
 5.86   0.1371    962.9711    422.4233   3.06     630.1722     1.054           15     0.774      3.447     79.57745  21.0514        607
 3.50   0.0048   1434.2593    223.0052 -34.69     17907.22     1.599           15     1.561      2.598     79.62244  17.4174        608
 4.11   0.1713   1456.9529    610.4000  86.60     504.7094     1.103           15     0.933      2.097     79.62244  21.2924        609
 7.40   0.1816   1461.2001   1381.2024 -45.48     475.8963     0.982           15     0.347      2.529     79.58644  21.3562        610
 4.93   0.2287    958.5584    891.6923 -66.47     377.4279     0.907           15     0.818      2.100     79.48737  21.6079        611
 3.50  99.0000   1436.1769    386.0578 -41.40    -51.24259     0.812           15     0.657      1.754     79.59544  99.0000        612
 5.30   0.3997   1453.9030    921.1025  44.42     215.9526     0.835           15     0.654      2.889     79.48737  22.2141        613
 3.58   0.0119   1150.1428     97.7475 -34.24     7233.475     1.522           15     1.414      2.614     79.55043  18.4016        614
 3.50   0.1795   1452.4902    389.9425  -2.38     481.0435     1.049           15     0.919      1.999     79.52341  21.3445        615
 6.26   0.3971   1453.5001    165.0627   2.38     217.4808     0.788           15     0.499      2.454     79.52341  22.2064        616
 7.81   0.4528   1436.7727    995.5588  70.04     190.9426     0.743           15     0.454      2.383     79.60445  22.3477        617
 4.13   0.1416   1448.3926     86.3629 -47.33     610.4898     1.023           15     0.926      2.218     79.58644  21.0858        618
 7.80  99.0000   1444.3118   1513.6656  43.90    -100.5397     0.568           15     0.338      1.846     79.54143  99.0000        619
 3.50   0.0023   1387.8724   1427.1166 -71.54     38320.52     1.694           15     1.675      2.649     79.50539  16.5914        620
 6.29   0.0214   1441.1157   1080.4375  41.33     4034.401     5.014           15     2.145     14.205     79.55944  19.0356        621
 6.80   0.3341   1437.4752    178.5237  44.91     258.5136     0.508           15     0.491      1.965     79.52341  22.0188        622
 7.04   0.1306   1431.5087   1279.1774 -47.31     661.2371     1.234           15     0.621      4.724     79.54143  20.9991        623
 3.67   0.0579   1445.3171    729.8318 -74.08     1491.167     1.171           15     1.106      2.241     79.55944  20.1162        624
 7.52   0.0765   1128.5692    872.3491  50.26     1130.113     1.096           15     0.945      6.146     79.59544  20.4172        625
 3.50   0.4578   1129.2723   1143.1709 -67.34     188.7446     0.894           15     0.672      2.014     79.56844  22.3603        626
 3.50   0.2725   1419.3446    427.6806 -38.79     316.8347     1.047           15     0.853      2.392      79.5144  21.7979        627
 7.81   0.1415   1436.1604   1370.9841 -35.83     611.0019     0.942           15     0.470      3.919     79.59544  21.0849        628
 3.50   0.0830   1435.2393   1345.9718 -43.42     1041.654     1.188           15     1.124      2.192     79.59544  20.5057        629
 3.50   0.0973   1410.8943    365.4972 -65.97      887.119     2.343           15     0.783      4.688     79.47836  20.6800        630
 3.50   0.0390   1431.2135    339.0968  20.60     2212.622     1.990           15     1.305      3.362     79.55043  19.6877        631
 4.16   0.1392   1128.6464    503.2986 -51.44     619.9375     0.994           15     0.868      2.210     79.46033  21.0691        632
 3.84   0.1158   1171.6482    231.0432 -46.36     746.6312     1.066           15     1.028      2.473     79.58644  20.8672        633
 3.50   0.0066   1438.7820    617.5147   4.87     13183.17     1.524           15     1.485      2.544     79.56844  17.7500        634
 4.70   0.0746   1402.8423   1361.7327  83.63      1158.24     1.140           15     1.077      3.370     79.55944  20.3905        635
 7.15   0.2079   1152.2003    574.8102 -43.26     415.4852     0.765           15     0.565      3.119     79.55043  21.5036        636
 3.50   0.0238   1410.1560    348.3412  51.54     3623.912     1.900           15     1.498      3.503     79.55944  19.1521        637
 3.50   0.0003   1164.2910   1298.2390 -59.60     256979.5     1.990           15     1.934      2.757      79.5144  14.5253        638
 7.19   0.1023   1402.3248   1343.8771 -74.55     844.2084     1.063           15     0.744      4.889     79.52341  20.7339        639
 3.50   0.2682   1172.3646    206.6083 -36.87     322.3125     0.984           15     0.859      2.020     79.58644  21.7793        640
 6.47   0.1525   1417.7408    105.0746 -29.06      566.196     1.123           15     0.779      3.953     79.53242  21.1676        641
 3.50   0.0101   1414.4266   1385.1614  46.25     8516.135     1.469           15     1.449      2.508     79.58644  18.2244        642
 3.50   0.0067   1407.1147    306.5825 -31.76     12857.92     1.536           15     1.465      2.543     79.56844  17.7771        643
 3.50   0.0331   1405.3016    328.1954 -37.62      2609.69     1.261           15     1.229      2.361     79.55043  19.5085        644
 5.76   0.2988   1386.4846    675.8115 -89.60      289.185     0.946           15     0.739      2.545     79.56844  21.8971        645
 3.50   0.5762   1422.7793   1595.5918  31.97     141.0217     1.065           15     0.783      2.418     74.81705  22.6768        646
 3.50   0.0002   1392.3254    112.7036 -56.48     410289.2     2.068           15     2.004      2.801     79.52341  14.0173        647
 3.50   0.0096   1391.2926   1037.2573 -48.51     9006.273     1.539           15     1.516      2.679      79.5144  18.1636        648
 3.50   0.0006   1318.9834    658.3448   4.52     154958.3     1.907           15     1.876      2.774     79.59544  15.0745        649
 3.92   0.1295   1361.6725    389.3143 -16.74     666.6641     1.392           15     0.890      2.799     79.50539  20.9902        650
 3.86   0.9561   1307.3774    792.8642 -18.88     90.40141     0.750           15     0.444      1.852     79.58644  23.1596        651
 6.97   0.2735   1383.4489      6.5013  15.45     307.3648     0.500           15     0.497      1.972     77.39607  21.8309        652
 5.91  99.0000   1305.5100    506.4787 -55.14    -201.2975     0.500           15     0.499      1.818     79.50539  99.0000        653
 4.19   0.1771   1302.2607     40.9732  89.54     488.1698     0.893           15     0.745      2.013     79.58644  21.3286        654
 7.20   0.1133   1400.5957     89.6927  -7.99      762.275     0.977           15     0.476      4.047     79.53242  20.8447        655
 5.16   0.0682   1391.6453   1533.0005 -74.64     1268.348     1.527           15     1.111      4.073     79.61344  20.2919        656
 3.50   0.0040   1277.2112   1329.9398 -81.87     21826.65     1.670           15     1.607      2.661     79.60445  17.2025        657
 5.09   0.0940   1385.0004   1273.9838 -87.13     919.1555     1.315           15     0.955      3.267     79.55043  20.6415        658
 4.05   0.0430   1387.8507    805.0400 -29.36     2010.388     1.230           15     1.207      2.376     79.56844  19.7918        659
 3.50   0.0065   1389.3979    711.6812  70.43      13198.4     1.634           15     1.546      2.698     79.57745  17.7487        660
 3.50   0.1555   1387.6274   1583.8241 -18.53     555.8146     1.134           15     0.917      2.439     79.58644  21.1877        661
 3.50   0.0733   1378.0994    317.4728 -15.04     1177.901     1.376           15     1.150      2.600     79.49638  20.3722        662
 3.53   0.0214   1303.8020    891.3098 -39.64     4030.008     1.359           15     1.336      2.472     79.53242  19.0367        663
 3.85   0.1393   1305.6521    572.7681 -17.18     620.4711     1.199           15     0.919      2.891     79.59544  21.0682        664
 6.93   0.3513   1388.4099   1020.1890  20.31     245.8974     0.746           15     0.446      2.383     79.53242  22.0731        665
 3.85   0.0266   1351.1841    150.2923  83.06     3248.088     2.464           15     1.713      5.204     79.56844  19.2709        666
 3.50   0.0047   1328.8596    654.2327  -0.39      18227.9     1.814           15     1.680      2.977     79.57745  17.3982        667
 6.05   0.1178   1384.6268   1383.2850 -19.26     733.4785     1.134           15     0.863      3.686     79.55944  20.8865        668
 3.50   0.0019   1371.5348   1017.4493 -34.23     45190.48     1.948           15     1.786      2.850     79.55043  16.4124        669
 8.50   0.3891   1370.6716   1405.6733 -45.08     221.8924     0.572           15     0.336      2.542     79.49638  22.1846        670
 4.62   0.3192   1369.9498    705.0203  41.73      270.753     0.784           15     0.760      2.304     79.57745  21.9686        671
 3.63   0.1092   1367.2496    147.8044  46.57      791.423     1.153           15     1.008      2.541     79.61344  20.8040        672
 3.50   0.6415   1351.9924    965.6970 -86.84     134.6882     0.730           15     0.674      1.722     79.55944  22.7267        673
 5.65   0.1165   1361.7979    525.0864 -83.79     741.9149     1.492           15     0.793      3.739     79.55944  20.8741        674
 4.94   0.0761   1305.3479    842.9401 -67.81     1134.463     1.273           15     1.226      3.976     79.54143  20.4130        675
 6.54   2.4092   1364.6437    360.7301 -49.77     35.85451     0.557           15     0.340      1.612     79.54143  24.1636        676
 3.99   0.1896   1351.8099    473.9129 -85.68     455.7624     0.896           15     0.747      2.062     79.56844  21.4032        677
 6.14   0.1910   1342.3513    988.7007 -12.86     451.9007     1.163           15     0.614      3.033     79.46033  21.4124        678
 3.50   0.1269   1345.9407    192.7328 -18.74      680.777     1.095           15     1.034      2.350     79.54143  20.9675        679
 3.50   0.0598   1345.2526    603.5727 -59.61     1445.369     1.416           15     1.254      2.780     79.59544  20.1501        680
 6.87   0.1168   1338.0420   1478.8149   3.64     739.7078     0.924           15     0.747      4.610     79.58644  20.8773        681
 3.50   0.0058   1306.4843    668.0394 -51.06     15023.84     1.963           15     1.619      2.856     79.55944  17.6080        682
 3.50   0.0371   1329.3904    385.2614   0.76     2332.106     1.317           15     1.245      2.462     79.61344  19.6306        683
 6.80   1.9484   1308.0303    295.4801  88.97     44.34478     0.802           15     0.499      2.227     79.55944  23.9329        684
 7.18  93.7313   1325.5175    582.4985 -44.01    0.9208612     0.504           15     0.495      1.982     79.47836  28.1395        685
 3.50   0.0196   1331.7177    105.6777 -30.20     4415.912     1.425           15     1.332      2.520     79.52341  18.9374        686
 6.40   0.1473   1299.1119    845.1188 -41.83     586.3721     0.823           15     0.665      3.768      79.5144  21.1296        687
 6.60   0.5760   1306.1716   1306.5820 -69.91     150.0158     0.728           15     0.453      2.417     79.56844  22.6097        688
 5.01   0.2719   1316.0168   1355.6858  85.56     317.8419     0.734           15     0.670      2.209     79.56844  21.7945        689
 7.41   0.5001   1325.6764    493.3161  45.38     172.6815     0.566           15     0.339      1.886      79.5144  22.4569        690
 5.23   0.0815   1324.2227    631.9188  10.71     1059.707     1.829           15     0.858      3.852     79.56844  20.4870        691
 3.50   0.0279   1318.3081    262.3835 -43.16     3096.232     1.325           15     1.272      2.428     79.56844  19.3229        692
 3.50   0.0001   1297.3156    723.3217 -20.30     965790.4     2.701           15     2.156      2.868     79.52341  13.0878        693
 4.70   0.2394   1311.0145    269.8142  29.53      360.882     0.793           15     0.495      1.633     79.56844  21.6566        694
 3.50   0.0190   1291.6217    411.0580  33.48     4558.544     1.389           15     1.364      2.510     79.59544  18.9029        695
 3.54   0.0515   1272.8245    696.5016 -45.82     1677.944     1.457           15     1.252      3.016      79.5144  19.9881        696
 3.50   0.0024   1290.3949    760.6170 -27.37     36003.75     2.292           15     1.741      3.178     79.55043  16.6591        697
 3.50   0.0015   1271.7925    608.2729 -57.95     57466.73     4.667           15     2.658      6.903     79.60445  16.1515        698
 3.65   0.0114   1211.9116   1427.8796  71.92     7582.686     2.929           15     2.356      5.657      79.5144  18.3504        699
 3.90   0.0653   1290.6599    544.2174 -22.07     1322.314     1.130           15     1.052      2.458     79.56844  20.2467        700
 3.91   0.0532   1298.1710     52.1966 -40.71      1625.23     1.167           15     1.128      2.444     79.56844  20.0227        701
 4.73   0.3773   1282.9822    860.6912 -87.39     228.9726     0.730           15     0.683      2.332     79.55944  22.1505        702
 3.95   0.1341   1282.2820   1567.5828 -26.26     644.5154     0.953           15     0.922      2.201     79.57745  21.0269        703
 3.91   0.0434   1261.1660    853.7747 -72.84     1988.938     1.343           15     1.191      2.654     79.56844  19.8034        704
 5.73   0.4193   1197.2484    411.0043   9.50     206.2143     0.726           15     0.678      2.231     79.61344  22.2642        705
 6.97   0.3470   1283.8115    335.5794  70.43     249.0266     0.733           15     0.454      2.116     79.55944  22.0594        706
 3.50   0.0588   1180.6753    174.5650  31.55     1468.462     1.240           15     1.192      2.320     79.55043  20.1328        707
 3.50   0.1250   1276.5549    341.9075   0.20     690.6625     1.034           15     0.932      2.062     79.49638  20.9518        708
 3.50   0.0125   1258.4600    430.8142  -1.79      6895.95     2.321           15     2.127      4.678     79.56844  18.4535        709
 3.50   0.1105   1261.2974    214.4021 -17.06     781.6053     1.149           15     1.049      2.201     79.55043  20.8175        710
 7.82   0.8626   1266.6520   1225.3042  47.06     100.0791     0.570           15     0.336      1.869     79.49638  23.0491        711
 5.91   0.0977   1175.6841     17.3702 -21.72     884.7698     1.513           15     0.855      4.050     79.55944  20.6829        712
 3.58   0.0417   1227.7882   1152.1394   0.47     2072.618     1.255           15     1.178      2.375     79.60445  19.7587        713
 5.38   0.1988   1222.0548    828.7744   4.01     434.9072     0.905           15     0.744      2.614     79.59544  21.4540        714
 3.50   0.0062   1233.3180    303.1342  28.83      13952.9     1.552           15     1.517      2.581     79.50539  17.6883        715
 4.52   0.0910   1242.9990    612.2227  22.63     949.6356     1.096           15     0.991      2.791     79.55944  20.6061        716
 5.57   0.2671   1243.4988   1537.5070 -45.16     323.1948     0.504           15     0.496      1.762     79.49638  21.7763        717
 3.50   0.0404   1236.5986     46.4781 -25.53     2139.644     1.261           15     1.241      2.386     79.58644  19.7241        718
 4.43   0.0669   1220.3372   1429.9244  59.01     1290.122     1.344           15     1.192      3.084     79.52341  20.2734        719
 6.94   0.3989   1223.4916    403.4926  44.85     216.3867     0.501           15     0.498      1.964     79.48737  22.2119        720
 3.50   0.0051   1264.4142    806.2877 -53.13     16950.82     1.593           15     1.571      2.629     79.56844  17.4770        721
 5.01   0.0179   1228.8615    597.3871   5.47     4826.974     2.081           15     2.001      6.181     79.58644  18.8408        722
 5.75   0.0514   1237.0851    855.9023 -73.54     1678.005     1.518           15     1.205      4.941     79.47836  19.9880        723
 4.34   0.1270   1184.2825    312.3333 -36.13     679.8657     0.998           15     0.910      2.067      79.5144  20.9689        724
 3.50   0.0101   1236.1543   1552.2007 -64.98     8578.369     1.582           15     1.452      2.638     79.61344  18.2165        725
 3.50   0.0018   1218.0138   1193.4822  60.90     49144.02     2.049           15     1.918      2.946     79.58644  16.3213        726
 4.85   0.0746   1209.7734    827.6089  22.76     1158.904     1.440           15     1.101      3.043     79.56844  20.3899        727
 3.50   0.0011   1213.5752    511.3511 -71.46     75663.92     1.824           15     1.812      2.743     79.60445  15.8528        728
 3.50   0.0017   1209.7395   1277.4863  80.71     49916.66     6.176           15     3.717      9.748     79.52341  16.3044        729
 3.55   0.0746   1203.2452   1216.0127  72.83     1159.207     1.166           15     1.061      2.313     79.57745  20.3896        730
 3.50   0.0105   1200.7378    337.4176 -86.10      8232.23     1.499           15     1.465      2.604     79.57745  18.2612        731
 4.93   0.7146   1196.2183   1199.2244  47.96      120.918     0.747           15     0.560      2.163     79.56844  22.8438        732
 7.42  99.0000   1186.3083   1131.6680  43.81    -45.33145     0.566           15     0.339      2.168     79.53242  99.0000        733
 8.31   0.2034   1219.6639     73.3258  45.46     424.6499     0.575           15     0.335      2.663      79.5144  21.4799        734
 3.50   0.0155   1200.0367   1440.7338  59.02     5561.152     1.878           15     1.677      3.498     79.57745  18.6871        735
 7.05   1.1297   1207.5237    394.5313  51.21     76.41852     0.500           15     0.498      2.149     79.49638  23.3420        736
 3.50   0.4987   1195.9851   1332.1587  -1.55     173.3114     0.903           15     0.752      2.103     79.58644  22.4529        737
 4.02   0.0810   1209.6367   1414.3615  10.28     1067.054     1.431           15     1.090      2.837     79.59544  20.4795        738
 3.50   0.0099   1206.7356    837.2420 -42.35     8714.483     1.525           15     1.459      2.594     79.55944  18.1994        739
 4.38   0.8231   1208.1086   1453.4905 -89.78      104.876     0.780           15     0.500      1.796     79.48737  22.9983        740
 4.01   0.0093   1194.0066    122.5322 -66.08     9298.965     2.595           15     2.094      5.289     79.61344  18.1289        741
 5.16   0.1309   1179.3643   1402.4216 -43.13      660.338     1.084           15     0.936      2.823     79.57745  21.0006        742
 3.72   0.0905   1176.0363   1597.4006 -76.06     829.6393     1.029           15     0.998      2.273     69.13403  20.7528        743
 7.09   0.5421   1192.6534   1420.2950  47.58     159.3196     0.566           15     0.338      1.855     79.52341  22.5443        744
 5.47   0.3305   1185.2479    389.9908  -3.32     261.5995     0.735           15     0.673      2.382     79.60445  22.0059        745
 5.82   0.1772   1185.9545   1232.9056  71.99     487.2034     0.967           15     0.706      2.728     79.49638  21.3307        746
 6.78   0.1597   1174.8807    251.6942 -20.68     540.8577     0.927           15     0.680      3.541      79.5144  21.2173        747
 5.31   0.0901   1146.6664    110.8157 -14.64     959.6564     1.115           15     0.936      2.547     79.59544  20.5947        748
 3.65   0.0294   1179.9652    547.8386  32.35     2938.985     1.345           15     1.310      2.586     79.58644  19.3795        749
 3.66   0.3594   1124.3577    274.8493  65.66     240.4731     0.871           15     0.691      1.801     79.58644  22.0973        750
 4.46   0.0430   1166.0645   1598.8287  86.76     1607.159     1.452           15     1.004      2.691     63.68671  20.0349        751
 6.89   0.4139   1154.3459   1123.8079 -16.13     208.9287     0.773           15     0.442      2.457     79.63144  22.2500        752
 7.66   0.1030   1178.2037   1306.0736  31.19     839.1092     1.002           15     0.647      5.234     79.61344  20.7405        753
 4.93   0.1048   1157.0204    184.1851 -56.26     824.1053     1.314           15     1.109      2.934     79.55043  20.7600        754
 3.96   0.0261   1160.7228    886.1577  -9.24     3312.922     1.344           15     1.222      2.489     79.55043  19.2495        755
 3.50   0.0181   1152.6722   1351.5509   3.54     4783.697     1.706           15     1.688      3.462     79.52341  18.8506        756
 5.77   0.1672   1155.5414    349.9696 -85.86      517.033     1.017           15     0.784      3.071     79.59544  21.2662        757
 7.08   0.2604   1161.4742      1.5288 -45.40     254.1712     0.505           15     0.493      2.336     60.93914  22.0372        758
 3.50   0.0029   1156.7539    234.6796 -63.99     29717.45     1.698           15     1.682      2.707     79.53242  16.8675        759
 4.56   0.0674   1154.9893    565.8511 -79.33     1283.137     1.539           15     1.143      3.238     79.61344  20.2793        760
 3.50   0.0005   1137.4583    146.3166 -43.84     160176.8     1.940           15     1.910      2.788     79.52341  15.0385        761
 6.40   0.0764   1088.5327    781.5435  48.57      1130.07     2.016           15     0.759      5.463     79.53242  20.4172        762
 3.50   0.0266   1129.1438    217.8241  -0.95     3243.843     1.675           15     1.375      2.970     79.58644  19.2724        763
 3.50   0.0010   1128.9299    181.7596 -62.42     83469.14     1.838           15     1.787      2.742     79.56844  15.7462        764
 5.95   0.1294   1076.9996    467.1200  -3.34     667.7321     0.901           15     0.754      2.884     79.58644  20.9885        765
 3.67   0.0252   1128.2001    545.7900 -55.11     3433.035     1.373           15     1.320      2.587     79.55043  19.2108        766
 7.74   0.4708   1134.3350    249.3081 -46.33     183.4692     0.567           15     0.339      1.659     79.54143  22.3911        767
 8.96   0.1967   1139.0133    423.5020  58.48     439.0307     0.815           15     0.306      3.517     79.53242  21.4438        768
 4.23   0.0626   1130.0414    357.5908 -12.40     1379.806     1.289           15     1.086      2.674     79.58644  20.2005        769
 3.50   0.0076   1119.3019    328.0937  58.93     11336.86     3.069           15     1.905      5.114     79.49638  17.9138        770
 4.34   0.1822   1144.5825   1337.3035 -25.99     474.1019     1.687           15     0.609      3.812     79.55944  21.3603        771
 5.23   0.1585   1127.1694    836.2650  65.75     545.2999     1.093           15     0.868      2.602     79.56844  21.2084        772
 7.69   0.2172   1121.9967    916.5061  88.18     397.7717     0.789           15     0.500      2.634     79.54143  21.5509        773
 5.45   0.0335   1091.9540    427.5959  30.78     2579.993     2.388           15     1.739      6.405     79.61344  19.5210        774
 3.50   0.2000   1105.7854   1265.6273  14.09     432.1143     0.948           15     0.920      2.064     79.57745  21.4610        775
 4.42   0.0211   1089.9325    466.4830 -60.63     4102.458     2.919           15     1.404      5.452     79.52341  19.0174        776
 6.63   0.1720   1114.8882    505.8844 -45.23     501.9837     0.842           15     0.662      3.925      79.5144  21.2983        777
 3.50   0.1007   1115.6307   1168.9203 -26.85     858.1583     1.664           15     1.118      3.628     79.55944  20.7161        778
 3.50   0.0024   1106.4395    426.3419  -6.24     35333.19     1.744           15     1.718      2.751     79.56844  16.6795        779
 5.79   0.1226   1107.8602   1122.0044 -88.69     705.1657     0.898           15     0.759      2.619     79.62244  20.9293        780
 5.00   0.0120   1110.1006    477.9549  24.60     7169.955     3.426           15     2.382      8.358     79.47836  18.4112        781
 5.74   0.2115   1107.0505    969.7090 -68.07     408.5137     0.721           15     0.691      2.530     79.54143  21.5220        782
 3.50   0.0621   1093.6868   1134.7550  57.18      1391.75     1.188           15     1.118      2.297     79.54143  20.1911        783
 5.93   0.2425   1083.3468    844.8585  28.88     356.2792     0.864           15     0.597      2.463     79.55043  21.6705        784
 6.29   0.2783   1097.9957    861.5091  87.45     310.3681     0.779           15     0.499      2.254     79.53242  21.8203        785
 8.51   0.7567   1100.4910   1350.5159 -45.58     114.1019     0.504           15     0.496      2.714     79.50539  22.9068        786
 3.50   0.0196   1094.6219   1525.1770 -27.34     4412.328     1.351           15     1.273      2.347     79.57745  18.9383        787
 3.52   0.0323   1078.3165    328.4367 -34.99     2674.058     1.289           15     1.259      2.473     79.56844  19.4821        788
 3.50   0.0005   1079.0317    510.4756 -17.11     169871.4     1.935           15     1.916      2.779     79.55043  14.9747        789
 3.94  99.0000    977.8196   1064.9083 -42.01    -16.02086     0.814           15     0.660      1.971     79.55944  99.0000        790
 3.50   0.0530   1085.4923   1451.3832  71.78     1630.033     1.706           15     1.265      3.093     79.56844  20.0195        791
 4.50   0.0597   1087.1938    395.1696  61.36     1447.021     1.472           15     1.152      3.068     79.56844  20.1488        792
 3.50   0.0018   1080.8446   1146.6871  66.88     49228.71     1.762           15     1.739      2.706     79.53242  16.3195        793
 4.85   0.4115    976.0895   1279.0640 -32.46     209.8985     0.782           15     0.776      2.151     79.53242  22.2450        794
 4.11   0.1536   1027.3408    350.5623 -39.69     562.6274     1.012           15     0.864      2.488     79.57745  21.1744        795
 3.85   0.0398    964.1137    414.7538  -9.76     2170.885     1.304           15     1.195      2.481     79.55043  19.7084        796
 6.65   0.0824    973.0317    546.8406  32.87     1048.849     1.182           15     0.985      4.961     79.60445  20.4982        797
 6.49   1.7709   1086.1091   1010.4985 -89.77     48.74447     0.781           15     0.500      2.822     79.48737  23.8302        798
 3.76   0.0163    979.9752    796.2892 -70.10     5286.819     2.008           15     1.747      4.141     79.55043  18.7420        799
 3.55   0.0086   1071.1847   1217.5300 -73.77     10030.56     2.621           15     2.147      5.009     79.62244  18.0467        800
 3.80   0.0513   1065.7677    567.4854 -51.29     1684.189     1.440           15     1.191      2.948     79.56844  19.9840        801
 4.49   0.0692   1073.4939    350.8316  56.27     1247.479     1.567           15     1.167      3.890     79.53242  20.3099        802
 3.50   0.1523   1018.5303   1153.2947   0.29     566.9482     1.111           15     0.957      2.131     79.52341  21.1661        803
 4.56   0.0364    977.1621    451.1198 -47.03     2370.593     1.428           15     1.330      3.228     79.55043  19.6129        804
 3.91   0.1134   1016.2694    199.5807  19.02     762.4231     1.236           15     1.122      2.579     79.61344  20.8445        805
 3.56   0.0942   1062.9010    290.3269 -17.97     916.2886     1.324           15     1.091      2.718     79.49638  20.6449        806
 3.50   0.0419   1067.1228   1472.6680  14.35     2059.745     2.820           15     1.652      5.500     79.49638  19.7655        807
 3.50   0.0437   1064.8362   1595.6910 -33.63     1854.276     1.258           15     1.149      2.312     74.55807  19.8796        808
 8.50   0.5172   1063.4945   1411.5537 -76.20     166.9232     0.500           15     0.497      2.392     79.49638  22.4937        809
 3.85   0.0159   1064.2731   1561.5967 -67.96     5427.527     2.917           15     1.883      5.651     79.59544  18.7135        810
 4.68   0.0816    981.2909   1485.5188 -87.99     1057.913     1.074           15     0.965      2.763     79.52341  20.4889        811
 3.62   0.2075    983.6367    952.3669 -44.22     416.5872     1.025           15     0.849      2.509     79.59544  21.5007        812
 4.74   0.1348   1046.8132   1157.0244  25.52     641.1449     1.027           15     0.833      2.844     79.55944  21.0326        813
 4.35   0.1092   1051.7396    398.9902 -86.66     791.8789     1.360           15     1.021      3.094     79.61344  20.8034        814
 7.75   3.8994   1057.3187   1123.3470 -43.78     22.14485     0.577           15     0.333      2.062      79.5144  24.6868        815
 3.50   0.0019   1037.6909    523.7844  79.77     44487.98     1.779           15     1.739      2.734     79.56844  16.4294        816
 4.95   0.1082   1042.3434    808.2131  46.39     798.5574     0.944           15     0.935      2.988     79.59544  20.7942        817
 3.50   0.0908   1051.3563    236.0323  36.32     952.2681     1.449           15     1.124      3.119     79.60445  20.6031        818
 5.52   0.6244   1052.6809   1383.9104   7.64     138.2989     0.730           15     0.664      2.412      79.5144  22.6980        819
 4.83   0.0544   1039.5861    465.5739  35.28     1589.751     1.470           15     1.236      4.174     79.56844  20.0467        820
 4.12   0.1577   1027.0326    462.3943  -3.86     547.9474     0.976           15     0.771      2.057     79.58644  21.2032        821
 4.60   0.2525   1047.2170    207.1093 -27.54     342.2742     0.924           15     0.859      2.795     79.56844  21.7141        822
 3.50   0.0004   1039.2816    631.3826 -47.77       218266     2.058           15     1.928      2.797     79.58644  14.7025        823
 3.50   0.1395   1041.6345   1094.2766  32.33     619.2855     1.357           15     0.916      2.950     79.55043  21.0703        824
 6.11   0.0825   1027.9122    179.0766 -49.33     1046.057     1.311           15     1.163      4.477     79.49638  20.5011        825
 7.67   1.2683   1045.3263   1525.2911 -47.02     68.09078     0.555           15     0.343      2.061     79.52341  23.4673        826
 3.50   0.0093   1029.2361    300.9309  68.34     9261.343     2.876           15     2.043      5.022     79.57745  18.1333        827
 3.50   0.4146   1025.4961   1265.4883 -47.80     208.1609     0.913           15     0.893      2.309     79.47836  22.2540        828
 3.50   0.0587   1020.2513   1267.1864  48.83     1472.131     2.423           15     1.154      4.212     79.60445  20.1301        829
 4.84   0.2729   1032.6776    492.1187   7.78     316.5766     0.926           15     0.617      2.532     79.54143  21.7988        830
 5.15   0.1125   1036.3781    240.4039 -37.49     768.0803     1.026           15     0.934      2.710     79.55944  20.8365        831
 3.50   0.0010   1008.8684    812.1067 -84.81     85222.14     1.849           15     1.815      2.728     79.52341  15.7236        832
 4.11   0.9493   1031.0706   1166.3317  84.20      90.9305     0.725           15     0.656      1.702     79.48737  23.1532        833
 4.59   0.1054    992.2519    498.1241 -23.05       819.17     1.113           15     0.989      2.344      79.5144  20.7666        834
 4.24   0.3816   1028.9324    945.9547 -38.54     226.4432     0.805           15     0.755      2.422     79.55944  22.1626        835
 3.50   0.0009   1024.8666   1378.5500 -84.80     99277.43     1.921           15     1.805      2.711     79.54143  15.5579        836
 4.75   0.1250   1078.1774    920.7841   1.45     690.8745     1.076           15     0.991      2.721     79.55043  20.9515        837
 5.33   0.4300   1022.9832    581.0149  84.25     200.9597     0.616           15     0.614      2.074     79.56844  22.2922        838
 3.50   0.0714   1013.5270    451.3892  27.54     1211.234     1.343           15     1.169      2.603     79.61344  20.3419        839
 4.41   0.0922   1026.7218    605.8601 -20.30     936.7641     1.087           15     0.984      2.309     79.53242  20.6209        840
 3.70   0.4537   1028.5109   1033.9430  60.24     190.3685     0.972           15     0.665      1.934     79.52341  22.3510        841
 3.50   0.0066   1010.2828    343.0844 -16.33     13091.84     1.576           15     1.559      2.656     79.50539  17.7575        842
 5.06   0.0494   1009.9666    266.0705  42.72     1747.926     1.441           15     1.262      4.211     79.56844  19.9437        843
 3.50   0.0006    983.9276    556.8610 -48.34     151609.4     1.912           15     1.889      2.752     79.54143  15.0982        844
 6.95   0.1908   1008.5217    188.9735  88.11     452.7452     0.793           15     0.704      2.698     79.55944  21.4104        845
 4.69   0.1378    991.4377    344.4911 -43.11     626.8337     1.063           15     0.845      2.222     79.52341  21.0571        846
 4.33   0.0125    985.7134    452.4680  55.04     6901.914     2.311           15     2.021      5.191     79.50539  18.4526        847
 3.50   0.4542   1003.4240   1236.5613  43.92     190.2731     1.109           15     0.819      2.131     79.58644  22.3516        848
 3.50   0.0060   1000.7160    541.0248  19.40     14293.79     1.639           15     1.607      2.741     79.55944  17.6621        849
 3.50   0.0150   1000.5336   1554.0953  48.35     5748.394     1.408           15     1.386      2.476     79.53242  18.6511        850
 3.50   0.0204    998.9175   1272.4537 -31.29     4238.425     1.426           15     1.279      2.403      79.5144  18.9820        851
 4.42   0.4139    998.8193   1439.8516 -46.52     208.8315     0.810           15     0.662      1.889     79.58644  22.2505        852
