#   1 KRON_RADIUS            Kron apertures in units of A or B                         
#   2 MAGERR_APER            RMS error vector for fixed aperture mag.                   [mag]
#   3 Y_IMAGE                Object position along y                                    [pixel]
#   4 X_IMAGE                Object position along x                                    [pixel]
#   5 THETA_IMAGE            Position angle (CCW/x)                                     [deg]
#   6 FLUX_APER              Flux vector within fixed circular aperture(s)              [count]
#   7 A_IMAGE                Profile RMS along major axis                               [pixel]
#   8 THRESHOLD              Detection threshold above background                       [count]
#   9 B_IMAGE                Profile RMS along minor axis                               [pixel]
#  10 FLUX_RADIUS            Fraction-of-light radii                                    [pixel]
#  11 FLUXERR_APER           RMS error vector for aperture flux(es)                     [count]
#  12 MAG_APER               Fixed aperture magnitude vector                            [mag]
#  13 NUMBER                 Running object number                                     
 4.20   0.0011     52.3034     61.8495   2.51     133131.5     4.442     65.14034     3.989      9.702     129.2328  15.2393          1
 3.77   0.0064     15.6711    983.4545 -87.99     21868.58     3.861     65.14034     1.647      6.614     129.3354  17.2004          2
 3.62   0.0077     17.0230     89.4899 -26.39      18170.3     1.422     65.14034     1.344      2.864     129.3793  17.4016          3
 3.50   0.0030     13.8104   1444.2446 -29.34     46555.05     1.547     65.14034     1.516      2.967     129.4232  16.3801          4
 9.00   0.0666      3.3280    143.3375 -44.59     1808.561     0.577     65.14034     0.334      2.926     110.8645  19.9067          5
 5.36   0.0551     16.2085    382.9816  89.06     2549.443     0.890     65.14034     0.752      2.905     129.3647  19.5339          6
 4.66   0.0382     23.7973    365.4003 -84.17      3676.04     1.089     65.14034     1.032      2.865     129.4232  19.1365          7
 8.20   0.0878     23.2996    381.3436 -42.82      1598.44     0.566     65.14034     0.338      2.691     129.2475  20.0408          8
 3.50   0.0007     58.9551   1076.9459  70.23     212690.3     1.898     65.14034     1.774      3.088      129.394  14.7306          9
 6.03   0.0644     33.4796   1108.6080  64.27     2181.493     1.510     65.14034     0.629      3.952      129.394  19.7031         10
 7.91   0.0781     32.4033    324.8148 -18.96     1798.804     0.755     65.14034     0.449      3.374     129.3647  19.9125         11
 5.58   0.1503     37.0213   1519.9889  21.84     934.5593     0.611     65.14034     0.611      2.398     129.3647  20.6235         12
 6.31   0.0893     38.1393   1169.1509  44.59     1572.374     0.749     65.14034     0.572      3.100     129.3647  20.0586         13
 6.16   0.0907     41.5179    913.9079  -0.91      1549.12     0.771     65.14034     0.500      2.747     129.3354  20.0748         14
 3.50   0.0007     79.0638    535.8656 -71.09     205230.7     1.799     65.14034     1.767      3.030     129.3207  14.7694         15
 3.76   0.0184     74.1700    126.4531 -28.84      7628.04     1.258     65.14034     1.182      2.835     129.4232  18.3440         16
 6.21   0.0658     81.4861    419.7835 -89.81     2134.945     0.968     65.14034     0.724      3.346      129.394  19.7265         17
 6.69   0.0336     89.5848    375.0995 -11.54     4184.968     1.320     65.14034     1.036      5.084     129.3647  18.9958         18
 3.50   0.0005    120.9212    787.5002 -59.71     304282.6     1.833     65.14034     1.825      3.059     129.2475  14.3418         19
 3.94   0.0125     95.6125     54.3898 -38.35      11200.8     1.297     65.14034     1.241      2.893       129.35  17.9269         20
 6.66   0.1185     90.6038    494.2029 -18.24     1185.991     0.728     65.14034     0.456      2.560     129.3647  20.3648         21
 6.22   0.0506     97.0223    451.4500  -4.42      2780.19     1.053     65.14034     0.780      3.917     129.4232  19.4398         22
 6.76   0.0983    130.4583    416.4763  21.10      1428.97     0.500     65.14034     0.498      2.676       129.35  20.1624         23
 3.50   0.0008    161.4535   1466.8450 -66.04     172462.1     1.744     65.14034     1.727      3.060      129.394  14.9583         24
 3.50   0.0036    169.3001    875.6627 -39.94     39226.06     1.534     65.14034     1.515      2.936     129.3207  16.5661         25
 4.65   0.0401    164.1470   1444.2490 -65.13     3501.085     1.073     65.14034     0.995      2.917      129.394  19.1895         26
 3.90   0.0552    165.6745    102.5966 -41.51     2547.441     1.017     65.14034     0.920      2.610     129.4671  19.5347         27
 7.35   0.1054    168.4966   1367.4883  45.85     1331.649     0.502     65.14034     0.498      2.572     129.2475  20.2390         28
 7.70   0.0566    185.9798   1353.4911 -89.21     2480.508     0.796     65.14034     0.500      3.774       129.35  19.5636         29
 4.74   0.0294    191.8871   1349.0082   9.23     4787.608     1.093     65.14034     1.083      3.190      129.394  18.8497         30
 4.97   0.0085    209.7816    825.9514  -7.57     16541.67     3.145     65.14034     1.693      7.906     129.4086  17.5036         31
 3.71   0.0178    205.7242    547.4327 -27.80     7890.961     1.268     65.14034     1.220      2.764     129.3647  18.3072         32
 3.65   0.0177    211.4296   1304.5750 -26.27     7923.316     1.248     65.14034     1.242      2.826     129.4086  18.3027         33
 5.99   0.0588    209.9860    683.0103 -88.12      2387.79     1.026     65.14034     0.734      3.233       129.35  19.6050         34
 5.59   0.0097    229.1618    560.4160 -36.10     14553.12     2.830     65.14034     2.521      8.643     129.4379  17.6426         35
 3.56   0.0157    223.3353   1224.5809 -36.23     8933.233     1.273     65.14034     1.233      2.849     129.4232  18.1725         36
 3.50   0.0003    258.9106    995.8257 -71.98       512542     1.918     65.14034     1.899      3.094     129.3647  13.7757         37
 4.31   0.0447    221.5924    773.3193 -14.50     3141.977     1.060     65.14034     0.974      2.848      129.394  19.3070         38
 3.50   0.0004    264.9516     65.7890 -57.20     388009.2     1.875     65.14034     1.852      3.055     129.4525  14.0779         39
 5.57   0.0226    243.0064    111.0418 -88.92     6209.649     1.582     65.14034     1.198      4.540     129.4232  18.5673         40
 6.43   0.0513    238.3742    837.2224 -31.21     2738.677     1.016     65.14034     0.916      4.065     129.4232  19.4561         41
 4.83   0.0088    254.5080    611.2502 -38.55     15925.01     2.022     65.14034     1.655      5.176     129.3354  17.5448         42
 6.33   0.0489    249.4847    105.5596 -21.18     2873.536     0.902     65.14034     0.882      4.654     129.3793  19.4040         43
 3.50   0.0015    286.7240   1485.0078 -63.00     91846.12     1.644     65.14034     1.627      3.040     129.4379  15.6423         44
 6.27   0.0714    269.9772   1271.9922  -1.56     1967.448     0.789     65.14034     0.784      3.221     129.3793  19.8152         45
 3.50   0.0070    281.0651   1520.9044 -20.69      20134.4     1.367     65.14034     1.351      2.845     129.3354  17.2902         46
 3.50   0.0021    302.1579    199.9657 -33.04     67331.81     1.618     65.14034     1.605      2.938     129.4525  15.9794         47
 5.49   0.0338    292.5531   1474.0583  -1.34     4152.342     1.049     65.14034     0.933      3.759     129.3793  19.0043         48
 4.42   0.0403    301.2180    561.9072  18.86     3482.512     1.129     65.14034     1.058      2.961     129.3793  19.1953         49
 3.50   0.0031    321.1726    695.6197 -26.26     44620.96     1.553     65.14034     1.509      2.916      129.394  16.4262         50
 7.87   0.0679    307.7152     83.4339  80.94     2069.208     1.003     65.14034     0.476      3.824      129.394  19.7605         51
 6.17   0.0381    321.0647    639.6444 -67.67     3686.851     1.609     65.14034     0.861      4.308     129.3793  19.1334         52
 4.98   0.0167    326.5730    593.8109   7.14     8437.058     1.495     65.14034     1.367      4.335     129.4086  18.2345         53
 5.80   0.1254    328.6497   1544.8694  10.60     1119.711     0.732     65.14034     0.651      2.450     129.3207  20.4272         54
 4.93   0.0792    331.1288     91.6019 -14.07     1775.904     0.974     65.14034     0.736      2.757     129.4525  19.9265         55
 4.17   0.0314    349.0255     52.9406 -34.32     4472.671     1.109     65.14034     1.089      2.965     129.4379  18.9236         56
 3.50   0.0030    367.2481    759.5090  -9.25     46046.61     1.555     65.14034     1.529      2.938     129.3061  16.3920         57
 3.89   0.0171    360.4133   1498.9653  13.98      8201.48     1.270     65.14034     1.201      2.896     129.4379  18.2653         58
 4.06   0.0692    359.7190   1032.4745   1.63     2029.549     0.960     65.14034     0.930      2.457     129.3207  19.7815         59
 3.50   0.0006    394.2187    229.6441 -68.12     225461.6     1.801     65.14034     1.777      3.016     129.4232  14.6673         60
 6.64   0.0381    374.3668    752.0930  47.82     3683.134     1.482     65.14034     0.696      4.745     129.3207  19.1345         61
 8.25   0.1139    369.4944     69.5316 -56.01      1233.58     0.501     65.14034     0.498      2.936     129.3354  20.3221         62
 6.81   0.0664    372.6188   1082.2681 -17.95      2115.78     0.948     65.14034     0.637      3.425     129.4379  19.7363         63
 7.60   0.2305    374.3250     85.3358 -44.52     609.1313     0.575     65.14034     0.335      2.104     129.3061  21.0882         64
 5.83   0.0938    379.2894    123.9578  -3.94     1498.389     0.729     65.14034     0.671      2.729       129.35  20.1109         65
 3.50   0.0044    396.2292   1459.7554 -36.91     31907.13     1.475     65.14034     1.464      2.955     129.4671  16.7903         66
 3.50   0.0039    397.1713    352.8766 -25.80     36317.73     1.525     65.14034     1.501      2.901     129.3793  16.6497         67
 3.66   0.0185    392.8804   1087.1648  -9.50     7579.547     1.239     65.14034     1.206      2.812     129.3793  18.3509         68
 7.81   0.0423    395.9946    624.9952  71.33     3317.514     0.799     65.14034     0.798      4.635     129.3354  19.2480         69
 7.27   0.1252    406.4605    280.4913 -17.59     1122.065     0.500     65.14034     0.498      2.531     129.3207  20.4250         70
 5.30   0.0342    419.8942    157.4371  26.75     4108.612     1.448     65.14034     1.193      4.085     129.2914  19.0158         71
 3.50   0.0019    437.0088    250.3023 -32.19     73457.36     1.624     65.14034     1.615      2.956     129.3354  15.8849         72
 3.50   0.0002    460.3148    806.0232 -65.11     639075.6     1.935     65.14034     1.920      3.110     129.3793  13.5361         73
 7.45   0.0610    425.8697   1178.0779  43.77     2301.791     0.858     65.14034     0.661      3.932     129.2914  19.6448         74
 3.69   0.0252    432.1023   1420.5601 -11.63     5577.411     1.208     65.14034     1.109      2.739     129.2914  18.6839         75
 4.94   0.0632    433.1256    149.3873  -9.79     2224.332     0.981     65.14034     0.856      2.759     129.4671  19.6820         76
 4.38   0.0573    439.0159    303.9682 -20.07     2452.627     0.920     65.14034     0.913      2.454     129.4232  19.5759         77
 5.20   0.0072    466.9002    848.8165  22.61      19588.4     6.820     65.14034     1.769     13.683       129.35  17.3200         78
 3.54   0.0061    449.4023     19.5231 -30.68     23108.87     1.437     65.14034     1.406      2.876     129.4086  17.1406         79
 5.15   0.0359    444.2394    120.4318 -22.01     3913.598     1.210     65.14034     1.108      3.612     129.4379  19.0686         80
 3.50   0.0054    456.8024     32.7392  -3.30     26127.23     1.443     65.14034     1.422      2.857     129.4818  17.0073         81
 7.16   0.1509    442.5621    653.4972 -10.91     930.5066     0.500     65.14034     0.496      2.502     129.2768  20.6282         82
 5.48   0.1162    452.0169   1531.7256 -85.78     1210.378     0.721     65.14034     0.674      2.432     129.4818  20.3427         83
 3.99   0.0164    462.7450    466.8865  54.88     8558.549     1.308     65.14034     1.243      3.001     129.3207  18.2190         84
 4.66   0.0510    460.2122   1094.6180   6.35     2755.965     0.975     65.14034     0.925      3.040     129.3647  19.4493         85
 3.62   0.0137    471.1317    733.2081  79.83     10231.17     1.283     65.14034     1.279      2.731     129.4671  18.0252         86
 4.08   0.0192    470.3870    252.5030   5.65      7325.21     1.263     65.14034     1.233      2.967       129.35  18.3879         87
 8.39   0.0810    460.5989    723.2239 -18.39     1735.558     0.756     65.14034     0.451      3.555     129.3793  19.9514         88
 3.50   0.0105    477.0223    921.4086 -70.99     13335.74     1.335     65.14034     1.318      2.802      129.394  17.7375         89
 3.88   0.0282    477.0480   1275.3263 -57.55     4984.991     1.145     65.14034     1.027      2.738     129.3354  18.8058         90
 7.61   0.1513    475.3035   1166.6748  43.83     928.4846     0.561     65.14034     0.342      2.272     129.3207  20.6306         91
 6.22   0.0472    487.6810    837.9964 -83.71     2979.096     1.704     65.14034     0.715      4.769     129.4086  19.3648         92
 3.69   0.0258    483.0464   1069.0927 -24.30     5448.851     1.130     65.14034     1.125      2.700     129.2914  18.7092         93
 6.02   0.1129    477.7341    681.0251  -3.82     1245.086     0.725     65.14034     0.675      2.805     129.4086  20.3120         94
 5.29   0.0145    495.1190     81.1906  45.43     9710.097     2.066     65.14034     1.767      6.077     129.3793  18.0819         95
 5.45   0.0149    494.7936   1185.2228 -14.10     9419.192     2.599     65.14034     1.517      6.545      129.394  18.1150         96
 5.72   0.0248    503.3142    761.2948 -38.41     5657.329     1.466     65.14034     1.337      4.784     129.2475  18.6685         97
 4.13   0.0433    501.1669    862.1559 -43.76     3250.299     1.112     65.14034     1.006      2.655     129.4525  19.2702         98
 5.64   0.1065    497.0226    364.6823 -87.03     1319.254     0.730     65.14034     0.667      2.638      129.394  20.2492         99
 4.77   0.0119    514.4293   1459.5134  23.73     11838.63     3.563     65.14034     1.308      7.570      129.394  17.8667        100
 5.66   0.0436    508.9268    163.3875  -3.75     3227.888     1.654     65.14034     0.787      4.242     129.4818  19.2777        101
 4.26   0.0393    512.8962   1177.7278 -61.45      3572.09     1.075     65.14034     0.992      2.784     129.3207  19.1677        102
 5.41   0.0656    518.3445    640.3340 -41.64     2140.117     1.060     65.14034     0.951      3.147       129.35  19.7239        103
 6.49   0.1348    517.4171   1517.7679 -18.84     1042.369     0.723     65.14034     0.459      2.478     129.4232  20.5049        104
 3.72   0.0184    539.3714    998.3492 -26.35     7646.311     1.257     65.14034     1.218      2.786     129.4379  18.3414        105
 6.75   0.0760    535.1268    402.7053  21.93     1849.183     0.939     65.14034     0.684      3.543     129.3354  19.8825        106
 3.70   0.0134    558.0494   1040.1455  18.85     10483.56     1.313     65.14034     1.296      2.874     129.4086  17.9987        107
 6.44   0.2266    554.9899    777.2524  89.44     620.5961     0.670     65.14034     0.434      2.290     129.4671  21.0680        108
 4.62   0.0186    570.3089     44.1189  51.69     7569.195     1.845     65.14034     1.271      4.163     129.3207  18.3524        109
 3.50   0.0032    579.6545    143.1783 -44.32      43878.6     1.563     65.14034     1.533      2.903     129.4525  16.4444        110
 5.36   0.0191    570.5286   1446.4730  17.88     7350.496     1.856     65.14034     1.391      5.395     129.2768  18.3842        111
 3.50   0.0032    581.2003    317.4489 -12.26     43837.38     1.570     65.14034     1.539      2.919     129.4818  16.4454        112
 5.79   0.0710    563.8646    137.6890 -21.27     1979.148     0.892     65.14034     0.686      2.878     129.3354  19.8088        113
 4.69   0.0065    595.7537    780.8385 -56.47      21566.6     3.023     65.14034     2.605      7.824     129.4232  17.2155        114
 6.19   0.0563    575.3632   1000.3189  45.20     2496.417     1.005     65.14034     0.886      3.714     129.3793  19.5567        115
 4.45   0.0518    583.4443     74.1731 -17.03     2712.497     1.094     65.14034     0.938      2.555     129.4671  19.4666        116
 3.75   0.0112   1000.7644    540.9913  -8.94     12539.06     1.362     65.14034     1.329      2.972     129.4232  17.8043        117
 7.83   0.1352   1599.7003     17.3366  43.09     782.9288     0.564     65.14034     0.340      3.160     97.46062  20.8157        118
 5.25   0.0301   1596.6635    653.0926 -59.61     4197.825     1.485     65.14034     1.346      4.115     116.5133  18.9924        119
 5.50   0.0545   1593.6263    372.3974  44.56     2562.074     1.077     65.14034     0.932      3.425      128.483  19.5285        120
 8.20   0.1202   1592.4907   1383.5098 -45.05     1167.956     0.502     65.14034     0.498      2.849     129.2621  20.3814        121
 7.32   0.1502   1590.3160    565.3229 -44.66     934.9716     0.565     65.14034     0.340      2.196     129.3061  20.6230        122
 6.48   0.1093   1584.9933   1068.0237   1.49     1285.756     0.615     65.14034     0.610      2.569      129.394  20.2771        123
 3.50   0.0090   1540.7362    133.3148 -47.70     15593.72     1.408     65.14034     1.367      2.811     129.3207  17.5676        124
 3.50   0.0010   1506.1389    267.6415 -39.96     144055.9     1.723     65.14034     1.706      2.970      129.394  15.1537        125
 4.58   0.0797   1064.9565   1595.7683  -2.91     1648.758     0.881     65.14034     0.748      2.477     120.9332  20.0071        126
 5.63   0.0319    979.9975    796.2272 -68.28     4406.182     1.224     65.14034     1.180      4.087     129.3793  18.9398        127
 6.39   0.0514    977.0343    451.0101 -40.67     2732.226     0.784     65.14034     0.775      3.614     129.4379  19.4587        128
 5.05   0.0700    964.0334    414.7816   0.25     2007.997     0.891     65.14034     0.748      2.528     129.4232  19.7931        129
 6.12   0.0395    949.9987    652.6572 -89.85     3559.987     1.224     65.14034     0.992      4.276     129.4964  19.1714        130
 5.24   0.0773    946.8032    443.5172  -1.66     1817.149     0.923     65.14034     0.719      2.822      129.394  19.9015        131
 3.69   0.0168    938.3217   1065.6394  41.58      8339.65     1.248     65.14034     1.193      2.750       129.35  18.2471        132
 7.35   0.0456    937.5718    514.6093  47.45     3079.795     1.032     65.14034     0.878      4.931     129.4086  19.3287        133
 4.11   0.0291    927.3743   1321.0085 -85.38     4836.929     1.159     65.14034     1.128      2.979     129.4086  18.8386        134
 3.57   0.0380    911.8421    836.9899  38.07     3697.531     1.095     65.14034     1.086      2.600     129.4232  19.1302        135
 4.50   0.0688    911.3700    999.6253 -45.17     2042.099     0.962     65.14034     0.860      2.693      129.394  19.7748        136
 3.50   0.0048    899.4661    301.0907 -18.69     29054.37     1.479     65.14034     1.444      2.875       129.35  16.8920        137
 4.85   0.0214    895.2223    536.8345   2.48     6557.806     1.747     65.14034     1.407      4.615     129.4086  18.5081        138
 5.70   0.1011    893.0107   1424.9458 -31.86     1391.347     0.780     65.14034     0.772      2.977     129.4671  20.1914        139
 5.92   0.0386    887.5701    324.2279  14.78     3644.549     1.646     65.14034     0.935      4.477     129.4086  19.1459        140
 3.50   0.0003    879.3601   1591.1908 -70.96     512144.3     1.908     65.14034     1.875      3.090     129.4232  13.7765        141
 4.08   0.0402    884.8735   1498.7712 -43.20     3497.592     1.104     65.14034     0.995      2.658      129.394  19.1906        142
 7.12   0.0632    884.0042    337.5157   0.76     2221.958     0.817     65.14034     0.703      3.662     129.3793  19.6832        143
 4.64   0.0674    876.5405    959.5004 -84.19     2083.219     0.889     65.14034     0.881      2.665     129.2768  19.7532        144
 6.47   0.0996    875.4860    540.0019  -0.88     1410.051     0.778     65.14034     0.500      2.719     129.3793  20.1769        145
 4.14   0.0118    868.4766   1102.1177 -45.52     11915.79     1.686     65.14034     1.465      3.788     129.3354  17.8597        146
 5.04   0.0306    867.0320    938.2143  29.24     4597.562     1.622     65.14034     1.102      4.487     129.4232  18.8937        147
 5.62   0.1108    868.3191    642.0235   1.45     1268.232     0.733     65.14034     0.661      2.436     129.3793  20.2920        148
 5.07   0.0438    857.5266   1338.7096 -88.38     3209.206     0.975     65.14034     0.694      2.999     129.3207  19.2840        149
 8.56   0.0856    854.5153    543.5096 -43.94     1640.396     0.502     65.14034     0.498      3.011     129.3061  20.0126        150
 3.93   0.0589    843.9196   1062.4259 -64.62     2383.868     0.996     65.14034     0.935      2.561      129.394  19.6068        151
 4.52   0.0267    842.4215   1104.6084  35.51     5266.608     1.423     65.14034     1.112      3.511     129.3793  18.7462        152
 3.98   0.0211    835.5465    297.1019 -52.68     6656.809     1.220     65.14034     1.192      2.824     129.2621  18.4918        153
 6.27   0.1357    835.7402   1519.0046   0.28     1035.877     0.666     65.14034     0.438      2.394     129.4818  20.5117        154
 4.85   0.1136    834.6307    817.5598 -17.74     1237.936     0.921     65.14034     0.798      2.542     129.4525  20.3183        155
 3.50   0.0048    822.0726    652.7797 -15.69     29479.28     1.506     65.14034     1.487      2.952     129.4671  16.8762        156
 7.58   0.3020    818.6843   1397.3020  45.79     464.7256     0.556     65.14034     0.344      2.261     129.2475  21.3820        157
 8.36   0.0947    814.5045    876.4985 -44.97      1481.92     0.510     65.14034     0.490      3.058     129.2768  20.1229        158
 5.03   0.7628    808.9929   1543.2617  86.66     184.3652     0.723     65.14034     0.668      1.875     129.4964  22.3858        159
 3.50   0.0052    802.1609   1377.2968 -81.68      26845.2     1.468     65.14034     1.437      2.917     129.2768  16.9778        160
 3.50   0.0018    797.5929    694.0792 -87.69     78279.73     2.371     65.14034     1.616      3.859      129.394  15.8159        161
 3.82   0.0109    799.6501     39.4609 -16.46     12839.66     1.361     65.14034     1.275      2.890     129.3647  17.7786        162
 4.79   0.0124    773.3688   1425.9453 -89.88      11364.2     2.549     65.14034     1.648      6.067     129.4232  17.9112        163
 7.13   0.0845    766.9608    138.2908 -82.22     1662.005     0.741     65.14034     0.680      3.151     129.3207  19.9984        164
 3.88   0.0202    741.8005    554.6681 -25.34     6946.477     1.249     65.14034     1.190      2.795     129.4525  18.4456        165
 4.30   0.0601    737.2334   1156.5380 -12.72     2337.116     0.960     65.14034     0.922      2.612      129.394  19.6283        166
 4.49   0.0510    735.1122    648.2329  21.14     2753.876     1.029     65.14034     0.963      2.668     129.3793  19.4501        167
 3.50   0.0005    725.6378    846.8517  86.08     305930.6     1.845     65.14034     1.830      3.059     129.4086  14.3359        168
 3.74   0.0318    726.5109   1176.8252 -76.33     4411.453     1.162     65.14034     1.128      2.680     129.3647  18.9385        169
 5.35   0.0795    720.3839   1393.5464  14.98     1767.811     0.949     65.14034     0.801      3.002     129.4379  19.9314        170
 4.00   0.0232    714.9327    806.8177 -19.41     6060.627     1.194     65.14034     1.123      2.737     129.4379  18.5937        171
 3.83   0.0233    708.0512   1162.3833  -2.52     6034.461     1.226     65.14034     1.123      2.770     129.4379  18.5984        172
 4.56   0.0187    703.6281   1337.5835 -22.96     7516.369     1.362     65.14034     1.190      3.918     129.4086  18.3600        173
 3.63   0.0127    701.9589    951.0188 -28.23     11073.17     1.315     65.14034     1.292      2.850     129.4379  17.9393        174
 6.53   0.0502    697.9573    581.1458   7.31     2800.094     1.309     65.14034     0.761      4.221      129.394  19.4321        175
 5.57   0.0442    690.8048   1212.2382  42.91     3181.604     1.087     65.14034     1.036      3.455      129.394  19.2934        176
 5.41   0.0999    686.5112    129.0499 -88.74     1405.845     0.791     65.14034     0.700      2.257     129.3207  20.1802        177
 5.55   0.0537    685.6292   1212.3170 -47.65     2614.834     0.978     65.14034     0.857      3.316      129.394  19.5064        178
 4.05   0.0151    684.6274    642.5974   0.81     9330.128     1.260     65.14034     1.254      2.935     129.3793  18.1253        179
 7.07   0.0711    668.2875   1220.0120  -5.30     1977.258     0.739     65.14034     0.685      3.646     129.4086  19.8098        180
 3.50   0.0005    647.4228   1462.9352 -62.50     301347.1     1.828     65.14034     1.800      3.071     129.4232  14.3523        181
 4.57   0.0551    653.6522    869.3309  48.72     2548.642     1.000     65.14034     0.935      2.758     129.3354  19.5342        182
 5.89   0.0791    644.8383    651.1881  45.66     1777.548     0.800     65.14034     0.677      3.055     129.4232  19.9254        183
 7.10   0.1343    640.3939    274.8174 -18.76     1045.955     0.747     65.14034     0.449      2.661     129.3647  20.5012        184
 4.29   0.0534    629.6943    804.5840 -38.06     2631.751     1.004     65.14034     0.931      2.709     129.3793  19.4994        185
 4.00   0.0296    622.7623   1580.2859 -21.97     4749.833     1.161     65.14034     1.088      2.869     129.3793  18.8583        186
 7.20   0.0642    617.6240   1149.2490  63.36     2190.608     0.705     65.14034     0.646      3.515     129.4525  19.6986        187
 7.22   0.1599    608.6580    943.7079 -47.61      878.372     0.562     65.14034     0.340      2.286     129.3061  20.6908        188
 3.77   0.0018   1551.6090    680.5820 -25.13     80021.15     4.213     65.14034     3.649      8.714     129.3647  15.7920        189
 4.88   0.0219   1564.8285    782.9484 -80.10     6410.292     1.596     65.14034     1.157      3.989     129.4379  18.5328        190
 4.18   0.0232   1583.9823   1107.3646  -3.87      6069.52     1.234     65.14034     1.119      2.845     129.4379  18.5921        191
 3.50   0.0005   1562.5820    302.4688 -71.97       266536     1.813     65.14034     1.787      2.976     129.4525  14.4856        192
 5.21   0.0311   1545.1246    861.9520  58.14     4515.498     1.358     65.14034     1.132      3.814     129.3354  18.9132        193
 4.19   0.0302   1560.2106    859.8414 -44.87     4655.052     1.147     65.14034     1.080      2.840     129.4086  18.8802        194
 3.95   0.0193   1569.4437     90.8909 -54.90     7288.367     1.220     65.14034     1.190      2.702     129.3207  18.3934        195
 3.84   0.0146   1565.5842     20.1956 -31.18      9640.07     1.308     65.14034     1.243      2.825       129.35  18.0898        196
 5.17   0.0693   1550.0061   1220.5410  -0.01     2029.195     0.996     65.14034     0.776      2.712     129.4671  19.7817        197
 3.50   0.0005   1557.0232    485.9650 -48.73     263610.2     1.811     65.14034     1.794      2.999      129.394  14.4976        198
 7.45   0.0645   1531.5010    414.0070  89.85     2177.756     0.821     65.14034     0.711      3.864     129.3354  19.7050        199
 3.93   0.0127   1541.5602    652.9684  -5.45     11061.25     1.360     65.14034     1.268      2.867     129.4525  17.9405        200
 7.98   0.0812   1519.2098   1099.3802  72.40     1729.795     0.762     65.14034     0.448      3.293     129.3793  19.9550        201
 3.50   0.0040   1513.8955    390.9565 -19.27     35347.28     1.511     65.14034     1.471      2.857     129.2914  16.6791        202
 7.01   0.0915   1065.9607    567.4847 -88.52     1535.238     0.785     65.14034     0.500      2.914     129.3793  20.0846        203
 5.90   0.0673   1514.6218   1545.8690  73.99     2088.459     1.036     65.14034     0.735      3.516     129.4379  19.7504        204
 5.05   0.0786   1513.6230    482.0370 -73.38     1787.183     0.966     65.14034     0.741      2.424      129.394  19.9196        205
 4.35   0.0381   1503.1702    721.7780  46.05      3686.54     1.114     65.14034     1.010      2.681     129.4086  19.1335        206
 5.71   0.0957   1497.6772    842.9538   2.85     1467.347     0.732     65.14034     0.661      2.686     129.3354  20.1337        207
 6.28   0.0934   1487.0623     76.3034  83.96     1504.189     0.736     65.14034     0.672      2.890     129.3061  20.1067        208
 4.69   0.0550   1078.2964    328.4542 -10.28     2553.799     0.957     65.14034     0.931      2.750     129.3061  19.5320        209
 6.66   0.0289   1064.4292   1561.6660 -76.08     4870.364     1.422     65.14034     1.049      5.730      129.394  18.8311        210
 4.96   0.0139   1119.1886    328.0514  59.26     10105.42     2.084     65.14034     1.380      5.247     129.4671  18.0386        211
 6.79   0.0233   1109.6206    477.3038  -8.77     6038.228     1.522     65.14034     1.271      6.841       129.35  18.5977        212
 8.83   0.0495   1474.3861    996.7784 -17.93     2838.134     0.765     65.14034     0.448      4.431     129.3647  19.4174        213
 4.68   0.0455   1128.1554    545.6889 -28.78     3086.772     1.030     65.14034     0.962      2.781     129.3207  19.3262        214
 3.50   0.0045   1106.4398    426.2938 -20.80     31122.21     1.504     65.14034     1.469      2.920     129.2621  16.8173        215
 7.96   0.0593   1481.7223    573.1321 -54.37     2368.933     1.103     65.14034     0.523      4.053     129.2914  19.6136        216
 0.00  99.0000   1445.2115    729.7859 -43.47    -275.1186     0.745     65.14034     0.559      4.468     129.3647  99.0000        217
 4.11   0.0220   1150.0950     97.6617 -14.31     6383.074     1.208     65.14034     1.115      2.907     129.3207  18.5374        218
 3.50   0.0010   1137.4657    146.3181 -45.28       140294     1.731     65.14034     1.714      2.991     129.2768  15.1824        219
 4.07   0.0626   1405.4136    328.2397  77.12     2244.041     0.958     65.14034     0.924      2.546     129.4379  19.6724        220
 5.46   0.0175   1193.9650    122.3893 -79.05     8026.267     1.612     65.14034     1.356      4.731     129.4232  18.2887        221
 5.05   0.0318   1152.7662   1351.5723  16.70      4418.02     1.257     65.14034     1.138      3.793      129.394  18.9369        222
 5.06   0.0469   1129.2538    217.8313   1.09     2995.711     1.162     65.14034     0.911      3.204     129.4232  19.3587        223
 3.50   0.0042   1387.8881   1427.1295  -5.27     33638.52     1.484     65.14034     1.471      2.971     129.2914  16.7329        224
 5.42   0.0231   1258.5282    430.7979  16.40     6095.645     1.601     65.14034     1.442      4.937     129.4525  18.5875        225
 3.52   0.0089   1434.2655    223.0121 -27.77     15763.46     1.369     65.14034     1.318      2.752     129.4525  17.5559        226
 3.50   0.0004   1392.3219    112.7204 -63.33     360522.2     1.860     65.14034     1.830      3.006     129.3354  14.1577        227
 3.78   0.0122   1389.4834    711.6834 -12.46     11545.06     1.319     65.14034     1.246      2.833     129.3061  17.8940        228
 3.50   0.0131   1407.1290    306.5896 -58.16     10744.95     1.333     65.14034     1.280      2.744     129.4671  17.9720        229
 3.51   0.0120   1438.8043    617.5106 -19.09      11722.4     1.300     65.14034     1.296      2.747       129.35  17.8775        230
 5.29   0.0734   1437.8807   1269.6454  12.90     1913.902     0.970     65.14034     0.743      2.891     129.3354  19.8452        231
 6.12   0.1255   1435.4896   1345.9685   0.52     1119.303     0.777     65.14034     0.500      2.618       129.35  20.4276        232
 6.83   0.0685   1431.0245    339.0038  34.88     2051.683     0.813     65.14034     0.783      3.615      129.394  19.7697        233
 5.23   0.0431   1410.1804    348.2027  44.59     3257.987     1.284     65.14034     1.027      3.609     129.3793  19.2676        234
 3.97   0.0187   1414.4740   1385.1525 -83.46     7520.191     1.199     65.14034     1.187      2.840     129.3354  18.3594        235
 7.42   0.1849   1261.3177    214.3352 -44.19     759.5352     0.571     65.14034     0.337      2.322     129.2914  20.8486        236
 3.50   0.0045   1290.4095    760.5784 -22.98     31525.23     1.963     65.14034     1.445      3.263     129.3793  16.8034        237
 5.00   0.0858   1387.9564    805.0132 -34.65     1638.262     0.780     65.14034     0.773      2.654     129.4086  20.0140        238
 5.05   0.0325   1399.8220   1029.8907  41.53     4323.855     1.233     65.14034     1.119      3.550       129.35  18.9603        239
 3.94   0.0174   1391.3380   1037.2936 -43.58     8050.167     1.261     65.14034     1.190      2.838     129.3354  18.2855        240
 3.82   0.0028   1271.7605    608.2715 -56.40     50311.85     3.819     65.14034     2.244      6.759      129.394  16.2958        241
 3.50   0.0035   1371.5881   1017.4000 -29.14     39599.54     1.598     65.14034     1.523      2.968      129.394  16.5558        242
 3.54   0.0073   1277.2020   1329.9390 -72.17     19213.14     1.404     65.14034     1.363      2.926     129.4818  17.3410        243
 4.13   0.0371   1291.6356    411.0921 -19.83      3784.07     1.142     65.14034     1.017      2.610     129.3207  19.1051        244
 7.51   0.1194   1345.1929    603.5857 -70.25      1176.65     0.753     65.14034     0.448      2.782     129.3207  20.3734        245
 7.99   0.1155   1378.3179    317.3241 -44.69     1215.948     0.567     65.14034     0.339      2.602     129.3354  20.3377        246
 3.50   0.0010   1318.9797    658.3566 -51.30     135628.8     1.743     65.14034     1.712      2.995     129.4232  15.2191        247
 4.64   0.0682   1329.3981    385.3568  44.48     2060.353     0.962     65.14034     0.868      2.637     129.4671  19.7651        248
 9.46   0.0558   1351.5060    150.4881 -47.39     2516.539     0.501     65.14034     0.499      3.003     129.2768  19.5480        249
 3.83   0.0082   1328.8938    654.2342 -52.05     17131.08     1.535     65.14034     1.422      3.302     129.3207  17.4655        250
 4.06   0.0385   1331.7502    105.6862 -41.19     3646.638     1.106     65.14034     1.056      2.726     129.3354  19.1453        251
 4.43   0.0387   1303.8361    891.3013  63.38     3629.573     1.076     65.14034     1.003      2.860     129.2621  19.1504        252
 3.95   0.0109   1306.4565    668.0087  -7.10     12957.69     1.365     65.14034     1.285      2.899     129.4964  17.7687        253
 4.46   0.0554   1318.3636    262.3821 -41.33     2539.083     1.016     65.14034     0.927      2.611     129.4379  19.5383        254
 3.50   0.0002   1297.3243    723.2333 -49.66     847660.5     1.993     65.14034     1.943      3.082     129.3647  13.2294        255
 6.91   0.1204   1290.5083    544.4692 -50.07     1166.363     0.502     65.14034     0.497      2.209     129.3207  20.3829        256
 5.66   0.0195   1292.5227    740.7449 -27.93     7193.446     1.224     65.14034     1.210      4.480       129.35  18.4077        257
 5.54   0.1111   1298.1482     52.1714 -45.81     1265.551     0.804     65.14034     0.675      2.482     129.4379  20.2943        258
 3.50   0.0094   1264.4128    806.2385  -3.53     14924.95     1.367     65.14034     1.337      2.826     129.4379  17.6152        259
 5.64   0.0810   1261.1466    853.8231  46.58     1734.816     0.799     65.14034     0.679      2.579     129.4671  19.9519        260
 3.98   0.0194   1236.2218   1552.2218 -25.35     7252.546     1.235     65.14034     1.181      2.822     129.4232  18.3988        261
 7.66   0.0853   1272.7844    696.4196 -70.82     1648.117     0.740     65.14034     0.455      3.049     129.3793  20.0075        262
 3.50   0.0032   1217.9402   1193.3903  -6.77     43488.49     1.605     65.14034     1.572      3.106     129.4818  16.4541        263
 6.43   0.0336   1228.8069    597.3965 -79.18     4187.047     1.168     65.14034     1.092      4.759     129.3647  18.9952        264
 5.28   0.0819   1227.9424   1152.0444 -26.21     1714.842     0.775     65.14034     0.772      2.599     129.3793  19.9644        265
 4.79   0.0655   1236.5430     46.4796 -30.81     2144.199     0.891     65.14034     0.881      2.585       129.35  19.7218        266
 3.50   0.0116   1233.3020    303.0944   7.24     12100.76     1.334     65.14034     1.325      2.704     129.2475  17.8430        267
 6.25   0.0208   1211.7311   1427.9958  26.63     6774.872     1.666     65.14034     1.557      6.490     129.4525  18.4727        268
 3.83   0.0032   1209.8131   1277.4897  84.44     43576.73     5.416     65.14034     3.142      9.690     129.3793  16.4519        269
 3.50   0.0021   1213.5981    511.3777 -17.48     66314.38     1.606     65.14034     1.570      2.927      129.394  15.9960        270
 3.96   0.0187   1206.7020    837.2943  39.09     7506.115     1.250     65.14034     1.197      2.781     129.2475  18.3615        271
 6.28   0.1414   1203.2600   1215.9835   1.00     993.6218     0.661     65.14034     0.439      2.542      129.394  20.5569        272
 3.90   0.0188   1200.7714    337.3943  14.45     7472.373     1.240     65.14034     1.196      2.817     129.4086  18.3664        273
 4.54   0.0292   1199.9950   1440.7178  60.81     4813.801     1.443     65.14034     1.256      3.777      129.394  18.8438        274
 5.16   0.0909   1180.9392    174.5022  -0.38     1545.231     0.785     65.14034     0.700      2.652     129.3061  20.0775        275
 4.85   0.0512   1179.9983    547.6570  -6.45     2748.938     0.956     65.14034     0.937      2.848     129.4964  19.4521        276
 3.50   0.0054   1156.7819    234.6898 -15.67     26042.37     1.474     65.14034     1.429      2.852     129.3793  17.0108        277
 4.56   0.0446   1160.6958    886.1809  12.50     3151.909     1.041     65.14034     0.946      2.673     129.3647  19.3036        278
 6.33   0.1129   1130.0095    357.4835 -89.13     1244.401     0.772     65.14034     0.500      2.474     129.3793  20.3126        279
 3.50   0.0006   1164.2815   1298.2550 -57.81     225793.4     1.791     65.14034     1.772      3.043     129.2914  14.6657        280
 6.07   0.1201   1166.0150   1599.2726  89.52     909.7317     0.737     65.14034     0.666      3.349     100.6356  20.6527        281
 3.50   0.0019   1128.9396    181.7825 -32.03     73430.14     1.636     65.14034     1.607      2.956      129.394  15.8853        282
 3.99   0.0364   1094.6251   1525.2061  -7.39     3859.463     1.081     65.14034     1.021      2.733     129.4086  19.0837        283
 3.50   0.0009   1079.0358    510.4872 -24.43     149987.7     1.729     65.14034     1.718      3.001     129.3647  15.1099        284
 6.41   0.0423   1089.9573    466.4429 -63.45     3321.906     1.629     65.14034     0.837      4.963     129.3647  19.2465        285
 3.50   0.0032   1080.8557   1146.7013  -7.45     43362.23     1.538     65.14034     1.516      2.955     129.2328  16.4572        286
 5.31   0.1197   1093.8127   1134.8312 -44.17     1174.693     0.799     65.14034     0.677      2.371     129.4379  20.3752        287
 6.99   0.1585    981.4794   1485.5005 -33.80     885.7776     0.500     65.14034     0.499      2.473     129.2621  20.6817        288
 8.58   0.1102   1085.5018   1451.4797  48.52     1274.369     0.501     65.14034     0.498      3.009     129.2621  20.2868        289
 5.43   0.0160   1071.1219   1217.5728 -73.27     8784.239     1.549     65.14034     1.406      4.948     129.3793  18.1907        290
 3.50   0.0016   1024.9236   1378.5546 -42.49     87373.49     1.629     65.14034     1.615      3.027       129.35  15.6966        291
 3.50   0.0019   1008.8862    812.1166 -26.98     75199.99     1.620     65.14034     1.606      2.984     129.3061  15.8595        292
 5.93   0.0223    985.6927    452.3828  48.89      6304.25     1.407     65.14034     1.289      5.491      129.394  18.5509        293
 3.50   0.0011    983.9282    556.8718 -30.11       132704     1.716     65.14034     1.700      3.020     129.3061  15.2428        294
 3.50   0.0007   1039.2604    631.4094 -45.32     191854.3     1.766     65.14034     1.757      3.006     129.4818  14.8426        295
 6.91   0.1465    997.2210    231.5965 -71.47     959.0361     0.730     65.14034     0.456      2.494     129.3793  20.5954        296
 3.50   0.0036   1037.7264    523.7981  25.63     39081.75     1.523     65.14034     1.513      2.914     129.4525  16.5701        297
 7.87   0.1427   1013.5191    451.4943  43.26     984.2067     0.503     65.14034     0.497      2.862     129.3061  20.5673        298
 4.20   0.0389    998.9316   1272.3479 -65.75     3608.863     1.129     65.14034     1.015      2.806     129.3354  19.1566        299
 4.71   0.0173   1029.2104    300.9460  64.78     8132.113     2.132     65.14034     1.508      5.151     129.4671  18.2745        300
 3.59   0.0125   1010.2874    343.0584  -6.71     11214.32     1.338     65.14034     1.303      2.754     129.3354  17.9256        301
 8.52   0.0959   1010.3059    266.3173 -44.37     1464.891     0.558     65.14034     0.343      2.809     129.3061  20.1355        302
 3.88   0.0277   1000.6243   1554.0305 -74.47     5078.495     1.148     65.14034     1.126      2.803     129.3647  18.7857        303
