#   1 KRON_RADIUS            Kron apertures in units of A or B                         
#   2 MAGERR_APER            RMS error vector for fixed aperture mag.                   [mag]
#   3 Y_IMAGE                Object position along y                                    [pixel]
#   4 X_IMAGE                Object position along x                                    [pixel]
#   5 FLUX_APER              Flux vector within fixed circular aperture(s)              [count]
#   6 THRESHOLD              Detection threshold above background                       [count]
#   7 THETA_IMAGE            Position angle (CCW/x)                                     [deg]
#   8 A_IMAGE                Profile RMS along major axis                               [pixel]
#   9 B_IMAGE                Profile RMS along minor axis                               [pixel]
#  10 FLUX_RADIUS            Fraction-of-light radii                                    [pixel]
#  11 FLUXERR_APER           RMS error vector for aperture flux(es)                     [count]
#  12 MAG_APER               Fixed aperture magnitude vector                            [mag]
#  13 NUMBER                 Running object number                                     
 4.23   0.0009     53.2652     63.6543       134404      43.5214   3.17     5.181     4.630      4.120     108.6771  15.2290          1
 3.95   0.0052     16.5149    985.0804     22890.48      43.5214 -88.61     4.203     1.941      3.345     108.6402  17.1509          2
 4.06   0.0066     18.0504     91.3141     17824.41      43.5214   0.42     1.768     1.716      1.682     108.6648  17.4225          3
 3.50   0.0027     14.6167   1445.7477     43642.86      43.5214 -47.82     1.890     1.819      1.577     108.7509  16.4502          4
 8.12   0.1021     10.2946   1183.6542     1155.431      43.5214  42.42     0.565     0.339      1.428     108.6402  20.3931          5
 7.36   0.0489      4.2259    145.0241     2163.783      43.5214  89.83     0.957     0.768      2.281     97.39894  19.7120          6
 6.64   0.0454     17.2495    384.5071     2598.104      43.5214  19.99     0.993     0.952      1.945     108.6279  19.5134          7
 5.14   0.0278     24.7971    367.2085      4247.18      43.5214  13.81     1.305     1.234      1.717     108.6771  18.9797          8
 3.50   0.0006     59.7850   1078.4766     194549.5      43.5214  77.02     2.287     2.159      1.611     108.7878  14.8274          9
 8.57   0.0602     23.7800    383.3999     1962.163      43.5214 -71.85     0.755     0.452      2.036      108.714  19.8182         10
 6.41   0.0453     33.9023   1110.1802     2602.305      43.5214  68.24     1.657     0.778      2.399     108.6648  19.5116         11
 7.88   0.0602     33.3076    326.9492     1960.476      43.5214  -6.92     0.747     0.677      2.145     108.6525  19.8191         12
 5.98   0.0907     37.8655   1521.1591     1301.652      43.5214  46.72     0.834     0.669      1.485      108.714  20.2638         13
 7.05   0.0693     38.8750   1170.6508     1702.674      43.5214 -19.52     0.923     0.691      1.895     108.6402  19.9722         14
 5.87   0.0734     42.4605    915.4996     1606.964      43.5214 -77.10     0.913     0.907      1.644     108.6279  20.0350         15
 3.50   0.0006     80.1536    537.6561     189134.2      43.5214 -59.56     2.145     2.122      1.587     108.7017  14.8581         16
 9.02   0.0685     44.6655    440.6699     1721.462      43.5214 -45.19     0.576     0.334      1.914     108.6525  19.9603         17
 4.26   0.0149     75.2162    128.0142     7931.633      43.5214  -5.75     1.516     1.469      1.696      108.714  18.3016         18
 6.64   0.0494     82.2787    421.5101     2389.493      43.5214 -15.66     0.994     0.986      2.097     108.6279  19.6042         19
 3.50   0.0004    121.8120    789.2006       278850      43.5214 -62.81     2.230     2.179      1.552      108.714  14.4366         20
 6.02   0.0250     90.7295    376.9918     4717.145      43.5214   4.47     1.628     1.442      2.931     108.7632  18.8658         21
 4.42   0.0104     96.6151     56.2576     11363.54      43.5214 -38.95     1.639     1.566      1.749     108.7263  17.9112         22
 6.10   0.0379     98.0585    452.9797     3115.728      43.5214 -14.82     1.454     1.005      2.304     108.7509  19.3161         23
 7.39   0.0797     91.4945    495.9650     1479.937      43.5214  -1.40     0.788     0.500      1.563     108.6402  20.1244         24
 3.50   0.0007    162.2989   1468.3301     157946.5      43.5214 -48.48     2.111     2.074      1.575     108.6525  15.0537         25
 6.85   0.0832    131.2865    418.0175     1419.078      43.5214   5.64     0.729     0.681      1.656     108.7017  20.1700         26
 3.55   0.0032    170.2996    877.3505     37156.26      43.5214  -8.96     1.882     1.865      1.604     108.5663  16.6249         27
 8.52   0.0948    151.4999   1280.4825     1243.731      43.5214 -47.88     0.501     0.498      1.671     108.5787  20.3132         28
 5.51   0.0300    164.9741   1445.6677     3930.979      43.5214  17.35     1.303     1.186      1.895     108.7263  19.0637         29
 4.82   0.0432    166.8505    104.4303     2731.369      43.5214 -46.35     1.196     1.124      1.663     108.7509  19.4590         30
 6.42   0.0757    169.3397   1368.8977     1557.479      43.5214  68.06     0.910     0.689      1.589     108.6279  20.0689         31
 7.68   0.0555    180.3316    574.9897     2126.616      43.5214  53.18     1.039     0.643      2.339     108.7755  19.7308         32
 7.49   0.0480    186.6387   1354.8976     2459.735      43.5214  75.59     1.045     0.753      2.351     108.6156  19.5728         33
 5.30   0.0248    192.6023   1350.5554      4770.27      43.5214 -19.15     1.368     1.305      1.860     108.7755  18.8536         34
 4.77   0.0068    210.7202    827.6749     17243.78      43.5214  -5.78     3.810     2.091      3.626     108.6648  17.4584         35
 4.14   0.0145    206.7225    549.0807     8116.606      43.5214   3.37     1.545     1.484      1.672     108.6771  18.2766         36
 4.19   0.0146    212.1664   1306.1005     8068.497      43.5214 -64.54     1.516     1.487      1.632      108.591  18.2830         37
 5.52   0.0078    230.1494    562.2775     15133.58      43.5214 -37.31     3.231     3.004      4.857     108.6402  17.6001         38
 5.76   0.0433    210.8939    684.8484     2727.474      43.5214 -66.39     1.218     1.115      2.031     108.6279  19.4606         39
 3.50   0.0002    259.7588    997.4791     472654.8      43.5214 -48.81     2.331     2.263      1.609     108.6894  13.8636         40
 3.92   0.0127    223.9121   1226.0618     9278.108      43.5214  25.89     1.523     1.479      1.589     108.6525  18.1314         41
 4.86   0.0337    222.6267    774.9695     3505.857      43.5214  81.57     1.224     1.191      1.667     108.7263  19.1880         42
 3.50   0.0003    265.9002     67.6173     361659.2      43.5214 -49.31     2.268     2.237      1.604     108.6648  14.1543         43
 5.52   0.0172    243.9732    112.8913     6860.818      43.5214 -88.19     1.951     1.539      2.672     108.6771  18.4591         44
 4.81   0.0072    255.4885    613.0098     16377.05      43.5214 -41.01     2.436     2.028      2.690      108.714  17.5144         45
 6.52   0.0404    239.3535    838.8231     2921.204      43.5214  -5.84     1.203     1.102      2.332     108.7386  19.3861         46
 7.18   0.0393    250.5180    107.4840      2998.99      43.5214 -42.78     1.108     0.852      2.470     108.6402  19.3576         47
 3.50   0.0014    287.5196   1486.4733     85486.91      43.5214 -43.97     2.033     1.992      1.601     108.6525  15.7203         48
 3.66   0.0061    281.9236   1522.4003     19359.32      43.5214   3.77     1.701     1.668      1.579     108.7263  17.3328         49
 6.46   0.0487    270.7727   1273.6278     2424.472      43.5214  16.49     1.000     0.849      2.012     108.7386  19.5885         50
 3.50   0.0018    303.1506    201.7659      63942.2      43.5214 -78.11     1.968     1.942      1.592     108.7263  16.0355         51
 6.27   0.0313    293.2967   1475.8354      3767.48      43.5214 -33.66     1.250     1.086      2.124     108.6033  19.1099         52
 4.64   0.0315    302.2875    563.6751     3739.682      43.5214  31.81     1.325     1.283      1.765     108.6279  19.1179         53
 3.50   0.0028    322.0853    697.3419     42211.55      43.5214   1.78     1.882     1.848      1.584     108.6648  16.4864         54
 7.64   0.0468    308.7069     85.2985     2521.222      43.5214  45.78     0.969     0.767      2.534     108.6156  19.5460         55
 6.05   0.0284    321.9905    641.4783     4165.106      43.5214 -64.00     1.799     1.232      2.884     108.7386  19.0009         56
 5.16   0.0134    327.5369    595.4523     8822.632      43.5214 -52.10     1.728     1.694      2.314     108.6771  18.1860         57
 6.07   0.0750    329.2517   1546.0168     1574.798      43.5214 -87.78     0.913     0.756      1.549     108.7509  20.0569         58
 5.83   0.0542    332.2679     93.4347     2177.694      43.5214  20.40     0.992     0.948      1.654     108.7263  19.7050         59
 4.78   0.0256    350.1319     54.7084      4611.78      43.5214  -8.51     1.366     1.298      1.757     108.6402  18.8903         60
 3.50   0.0027    368.1670    761.1217     43940.57      43.5214 -26.12     1.940     1.871      1.597     108.7017  16.4428         61
 4.02   0.0145    361.1491   1500.4037     8148.107      43.5214 -15.08     1.586     1.464      1.682     108.7878  18.2724         62
 3.50   0.0006    395.2009    231.4691       210942      43.5214 -63.05     2.184     2.143      1.602     108.7632  14.7396         63
 5.78   0.0451    360.5269   1034.0070     2617.073      43.5214  -1.40     1.111     0.957      1.713     108.7632  19.5055         64
 6.91   0.0339    375.4792    754.0627      3482.49      43.5214  56.22     1.715     0.961      3.036     108.6402  19.1953         65
 7.68   0.0669    370.3091     71.9499     1764.755      43.5214 -10.89     0.743     0.672      1.958     108.6771  19.9333         66
 6.47   0.0534    373.4826   1083.8826     2210.605      43.5214 -17.84     1.100     0.990      2.209     108.6402  19.6887         67
 6.41   0.0417    380.6161      1.4882     2162.328      43.5214 -89.79     1.601     0.500      2.013     83.06795  19.7127         68
 3.50   0.0040    397.0519   1461.2017     29806.71      43.5214 -44.85     1.804     1.797      1.565     108.7878  16.8642         69
 3.50   0.0034    398.1799    354.6261     34754.34      43.5214 -13.53     1.890     1.844      1.623      108.714  16.6975         70
 8.09   0.1176    375.6552     87.2937     1003.068      43.5214  47.61     0.564     0.339      1.343     108.6525  20.5467         71
 6.71   0.0656    380.1594    125.8447     1801.031      43.5214  44.65     0.818     0.680      1.626     108.7386  19.9112         72
 4.22   0.0154    393.8183   1088.7736     7687.375      43.5214 -35.06     1.516     1.449      1.656     108.7263  18.3356         73
 8.89   0.0797    382.4900     67.5055      1480.39      43.5214 -44.69     0.503     0.497      1.789     108.6033  20.1241         74
 8.07   0.1506    388.6902   1195.3347     783.4807      43.5214  43.77     0.567     0.338      1.474     108.6771  20.8149         75
 6.14   0.0260    412.0432      1.7727     3538.415      43.5214  90.00     2.505     0.701      3.112     84.80453  19.1780         76
 7.90   0.0331    396.8768    626.5975     3562.007      43.5214 -73.71     1.239     0.985      3.196     108.7263  19.1708         77
 8.16   0.0541    403.6928    526.4366     2181.147      43.5214  81.17     1.023     0.476      2.294     108.6525  19.7033         78
 7.54   0.0856    407.0518    282.4902     1378.788      43.5214 -88.59     0.787     0.500      1.664     108.6771  20.2013         79
 3.50   0.0017    437.9478    252.1072     69371.29      43.5214 -87.21     2.006     1.974      1.605     108.6525  15.9471         80
 3.50   0.0002    461.0704    807.6703     575167.4      43.5214 -68.51     2.341     2.304      1.600      108.591  13.6505         81
 5.83   0.0255    420.9021    159.0900     4628.458      43.5214  37.62     1.694     1.421      2.599     108.6033  18.8864         82
 7.67   0.1247    419.5386   1580.4929     946.5688      43.5214  40.47     0.504     0.495      1.324     108.6525  20.6096         83
 4.17   0.0197    432.9492   1422.0629     5985.592      43.5214   6.85     1.427     1.396      1.638     108.6771  18.6072         84
 6.72   0.0454    426.5748   1179.2787      2599.09      43.5214  26.35     1.188     0.957      2.338      108.714  19.5129         85
 6.42   0.0011    426.8329    433.0970     104088.6      43.5214  -3.27     2.183     0.735      3.778     108.6279  15.5065         86
 5.15   0.0472    434.2586    151.1154     2500.575      43.5214 -20.05     1.138     1.034      1.624     108.6648  19.5549         87
 3.88   0.0052    450.3392     21.3603     22659.84      43.5214 -27.47     1.777     1.769      1.660     108.7263  17.1619         88
 5.07   0.0058    467.7993    850.4810     20203.98      43.5214  22.59     7.403     2.054      6.171     108.7263  17.2864         89
 9.05   0.0404    430.6650    719.3185     2921.044      43.5214  45.76     0.572     0.336      2.050     108.6279  19.3862         90
 4.48   0.0456    440.0043    305.8401     2589.004      43.5214  22.45     1.160     1.136      1.542     108.7263  19.5172         91
 5.42   0.0283    445.2589    122.3780     4176.409      43.5214 -23.52     1.401     1.309      2.096     108.7509  18.9980         92
 3.80   0.0046    457.8408     34.5939     25483.63      43.5214 -30.83     1.779     1.767      1.639     108.7386  17.0343         93
 8.05   0.1057    443.6886    655.3237     1115.942      43.5214  44.36     0.563     0.340      1.404     108.6156  20.4309         94
 4.32   0.0138    463.6414    468.6490     8581.789      43.5214  70.99     1.619     1.558      1.787     108.7509  18.2161         95
 6.24   0.0845    452.9206   1533.0249     1396.758      43.5214 -31.03     0.792     0.774      1.532      108.714  20.1872         96
 5.22   0.0426    460.9918   1096.1410     2773.713      43.5214  47.71     1.191     1.080      1.663     108.7878  19.4423         97
 4.60   0.0158    471.3581    254.2742     7454.021      43.5214 -79.51     1.510     1.439      1.765     108.6894  18.3690         98
 4.03   0.0114    472.1380    734.9207     10317.69      43.5214  75.27     1.566     1.511      1.610     108.6402  18.0160         99
 7.71   0.0543    461.8358    724.7247     2175.529      43.5214 -20.12     0.949     0.683      2.208     108.6894  19.7061        100
 3.70   0.0090    477.9271    923.0840     13054.21      43.5214 -28.67     1.679     1.612      1.585     108.6402  17.7606        101
 4.34   0.0233    477.2791   1276.4363     5074.219      43.5214 -44.53     1.334     0.920      1.712     108.6894  18.7866        102
 5.84   0.0335    488.9431    839.6031     3531.223      43.5214  87.10     2.059     0.959      2.755     108.7878  19.1802        103
 4.14   0.0204    484.0388   1070.6680       5799.5      43.5214 -80.82     1.429     1.400      1.657      108.714  18.6415        104
 7.10   0.1058    475.9789   1168.4807     1116.284      43.5214  89.68     0.781     0.500      1.513     108.7263  20.4306        105
 5.40   0.0114    496.2654     82.9187     10306.29      43.5214  66.13     2.311     2.046      3.319     108.6279  18.0172        106
 6.87   0.0686    478.8629    682.8434     1719.699      43.5214 -46.10     0.819     0.679      1.694     108.6894  19.9614        107
 5.12   0.0118    495.7248   1186.8407     10020.57      43.5214 -15.71     2.996     1.931      3.608     108.6894  18.0478        108
 5.26   0.0195    504.0796    762.8668     6057.908      43.5214 -10.71     1.688     1.646      2.649     108.6279  18.5942        109
 4.77   0.0335    502.0138    863.8067     3524.231      43.5214  64.62     1.201     1.192      1.651     108.6525  19.1823        110
 4.57   0.0095    515.3623   1461.0657     12419.81      43.5214  23.93     4.115     1.649      3.683     108.7263  17.8147        111
 6.08   0.0768    498.0054    366.2516     1537.606      43.5214   0.37     0.926     0.749      1.576     108.7878  20.0829        112
 6.08   0.0324    509.9191    164.8152     3648.296      43.5214  -5.95     1.820     1.073      2.540     108.7386  19.1448        113
 4.83   0.0320    513.8598   1179.1876     3687.888      43.5214  24.06     1.285     1.178      1.672     108.7386  19.1331        114
 5.52   0.0440    519.1540    641.9484     2682.438      43.5214  22.36     1.200     1.120      1.943     108.7632  19.4787        115
 6.45   0.1024    518.1915   1519.1722     1153.122      43.5214  45.74     0.761     0.567      1.516     108.7263  20.3953        116
 4.09   0.0148    540.2067    999.9378     7973.418      43.5214  61.15     1.534     1.490      1.673     108.7755  18.2959        117
 6.53   0.0588    536.3547    404.5305     2007.582      43.5214  38.93     1.195     0.786      2.098     108.6771  19.7933        118
 3.90   0.0109    558.9035   1041.7982      10801.4      43.5214   6.20     1.633     1.563      1.641     108.7017  17.9663        119
 4.74   0.0148    571.3472     45.9143     7958.542      43.5214  46.17     2.084     1.522      2.365     108.6525  18.2979        120
 5.98   0.1426    555.8228    778.8107     827.7271      43.5214  44.57     0.756     0.567      1.369     108.7017  20.7553        121
 3.50   0.0028    580.7163    144.9663     41460.89      43.5214  83.47     1.885     1.868      1.594      108.714  16.5059        122
 4.85   0.0158    571.3085   1447.7944     7446.272      43.5214  19.43     2.258     1.637      2.889     108.6648  18.3702        123
 5.88   0.0516    565.0881    139.5546      2286.64      43.5214 -69.74     1.052     0.977      1.756     108.6648  19.6520        124
 3.50   0.0028    582.1971    319.2584     42123.17      43.5214   7.31     1.887     1.830      1.601     108.7878  16.4887        125
 4.29   0.0053    596.7602    782.6867     22361.29      43.5214 -62.08     3.302     3.182      3.910     108.7017  17.1763        126
 5.97   0.0434    576.2225   1001.8235     2718.086      43.5214  40.80     1.216     1.076      2.181     108.7263  19.4643        127
 4.64   0.0381    584.5398     76.0209     3098.339      43.5214  -0.84     1.205     1.138      1.635     108.7509  19.3222        128
 4.19   0.0228   1001.5298   1555.4829     5174.775      43.5214  54.97     1.346     1.330      1.608     108.6279  18.7653        129
 4.71   0.0253   1597.6036    654.7847     4015.814      43.5214   1.75     1.659     1.434      2.332     93.47559  19.0406        130
 5.16   0.0442   1594.7568    374.1190     2578.833      43.5214  42.74     1.307     1.027      1.880     105.0354  19.5214        131
 4.05   0.0204   1584.9181   1108.9316      5776.97      43.5214 -15.59     1.433     1.357      1.587     108.6525  18.6457        132
 6.78   0.1154   1585.9497   1069.5099     1022.354      43.5214 -88.96     0.783     0.500      1.376     108.6648  20.5260        133
 3.60   0.0078   1541.8564    135.1745     15154.85      43.5214  54.68     1.663     1.623      1.592     108.7386  17.5986        134
 8.74   0.1053   1519.3268     85.3294     1119.966      43.5214 -44.88     0.573     0.336      1.705     108.6156  20.4270        135
 4.79   0.0689   1514.6519    483.6263     1715.034      43.5214 -43.74     1.049     0.951      1.504     108.7509  19.9643        136
 4.90   0.0650    912.4185   1001.2366     1815.914      43.5214  73.44     0.989     0.957      1.551     108.7386  19.9023        137
 3.50   0.0042    900.4997    302.8331     28222.18      43.5214 -64.19     1.794     1.787      1.630     108.6033  16.9235        138
 4.92   0.0171    896.1861    538.5018     6903.083      43.5214   6.05     1.942     1.608      2.484     108.6771  18.4524        139
 5.31   0.0727    893.7880   1426.2821       1625.4      43.5214 -16.60     0.974     0.854      1.596     108.7386  20.0226        140
 3.50   0.0003    880.2065   1592.6320     456330.2      43.5214 -83.52     2.300     2.188      1.574     108.7509  13.9018        141
 6.04   0.0312    888.8303    325.8213     3781.651      43.5214  17.19     1.767     1.100      2.591      108.714  19.1058        142
 8.02   0.1160    888.6788    681.3232      1017.79      43.5214  44.90     0.568     0.338      1.562     108.6771  20.5309        143
 4.51   0.0304    885.7850   1500.2664     3880.861      43.5214  10.00     1.303     1.227      1.635     108.7632  19.0777        144
 7.04   0.0458    885.0953    339.2578     2577.472      43.5214  -2.69     1.149     0.882      2.293     108.6279  19.5220        145
 4.70   0.0493    877.6797    961.0908     2392.215      43.5214  27.86     1.126     1.034      1.561     108.6525  19.6030        146
 6.46   0.0748    876.3213    541.9203     1577.058      43.5214  -7.28     0.737     0.667      1.500     108.6525  20.0554        147
 4.13   0.0095    869.4717   1103.7170     12427.61      43.5214 -55.22     1.983     1.793      2.150     108.6279  17.8140        148
 4.96   0.0250    867.9886    939.9118     4727.853      43.5214  41.19     1.806     1.355      2.371      108.714  18.8633        149
 6.15   0.0905    869.3575    643.8528     1304.772      43.5214  68.50     0.904     0.687      1.494     108.7263  20.2612        150
 8.15   0.1156    860.4996   1554.4683     1020.532      43.5214  48.21     0.504     0.495      1.477     108.6648  20.5279        151
 4.53   0.0357    858.5098   1339.6924     3304.155      43.5214 -89.55     1.308     1.113      1.880     108.6156  19.2523        152
 9.07   0.0709    855.5103    545.4817     1664.682      43.5214 -46.32     0.502     0.497      2.006     108.6402  19.9967        153
 4.16   0.0490    844.9837   1063.9657     2409.209      43.5214   1.03     1.169     1.133      1.553     108.7263  19.5953        154
 4.40   0.0222    843.3248   1106.2646     5306.794      43.5214  40.34     1.667     1.341      1.971     108.6279  18.7379        155
 4.56   0.0173    836.6466    298.8450     6811.162      43.5214  11.92     1.467     1.396      1.699     108.7509  18.4669        156
 6.83   0.1205    836.6003   1520.7371     980.7124      43.5214  18.11     0.733     0.456      1.337     108.7878  20.5711        157
 5.73   0.0741    835.6805    819.1954     1594.507      43.5214 -72.93     0.960     0.861      1.571     108.7263  20.0434        158
 3.50   0.0042    822.9877    654.4249     27947.36      43.5214  74.96     1.838     1.773      1.616     108.7017  16.9341        159
 7.91   0.1830    819.4906   1398.4888     644.6001      43.5214  46.70     0.500     0.500      1.340     108.6156  21.0268        160
 3.50   0.0046    803.0379   1378.7590     25623.88      43.5214 -72.46     1.796     1.752      1.574     108.7509  17.0284        161
 3.50   0.0016    798.4418    695.7374     74181.74      43.5214 -88.12     2.639     1.966      2.006     108.7017  15.8743        162
 4.17   0.0092    800.7010     41.1932     12765.33      43.5214 -23.53     1.671     1.577      1.702     108.6771  17.7849        163
 4.28   0.0100    774.2634   1427.3890     11830.71      43.5214  89.63     2.902     1.909      3.203     108.7878  17.8675        164
 7.20   0.0672    768.0129    140.0102     1756.773      43.5214  44.98     0.806     0.795      2.057     108.6771  19.9382        165
 4.24   0.0168    742.8162    556.3451     7049.978      43.5214 -57.68     1.449     1.420      1.667     108.7509  18.4295        166
 4.32   0.0439    738.1102   1158.1116      2687.78      43.5214  47.36     1.221     1.121      1.562     108.6033  19.4765        167
 5.08   0.0392    736.0913    649.8519     3007.177      43.5214 -38.54     1.206     1.123      1.633     108.6648  19.3546        168
 3.50   0.0004    726.6004    848.5243     279142.1      43.5214 -72.04     2.212     2.178      1.611     108.7386  14.4354        169
 3.87   0.0244    727.4650   1178.3309     4831.674      43.5214 -10.14     1.394     1.328      1.621     108.6525  18.8398        170
 5.23   0.0715    721.4345   1395.1035     1649.249      43.5214  16.01     1.086     0.953      1.708     108.6279  20.0068        171
 3.96   0.0190    715.8315    808.4100     6223.899      43.5214  51.69     1.425     1.393      1.613     108.7263  18.5648        172
 3.99   0.0189    708.9626   1163.8940     6257.646      43.5214  20.90     1.464     1.393      1.622     108.6279  18.5590        173
 4.42   0.0153    704.4229   1339.0634      7699.16      43.5214 -25.11     1.700     1.462      2.202     108.7509  18.3339        174
 3.68   0.0107    702.8209    952.5522     11025.77      43.5214  -9.41     1.630     1.577      1.642     108.7386  17.9440        175
 6.02   0.0374    699.1675    582.7174     3152.809      43.5214   5.06     1.844     0.873      2.490     108.7017  19.3033        176
 5.87   0.0313    691.6353   1213.6743     3765.418      43.5214  87.83     1.432     1.241      2.341     108.6894  19.1105        177
 6.00   0.0409    686.6937   1213.8435     2883.426      43.5214 -47.21     1.217     0.958      1.881     108.6156  19.4002        178
 4.18   0.0126    685.6500    644.3535     9376.659      43.5214 -73.12     1.594     1.581      1.726     108.7509  18.1199        179
 5.68   0.0756    687.6556    130.9231     1561.367      43.5214  76.35     0.983     0.752      1.485     108.6771  20.0662        180
 7.44   0.0603    668.9944   1221.5293     1959.922      43.5214  -0.05     0.827     0.706      2.010     108.7509  19.8194        181
 3.50   0.0004    648.2678   1464.4448     273924.4      43.5214 -76.52     2.214     2.143      1.583     108.6894  14.4559        182
 5.07   0.0435    654.6734    870.9016     2713.895      43.5214  21.01     1.193     1.057      1.584     108.6279  19.4660        183
 6.84   0.0636    645.7944    653.0030     1855.765      43.5214 -88.71     0.912     0.756      1.795     108.6771  19.8787        184
 7.26   0.0883    641.1874    276.8223       1336.6      43.5214 -45.77     0.755     0.569      1.780     108.6894  20.2350        185
 4.14   0.0419    630.8300    806.1274     2815.677      43.5214 -34.12     1.204     1.125      1.518      108.714  19.4260        186
 4.30   0.0241    623.4095   1581.5348     4897.692      43.5214  49.39     1.346     1.338      1.646     108.7878  18.8250        187
 7.18   0.0492    618.1836   1151.1306     2402.581      43.5214 -37.45     0.897     0.874      2.245     108.7755  19.5983        188
 8.09   0.1187    609.5256    945.4929     993.9381      43.5214  42.34     0.503     0.496      1.429     108.6525  20.5566        189
 3.50   0.0005   1563.6936    304.2686       244003      43.5214 -77.52     2.157     2.117      1.579     108.6525  14.5815        190
 4.14   0.0124   1566.7208     22.0779     9480.248      43.5214  75.11     1.574     1.553      1.660     108.6648  18.1080        191
 3.94   0.0107   1542.6152    654.7387     11050.72      43.5214  29.79     1.579     1.560      1.633      108.714  17.9415        192
 3.50   0.0005   1558.0082    487.7251     241131.5      43.5214 -78.65     2.166     2.125      1.579     108.7632  14.5944        193
 4.16   0.0158   1570.5596     92.7663     7489.496      43.5214  -2.72     1.453     1.398      1.616     108.7632  18.3639        194
 4.48   0.0270   1546.1006    863.5362     4365.545      43.5214  60.15     1.564     1.328      2.046     108.6648  18.9499        195
 4.36   0.0243   1561.3612    861.4875     4856.824      43.5214  19.18     1.352     1.338      1.646     108.6894  18.8341        196
 4.38   0.0185   1565.7378    784.6730      6373.72      43.5214 -79.11     1.769     1.443      2.045     108.6648  18.5390        197
 5.18   0.0594   1550.8444   1221.8484     1987.139      43.5214  42.51     1.082     0.925      1.553     108.7386  19.8044        198
 3.57   0.0015   1552.6281    682.2971     80665.51      43.5214 -26.44     4.582     3.959      3.915     108.6402  15.7833        199
 7.80   0.0858   1535.9841   1428.9976     1375.331      43.5214 -45.55     0.927     0.527      2.013     108.6894  20.2040        200
 7.00   0.0542   1532.4937    415.7445     2177.245      43.5214 -84.33     1.017     0.979      2.173     108.6525  19.7052        201
 7.59   0.0752   1519.9943   1100.7047     1568.903      43.5214  89.07     0.749     0.679      1.959     108.6894  20.0610        202
 4.09   0.0249    928.4031   1322.5200     4741.208      43.5214 -44.27     1.357     1.342      1.663     108.7386  18.8603        203
 3.50   0.0035   1514.9222    392.7349     33541.16      43.5214  66.54     1.807     1.797      1.572     108.6402  16.7361        204
 6.00   0.0676   1515.4878   1547.1486     1746.038      43.5214  74.03     1.048     0.871      1.870     108.6525  19.9449        205
 3.50   0.0009   1507.1836    269.3994     134062.2      43.5214 -82.06     2.049     2.030      1.593     108.6894  15.2317        206
 5.55   0.1274   1498.4597    844.2532     926.1715      43.5214 -25.00     0.883     0.757      1.441     108.6771  20.6333        207
 4.56   0.0321   1504.1298    723.3583     3678.824      43.5214  14.84     1.297     1.162      1.586      108.714  19.1357        208
 3.97   0.0138    939.1798   1067.2053     8523.624      43.5214 -23.40     1.522     1.452      1.624     108.7017  18.2234        209
 6.96   0.0907   1488.2819     78.0035     1302.227      43.5214  -1.74     0.735     0.681      1.683      108.714  20.2633        210
 3.92   0.0328    912.8765    838.6033     3594.897      43.5214  -0.15     1.305     1.218      1.577     108.7263  19.1608        211
 5.67   0.0314    950.7991    654.3572     3762.706      43.5214  65.98     1.507     1.354      2.351     108.7632  19.1112        212
 5.84   0.0669    947.8477    445.1833     1764.167      43.5214  47.70     0.889     0.856      1.570     108.7386  19.9336        213
 5.26   0.0617   1065.7639   1597.2657     1674.217      43.5214 -14.20     0.952     0.861      1.486     95.14873  19.9905        214
 7.26   0.0361    938.5413    516.3163     3271.033      43.5214  57.72     1.300     0.997      2.806     108.6525  19.2633        215
 7.66   0.0458   1474.9158    998.3757     2578.914      43.5214 -14.25     1.054     0.754      2.635      108.714  19.5214        216
 6.42   0.0495   1482.4310    575.2145     2387.017      43.5214 -30.81     1.204     0.969      2.314     108.7509  19.6054        217
 5.80   0.0619   1438.6464   1271.3108     1906.945      43.5214 -45.87     0.991     0.878      1.645     108.6525  19.8492        218
 5.08   0.0128   1072.1349   1219.1719     9224.233      43.5214 -73.97     2.049     1.696      2.596      108.714  18.1377        219
 4.97   0.0473   1079.4351    330.1989     2497.149      43.5214   1.47     1.167     0.990      1.623     108.6894  19.5564        220
 3.95   0.0164   1415.4110   1386.6447     7206.163      43.5214  75.55     1.498     1.406      1.619     108.7263  18.4057        221
 3.55   0.0040   1107.4796    428.0644     29725.63      43.5214  29.41     1.816     1.783      1.604     108.6279  16.8672        222
 3.50   0.0029   1081.7991   1148.2404     40391.83      43.5214  77.56     1.859     1.838      1.600     108.7386  16.5343        223
 5.70   0.0770   1066.6768    569.0727     1531.829      43.5214 -72.74     1.032     0.751      1.674     108.6525  20.0870        224
 6.53   0.0187   1110.7510    479.0507     6328.761      43.5214  19.20     1.749     1.562      3.343     108.7632  18.5467        225
 3.54   0.0077   1435.3314    224.8159     15288.37      43.5214  21.04     1.687     1.611      1.596     108.7632  17.5891        226
 6.26   0.0340   1090.9882    468.1736     3472.663      43.5214 -62.75     1.759     1.048      2.729      108.714  19.1983        227
 7.39   0.0036   1441.0785   1082.6284     32649.42      43.5214  43.16     2.974     0.680      4.688     108.6894  16.7653        228
 4.76   0.0403   1411.0619    350.0085     2935.125      43.5214  44.81     1.366     1.125      1.980     108.7878  19.3809        229
 8.08   0.3061   1453.3318    391.6697     385.3618      43.5214  45.06     0.575     0.334      1.458     108.6279  21.5853        230
 3.54   0.0103   1439.7888    619.2131      11413.6      43.5214 -62.85     1.575     1.554      1.561     108.6894  17.9064        231
 3.50   0.0004   1393.4050    114.5455     332512.6      43.5214 -80.89     2.215     2.169      1.589     108.8001  14.2455        232
 6.42   0.1238   1436.1945   1347.1851     953.3809      43.5214  46.04     0.748     0.567      1.415     108.6771  20.6018        233
 4.63   0.0116   1120.3417    329.8551     10184.39      43.5214  55.81     2.503     1.644      2.637     108.6648  18.0302        234
 6.70   0.0658   1431.9259    340.6477     1792.507      43.5214  15.34     1.044     0.753      2.075     108.6648  19.9163        235
 4.82   0.0394   1129.1801    547.4301     2999.641      43.5214  54.92     1.192     1.121      1.645     108.7263  19.3573        236
 3.50   0.0112   1408.2377    308.3844     10532.01      43.5214  -7.03     1.547     1.510      1.575     108.7509  17.9937        237
 5.35   0.0267   1400.5464   1031.5027     4425.651      43.5214  31.11     1.429     1.368      2.034     108.6156  18.9351        238
 3.50   0.0037   1388.6937   1428.5571     31517.29      43.5214  55.76     1.789     1.763      1.586     108.6156  16.8036        239
 6.79   0.0685   1412.1804      1.3059     1299.013      43.5214 -77.74     1.083     0.409      1.761     81.96595  20.2660        240
 4.72   0.0529   1406.3345    329.8578     2228.889      43.5214  26.69     1.130     1.025      1.505     108.6648  19.6798        241
 4.65   0.0566   1330.5002    386.9715     2082.833      43.5214   3.29     1.098     0.952      1.468     108.6402  19.7534        242
 4.79   0.0191   1259.4657    432.5281     6190.242      43.5214  25.38     1.823     1.760      2.598     108.6402  18.5707        243
 3.68   0.0065   1278.0730   1331.4478     18167.98      43.5214  82.55     1.714     1.699      1.613     108.6648  17.4017        244
 3.79   0.0105   1390.4578    713.3802     11273.51      43.5214  43.10     1.588     1.550      1.636     108.7509  17.9199        245
 5.96   0.0701   1388.9021    806.6555     1682.399      43.5214  13.85     0.984     0.753      1.545     108.6156  19.9852        246
 4.34   0.0145   1392.2596   1038.8943     8165.144      43.5214   8.71     1.474     1.451      1.651     108.6648  18.2701        247
 3.53   0.0029   1218.8743   1195.0033     40168.64      43.5214  54.82     1.997     1.952      1.623     108.7755  16.5403        248
 6.99   0.1076   1291.8092    546.1708     1097.476      43.5214 -44.88     0.757     0.568      1.580     108.7263  20.4490        249
 3.56   0.0026   1210.6931   1279.0286     44767.08      43.5214  82.87     5.696     3.445      4.986     108.6771  16.4226        250
 3.82   0.0298   1292.8365    412.6910     3956.792      43.5214 -22.03     1.326     1.267      1.588     108.6648  19.0566        251
 8.47   0.1870   1262.3208    216.3072     630.9293      43.5214 -45.74     0.560     0.342      1.494     108.6525  21.0500        252
 8.25   0.1326   1379.3267    319.3086     889.5362      43.5214 -45.93     0.563     0.340      1.440     108.6525  20.6771        253
 8.27   0.0427   1352.4868    152.2023     2763.588      43.5214 -89.11     1.011     0.738      2.783     108.6894  19.4463        254
 3.50   0.0032   1372.5312   1019.0457     37240.24      43.5214 -41.64     1.951     1.869      1.623     108.7017  16.6225        255
 3.50   0.0009   1320.0488    660.0613     124308.2      43.5214  75.91     2.093     2.039      1.568     108.6771  15.3138        256
 5.87   0.0160   1293.5828    742.1906      7383.72      43.5214 -15.99     1.535     1.440      2.265     108.6771  18.3793        257
 7.00   0.0946   1346.3284    605.1111     1247.417      43.5214 -68.97     0.936     0.689      1.809     108.6525  20.3100        258
 3.97   0.0072   1329.8187    655.9049      16404.5      43.5214  67.51     1.921     1.813      1.811     108.6894  17.5126        259
 4.12   0.0313   1332.9294    107.4837     3767.689      43.5214  -2.81     1.329     1.158      1.560     108.6279  19.1098        260
 3.50   0.0002   1298.3828    724.9477       773214      43.5214 -51.40     2.371     2.297      1.588     108.7509  13.3293        261
 4.19   0.0338   1304.7047    892.9962     3494.797      43.5214 -75.91     1.297     1.172      1.612     108.6771  19.1914        262
 4.08   0.0442   1319.2585    264.1429     2670.174      43.5214   6.39     1.181     1.123      1.539     108.6648  19.4837        263
 4.31   0.0090   1307.5262    669.7034      13037.5      43.5214 -32.49     1.629     1.592      1.708     108.6402  17.7620        264
 3.65   0.0023   1272.7618    610.0184     51460.98      43.5214 -58.16     4.190     2.580      3.174     108.7509  16.2713        265
 5.69   0.0949   1299.3568     54.0625     1244.531      43.5214 -68.39     0.901     0.697      1.482     108.7017  20.3125        266
 3.52   0.0039   1291.4148    762.2641     30388.82      43.5214 -23.95     2.297     1.839      1.747      108.714  16.8432        267
 3.56   0.0080   1265.4564    807.9594     14667.05      43.5214  -7.96     1.661     1.612      1.583     108.6894  17.6341        268
 6.36   0.0857   1273.6595    698.0986     1376.481      43.5214  68.67     0.919     0.693      1.724     108.6279  20.2031        269
 4.97   0.0671   1228.6499   1153.6350     1758.995      43.5214  43.00     0.997     0.872      1.483     108.7386  19.9368        270
 5.85   0.0822   1262.1962    855.0399     1437.045      43.5214 -88.04     0.907     0.755      1.456      108.714  20.1563        271
 5.76   0.0170   1212.7454   1429.5703     6933.962      43.5214  66.31     2.076     1.803      3.299     108.7509  18.4475        272
 4.06   0.0159   1237.0374   1553.6448     7446.393      43.5214 -72.17     1.471     1.442      1.616     108.7509  18.3701        273
 6.33   0.0280   1229.7732    599.1249     4209.666      43.5214 -25.96     1.422     1.267      2.633     108.7017  18.9894        274
 3.50   0.0097   1234.4055    304.8864     12114.75      43.5214   0.76     1.619     1.566      1.588     108.7017  17.8417        275
 5.14   0.0582   1237.6368     48.3455     2027.117      43.5214  42.97     1.043     0.951      1.544     108.7263  19.7828        276
 4.28   0.0158   1207.6377    838.9413     7463.962      43.5214  35.87     1.470     1.451      1.601     108.7263  18.3676        277
 3.50   0.0019   1214.6141    513.0945     61766.75      43.5214  -0.90     1.943     1.918      1.587     108.6894  16.0731        278
 4.24   0.0239   1200.8662   1442.2368     4937.619      43.5214 -76.41     1.564     1.485      2.084      108.714  18.8162        279
 7.93   0.1209   1204.4742   1217.4802     975.8903      43.5214  43.31     0.502     0.497      1.518     108.6525  20.5765        280
 5.08   0.0141   1194.9722    124.1294     8365.673      43.5214 -83.39     1.957     1.669      2.506     108.7263  18.2437        281
 3.91   0.0163   1201.8915    339.0921     7227.534      43.5214  41.67     1.528     1.455      1.626     108.6033  18.4025        282
 5.34   0.0424   1130.2582    219.7123     2784.378      43.5214  22.28     1.184     1.117      1.795     108.6648  19.4382        283
 3.50   0.0009   1138.5420    148.1507     129672.3      43.5214  77.75     2.097     2.062      1.594     108.7017  15.2679        284
 5.95   0.0762   1181.9745    176.1647     1550.382      43.5214   3.89     0.910     0.759      1.551     108.7386  20.0739        285
 4.90   0.0459   1180.9506    549.4130     2574.357      43.5214  37.05     1.159     1.067      1.634     108.7632  19.5233        286
 4.68   0.0270   1153.5942   1353.1537     4369.526      43.5214  23.71     1.498     1.327      1.992     108.7632  18.9489        287
 3.50   0.0006   1165.1395   1299.8351       206607      43.5214 -78.19     2.141     2.108      1.554     108.7263  14.7621        288
 3.50   0.0017   1129.9851    183.6115     69173.23      43.5214  -6.31     1.968     1.954      1.584     108.7017  15.9502        289
 3.53   0.0047   1157.8691    236.5205     24952.14      43.5214 -59.07     1.775     1.768      1.607     108.6402  17.0572        290
 5.31   0.0370   1161.7438    887.7606     3195.439      43.5214 -40.77     1.157     1.096      1.673     108.7263  19.2887        291
 4.11   0.0188   1151.2296     99.5155     6266.996      43.5214   1.70     1.475     1.409      1.666      108.714  18.5574        292
 6.72   0.0841   1131.0312    359.2770     1404.299      43.5214  79.06     0.733     0.682      1.631     108.7017  20.1814        293
 3.50   0.0008   1079.9672    512.2063     139807.6      43.5214  74.02     2.099     2.081      1.611     108.7263  15.1862        294
 4.04   0.0302   1095.4258   1526.6967     3904.073      43.5214  64.24     1.332     1.261      1.564     108.6771  19.0712        295
 7.24   0.0916   1086.1484   1452.8627     1288.458      43.5214  46.36     0.838     0.678      1.826     108.6771  20.2748        296
 7.41   0.0014   1090.0991    782.8873     81628.62      43.5214  45.01     1.234     0.538      3.235     108.6033  15.7704        297
 5.92   0.0901   1094.6758   1136.2837     1309.627      43.5214  42.84     0.939     0.754      1.543     108.6402  20.2571        298
 7.13   0.0412    978.4573    452.7135     2867.591      43.5214 -88.97     0.999     0.961      2.299     108.6648  19.4062        299
 7.77   0.0961   1088.0132    397.0000     1228.198      43.5214  90.00     0.850     0.289      1.632      108.714  20.3268        300
 5.99   0.0232   1065.1993   1563.2179     5084.687      43.5214 -50.91     1.822     1.345      2.922     108.7017  18.7843        301
 3.50   0.0010    984.8825    558.5286     122999.3      43.5214  86.99     2.062     2.035      1.599     108.6279  15.3252        302
 3.50   0.0017   1009.8115    813.7941     70299.74      43.5214 -23.06     1.976     1.963      1.575     108.6402  15.9326        303
 5.37   0.0564    965.2351    416.4796     2091.833      43.5214   9.67     0.991     0.951      1.523     108.6894  19.7487        304
 5.22   0.0252    980.8171    797.9382     4680.177      43.5214 -22.95     1.473     1.417      2.171     108.7017  18.8743        305
 3.50   0.0007   1040.2435    633.1321     175760.4      43.5214 -86.88     2.148     2.116      1.592     108.7017  14.9377        306
 3.50   0.0032   1038.7074    525.4634     36815.93      43.5214 -89.92     1.895     1.851      1.624     108.6648  16.6349        307
 4.72   0.0144   1030.4277    302.7162     8198.363      43.5214  61.98     2.411     1.679      2.862     108.7017  18.2657        308
 5.83   0.0188    986.6929    454.0457     6276.068      43.5214  71.21     1.721     1.537      2.657     108.6156  18.5558        309
 8.75   0.0958   1014.5078    453.4610     1231.725      43.5214 -62.89     0.500     0.498      1.719     108.6648  20.3237        310
 6.43   0.1001    998.0614    233.3179     1178.719      43.5214  83.83     0.736     0.671      1.456     108.6402  20.3715        311
 3.50   0.0015   1025.7098   1380.0499     80011.02      43.5214  87.42     2.054     1.952      1.563     108.6648  15.7921        312
 3.80   0.0105   1011.3396    344.7471     11189.49      43.5214 -55.24     1.591     1.561      1.645     108.6771  17.9280        313
 8.38   0.0844   1011.2415    267.9928     1398.762      43.5214   0.33     0.699     0.428      1.846     108.7386  20.1856        314
 4.30   0.0319    999.9335   1273.7820     3700.348      43.5214 -27.04     1.275     1.172      1.568     108.7263  19.1294        315
 4.10   0.0095   1001.6805    542.7173     12464.46      43.5214  12.75     1.658     1.575      1.693     108.6402  17.8108        316
