#   1 KRON_RADIUS            Kron apertures in units of A or B                         
#   2 MAGERR_APER            RMS error vector for fixed aperture mag.                   [mag]
#   3 Y_IMAGE                Object position along y                                    [pixel]
#   4 X_IMAGE                Object position along x                                    [pixel]
#   5 FLUX_APER              Flux vector within fixed circular aperture(s)              [count]
#   6 THRESHOLD              Detection threshold above background                       [count]
#   7 THETA_IMAGE            Position angle (CCW/x)                                     [deg]
#   8 A_IMAGE                Profile RMS along major axis                               [pixel]
#   9 B_IMAGE                Profile RMS along minor axis                               [pixel]
#  10 FLUX_RADIUS            Fraction-of-light radii                                    [pixel]
#  11 FLUXERR_APER           RMS error vector for aperture flux(es)                     [count]
#  12 MAG_APER               Fixed aperture magnitude vector                            [mag]
#  13 NUMBER                 Running object number                                     
 4.17   0.0009     53.2565     63.6428     139253.6      43.5463   1.98     5.123     4.572     10.703     109.4175  15.1905          1
 3.87   0.0051     16.4784    985.0769     23330.38      43.5463 -88.62     4.214     1.929      7.089     109.4051  17.1302          2
 3.94   0.0064     18.0460     91.3107     18703.05      43.5463 -21.89     1.737     1.698      3.528     109.3803  17.3702          3
 3.50   0.0026     14.6388   1445.7582     46494.91      43.5463 -57.14     1.867     1.780      3.211      109.467  16.3815          4
 8.01   0.1052     10.3046   1183.6648     1129.651      43.5463  43.46     0.565     0.339      2.514     109.3927  20.4176          5
 7.29   0.0505      4.4737    145.2111     2132.699      43.5463 -88.54     1.003     0.739      3.898     99.19192  19.7277          6
 6.79   0.0473     17.2495    384.5198     2511.556      43.5463  14.89     0.994     0.963      4.685     109.3927  19.5501          7
 5.10   0.0277     24.7656    367.2277     4288.311      43.5463 -21.08     1.302     1.279      3.598     109.4422  18.9693          8
 3.50   0.0006     59.7884   1078.4711     204433.5      43.5463  81.96     2.254     2.134      3.362     109.5165  14.7736          9
 8.47   0.0630     23.7820    383.3971     1887.065      43.5463 -72.10     0.757     0.452      3.766     109.4051  19.8605         10
 6.25   0.0459     34.0507   1110.2819     2589.376      43.5463  62.34     1.556     0.820      4.300     109.3803  19.5170         11
 7.75   0.0622     33.6917    326.9680     1910.896      43.5463   4.05     0.746     0.680      3.868     109.3927  19.8469         12
 5.80   0.0998     37.8551   1521.1614     1190.973      43.5463  46.17     0.829     0.669      2.613     109.4546  20.3602         13
 7.09   0.0742     38.8824   1170.3628      1602.21      43.5463  19.36     0.930     0.690      3.603     109.4422  20.0382         14
 5.89   0.0783     42.2124    915.4865     1518.046      43.5463   0.03     0.960     0.732      2.890     109.4546  20.0968         15
 3.50   0.0006     80.1619    537.6298     197374.4      43.5463 -62.67     2.147     2.092      3.312      109.467  14.8118         16
 9.34   0.0702     44.4960    440.5079     1690.676      43.5463 -45.27     0.502     0.498      3.014     109.3307  19.9798         17
 4.11   0.0150     75.1902    128.0414     7940.164      43.5463 -37.04     1.529     1.468      3.398      109.467  18.3004         18
 6.49   0.0501     82.2800    421.5060     2372.129      43.5463 -72.84     0.994     0.983      3.936     109.3679  19.6122         19
 5.82   0.0250     90.8266    377.0053     4747.072      43.5463 -20.10     1.665     1.529      5.382     109.4546  18.8589         20
 3.50   0.0004    121.8114    789.1776     289804.9      43.5463 -58.05     2.229     2.157      3.334     109.4299  14.3947         21
 4.36   0.0103     96.6437     56.2313     11507.07      43.5463 -31.28     1.614     1.551      3.642     109.4918  17.8976         22
 5.99   0.0384     98.0480    452.9695     3093.978      43.5463 -14.64     1.446     1.005      4.563     109.4918  19.3237         23
 7.37   0.0853     91.5052    495.9703     1392.207      43.5463  -1.48     0.787     0.500      3.058     109.4051  20.1907         24
 3.50   0.0007    162.3181   1468.3154     165836.3      43.5463 -54.27     2.107     2.045      3.259     109.3679  15.0008         25
 6.96   0.0855    131.2889    418.0246         1390      43.5463   6.46     0.732     0.680      3.586     109.4175  20.1925         26
 3.51   0.0030    170.3064    877.3268     39348.88      43.5463 -37.22     1.862     1.820      3.314     109.3803  16.5627         27
 8.35   0.1025    151.4877   1280.4851     1158.526      43.5463 -45.63     0.501     0.498      2.944     109.3679  20.3902         28
 5.42   0.0304    164.9675   1445.6466     3908.795      43.5463  15.16     1.301     1.188      4.037     109.4918  19.0699         29
 4.31   0.0442    166.7818    104.4359     2687.529      43.5463 -17.88     1.262     1.144      3.051     109.4794  19.4766         30
 6.36   0.0787    169.3399   1368.8975     1508.523      43.5463  67.99     0.912     0.688      3.014     109.3555  20.1036         31
 7.84   0.0565    180.1621    574.8980     2102.781      43.5463  43.06     0.862     0.672      3.947     109.3431  19.7430         32
 7.46   0.0496    186.6548   1354.9116     2396.419      43.5463  76.16     1.037     0.755      4.332     109.3803  19.6011         33
 5.19   0.0247    192.5967   1350.5398     4809.754      43.5463 -13.63     1.363     1.306      4.021     109.5165  18.8447         34
 4.70   0.0068    210.7428    827.6968     17441.27      43.5463  -6.18     3.876     2.046      8.406     109.3431  17.4461         35
 4.00   0.0145    206.6966    549.0604     8207.219      43.5463 -49.71     1.513     1.492      3.304     109.3679  18.2645         36
 4.11   0.0144    212.1412   1306.0922     8236.074      43.5463  48.60     1.503     1.492      3.323     109.3679  18.2607         37
 5.41   0.0078    230.1308    562.3044      15241.3      43.5463 -39.65     3.208     3.006      9.598     109.3927  17.5924         38
 5.63   0.0441    210.9195    684.8603     2691.204      43.5463 -65.24     1.213     1.116      3.878     109.3927  19.4751         39
 3.50   0.0002    259.7673    997.4636     495501.2      43.5463 -49.22     2.326     2.227      3.355     109.4422  13.8124         40
 3.86   0.0126    223.9153   1226.0546     9408.274      43.5463  26.73     1.504     1.485      3.205     109.3679  18.1162         41
 4.85   0.0350    222.5792    774.9357     3400.924      43.5463 -38.99     1.212     1.165      3.423     109.4794  19.2210         42
 3.50   0.0003    265.9208     67.5955     371594.2      43.5463 -49.39     2.265     2.196      3.340     109.4546  14.1248         43
 5.43   0.0174    243.9537    112.8670     6846.408      43.5463 -87.80     1.944     1.539      5.550     109.4299  18.4613         44
 4.72   0.0072    255.4751    612.9941      16576.3      43.5463 -39.55     2.421     2.015      5.938     109.5041  17.5013         45
 6.41   0.0411    239.3534    838.8110     2892.685      43.5463  -5.01     1.207     1.103      4.584      109.467  19.3967         46
 7.10   0.0403    250.5009    107.5042     2946.369      43.5463 -43.09     1.109     0.854      5.477     109.3555  19.3768         47
 3.50   0.0013    287.5338   1486.4602      88754.8      43.5463 -51.40     2.024     1.972      3.318     109.3927  15.6795         48
 3.59   0.0059    281.9197   1522.3905     20128.58      43.5463 -19.94     1.694     1.647      3.231     109.4422  17.2905         49
 6.53   0.0512    270.8847   1273.6149     2319.361      43.5463  14.10     1.033     0.744      3.897     109.4422  19.6366         50
 3.50   0.0018    303.1575    201.7498     66855.84      43.5463 -49.83     1.952     1.913      3.267      109.467  15.9872         51
 6.10   0.0315    293.2261   1475.8163     3772.649      43.5463 -40.46     1.240     1.134      4.849     109.4546  19.1084         52
 4.59   0.0321    302.2395    563.7120     3703.012      43.5463  21.58     1.338     1.245      3.465     109.4175  19.1286         53
 8.77   0.0942    292.5020    248.4889     1259.994      43.5463 -46.51     0.501     0.499      3.006     109.3307  20.2991         54
 3.50   0.0027    322.0915    697.3416     44720.92      43.5463 -10.33     1.848     1.812      3.265     109.3679  16.4237         55
 7.71   0.0467    308.7028     85.3052     2542.348      43.5463  46.83     0.969     0.765      5.156     109.3307  19.5369         56
 6.02   0.0291    321.8692    641.5228     4076.296      43.5463 -65.00     1.773     1.200      5.282     109.3679  19.0243         57
 5.05   0.0133    327.5058    595.4429     8899.028      43.5463  10.57     1.724     1.717      5.020     109.3431  18.1766         58
 5.89   0.0762    329.2318   1546.0073     1560.795      43.5463 -87.79     0.902     0.759      2.867      109.467  20.0666         59
 5.72   0.0555    332.2732     93.4231     2143.079      43.5463  16.80     0.992     0.954      3.241      109.467  19.7224         60
 3.50   0.0026    368.3845    760.8975     46331.74      43.5463 -45.12     2.558     1.841      3.536     109.4175  16.3853         61
 4.69   0.0258    350.0923     54.7249     4598.159      43.5463 -36.82     1.357     1.328      3.504     109.3679  18.8935         62
 3.93   0.0145    361.1682   1500.3911     8194.737      43.5463 -15.61     1.577     1.452      3.381     109.4546  18.2662         63
 3.50   0.0005    395.2360    231.4487     219195.2      43.5463 -60.98     2.186     2.116      3.304      109.467  14.6979         64
 5.51   0.0464    360.5753   1033.9026     2559.579      43.5463 -13.57     1.158     0.962      3.293     109.3927  19.5296         65
 7.31   0.0678    370.4859     71.9584     1752.681      43.5463 -87.89     0.815     0.701      3.971     109.4175  19.9407         66
 6.35   0.0544    373.5033   1083.8605     2182.385      43.5463 -17.55     1.103     0.982      4.115     109.3679  19.7027         67
 6.43   0.0433    380.6082      1.4856     2095.001      43.5463 -89.71     1.605     0.500      4.371     83.59194  19.7470         68
 3.50   0.0037    397.0699   1461.1993     31909.41      43.5463 -74.23     1.779     1.761      3.230     109.4918  16.7902         69
 3.50   0.0032    398.1953    354.6356     37070.84      43.5463 -38.67     1.844     1.807      3.307     109.4546  16.6274         70
 8.23   0.1223    375.6642     87.3029     971.4619      43.5463  46.67     0.565     0.339      2.332     109.4051  20.5814         71
 6.56   0.0699    380.1645    125.8450      1701.98      43.5463  44.75     0.820     0.679      3.145     109.4918  19.9726         72
 4.11   0.0154    393.8165   1088.7810     7719.932      43.5463 -37.44     1.519     1.447      3.352     109.4422  18.3310         73
 8.74   0.0873    382.4934     67.5072     1359.642      43.5463 -45.03     0.504     0.496      3.026     109.3307  20.2164         74
 8.20   0.1752    388.6971   1195.3385     677.7997      43.5463  43.22     0.566     0.339      2.544     109.3679  20.9722         75
 6.05   0.0265    412.0412      1.7690      3491.89      43.5463 -89.92     2.513     0.700      6.059      85.3567  19.1923         76
 7.56   0.0323    397.0254    626.6956     3679.621      43.5463 -65.30     1.341     1.083      6.199     109.4051  19.1355         77
 7.93   0.0552    403.4896    526.4983     2152.499      43.5463  89.32     1.090     0.500      4.112     109.3307  19.7176         78
 7.01   0.0883    407.0443    282.2940     1344.795      43.5463  89.42     0.737     0.674      3.432     109.3431  20.2284         79
 3.50   0.0016    437.9754    252.0879     72383.75      43.5463 -73.79     1.987     1.960      3.318     109.4299  15.9009         80
 3.50   0.0002    461.0806    807.6478     596370.1      43.5463 -61.03     2.345     2.265      3.372     109.4051  13.6112         81
 5.82   0.0262    420.8114    159.0276     4537.439      43.5463  31.01     1.646     1.399      5.347     109.4546  18.9080         82
 7.46   0.1381    419.5259   1580.4933      860.061      43.5463  42.63     0.503     0.496      2.375     109.3679  20.7137         83
 4.09   0.0201    432.9641   1422.0618     5914.802      43.5463  10.78     1.426     1.390      3.342     109.4422  18.6201         84
 6.56   0.0469    426.6788   1179.2426     2534.855      43.5463   4.87     1.217     0.942      4.592     109.4175  19.5401         85
 6.30   0.0011    426.7638    432.9953       112701      43.5463  -1.33     2.306     0.724      4.556     109.4546  15.4202         86
 7.97   0.1254    426.3199    299.6852     946.9421      43.5463  45.26     0.563     0.340      2.421     109.3679  20.6092         87
 5.15   0.0490    434.2638    151.1026     2422.628      43.5463 -22.15     1.134     1.029      3.146     109.4051  19.5893         88
 3.83   0.0051    450.3487     21.3388     23461.91      43.5463 -48.98     1.765     1.732      3.422     109.4051  17.1241         89
 4.97   0.0058    467.8039    850.5261     20554.18      43.5463  22.58     7.410     2.036     14.450     109.5041  17.2677         90
 9.78   0.0422    430.5058    718.5177     2812.773      43.5463  46.24     0.503     0.497      3.018     109.3679  19.4272         91
 4.44   0.0463    439.9993    305.8438     2566.628      43.5463  43.70     1.155     1.138      2.844     109.4918  19.5266         92
 3.72   0.0045    457.8458     34.5835     26232.08      43.5463 -52.57     1.776     1.744      3.375      109.467  17.0029         93
 5.37   0.0288    445.1875    122.3629     4134.262      43.5463 -18.75     1.407     1.262      4.183      109.467  19.0090         94
 7.36   0.1142    443.7620    655.0262     1041.164      43.5463   1.24     0.687     0.426      2.665      109.467  20.5062         95
 4.21   0.0138    463.6682    468.6435     8608.379      43.5463  53.82     1.598     1.540      3.517     109.4299  18.2127         96
 6.17   0.0908    452.9252   1533.0214     1308.975      43.5463 -29.49     0.791     0.773      2.995     109.4794  20.2577         97
 5.02   0.0426    461.0328   1096.1024     2785.275      43.5463  25.35     1.186     1.122      3.307     109.3431  19.4378         98
 3.93   0.0112    472.1450    734.9465     10570.73      43.5463  81.94     1.560     1.476      3.232     109.4299  17.9897         99
 4.57   0.0159    471.3524    254.2341     7454.197      43.5463 -43.46     1.496     1.431      3.601      109.467  18.3690        100
 7.57   0.0576    461.8461    724.7260     2064.268      43.5463 -20.19     0.947     0.682      4.246     109.3927  19.7631        101
 3.65   0.0089    477.9322    923.0837     13393.45      43.5463 -33.10     1.669     1.599      3.277     109.3803  17.7328        102
 4.25   0.0236    477.2760   1276.4293     5036.388      43.5463 -44.94     1.341     0.920      3.173     109.4299  18.7947        103
 5.70   0.0341    488.8282    839.6331     3486.768      43.5463  88.79     2.086     0.973      5.090     109.4546  19.1939        104
 4.03   0.0207    484.0666   1070.6798     5741.453      43.5463 -55.90     1.426     1.366      3.238     109.3679  18.6524        105
 6.55   0.1134    476.0097   1168.3048     1047.815      43.5463  86.99     0.730     0.675      3.045     109.4051  20.4993        106
 5.24   0.0115    496.2249     82.9241     10355.63      43.5463  67.05     2.294     2.075      6.564     109.4422  18.0121        107
 6.75   0.0726    478.8782    682.8464     1637.433      43.5463 -45.71     0.818     0.680      3.448     109.3927  20.0146        108
 5.08   0.0119    495.6584   1186.8361     10002.39      43.5463 -15.84     2.977     1.887      6.825     109.4546  18.0497        109
 5.01   0.0194    504.2094    762.9064     6135.043      43.5463 -89.47     1.764     1.674      5.106     109.4175  18.5805        110
 4.68   0.0329    501.9949    863.7543     3618.777      43.5463   0.62     1.253     1.182      3.247     109.4918  19.1536        111
 4.47   0.0095    515.3533   1461.0763     12448.82      43.5463  24.01     4.103     1.634      7.760     109.3803  17.8122        112
 5.91   0.0806    498.0129    366.2479      1475.32      43.5463  -0.58     0.922     0.749      2.986     109.4794  20.1278        113
 6.00   0.0328    509.9556    165.0489     3629.646      43.5463 -10.41     1.837     1.020      5.188      109.467  19.1503        114
 4.78   0.0323    513.9047   1179.2246     3678.439      43.5463  -5.57     1.244     1.182      3.388     109.4051  19.1358        115
 5.35   0.0449    519.1333    641.9204     2646.335      43.5463  20.46     1.195     1.114      3.681     109.3679  19.4934        116
 6.42   0.1109    518.1923   1519.1840     1071.205      43.5463  46.10     0.759     0.567      2.555     109.3803  20.4753        117
 4.07   0.0146    540.2014    999.9447     8135.053      43.5463  -7.60     1.478     1.467      3.315     109.5289  18.2741        118
 6.33   0.0601    536.3397    404.5272      1977.09      43.5463  39.13     1.182     0.788      3.560     109.3927  19.8099        119
 3.79   0.0109    558.9291   1041.7891     10871.37      43.5463   0.03     1.618     1.552      3.358     109.5041  17.9593        120
 4.65   0.0149    571.2954     45.8589      7988.14      43.5463  48.88     2.091     1.515      4.781     109.3679  18.2939        121
 5.98   0.1528    555.8099    778.7978     777.4569      43.5463  45.31     0.757     0.566      2.260     109.4051  20.8233        122
 3.50   0.0027    580.7115    144.9684     44169.16      43.5463 -70.14     1.859     1.826      3.274     109.4175  16.4372        123
 4.50   0.0157    571.3770   1447.8510     7586.757      43.5463  19.22     2.289     1.667      5.424     109.4918  18.3499        124
 5.72   0.0528    565.1072    139.5361     2249.252      43.5463 -68.23     1.046     0.976      3.419     109.4051  19.6699        125
 4.21   0.0053    596.6942    782.6355     22546.79      43.5463 -64.90     3.326     3.088      7.935     109.3679  17.1673        126
 3.50   0.0027    582.2111    319.2451     44068.48      43.5463   2.55     1.852     1.810      3.263     109.4546  16.4397        127
 6.15   0.0439    576.3021   1001.8055     2708.376      43.5463  28.92     1.220     1.022      4.172     109.4051  19.4682        128
 4.56   0.0391    584.5316     76.0103     3037.872      43.5463  -8.04     1.204     1.139      3.252     109.5041  19.3436        129
 4.04   0.0229   1001.5208   1555.4537     5181.464      43.5463  52.13     1.345     1.320      3.049     109.3803  18.7639        130
 4.65   0.0254   1597.6199    654.7779     4019.104      43.5463   2.77     1.652     1.432      4.015      94.0585  19.0397        131
 5.04   0.0444   1594.7402    374.1065     2588.594      43.5463  43.35     1.308     1.019      3.440     105.7774  19.5173        132
 3.98   0.0207   1584.9110   1108.9387     5750.029      43.5463 -13.63     1.428     1.352      3.178     109.3927  18.6508        133
 6.67   0.1238   1585.9336   1069.5111     959.5508      43.5463 -89.02     0.781     0.500      2.549     109.3927  20.5948        134
 3.53   0.0077   1541.8699    135.1601     15404.59      43.5463  70.30     1.663     1.606      3.214     109.4422  17.5809        135
 4.63   0.0713   1514.6406    483.6134      1666.45      43.5463 -43.54     1.049     0.948      2.733     109.4546  19.9955        136
 4.31   0.0672    912.4411   1001.0433     1768.895      43.5463   2.65     1.099     0.958      2.619     109.4794  19.9307        137
 3.50   0.0041    900.4877    302.8330     29057.81      43.5463  49.85     1.765     1.762      3.293     109.4299  16.8918        138
 4.77   0.0171    896.2084    538.5322     6946.338      43.5463   2.64     1.932     1.586      4.851     109.5041  18.4456        139
 5.28   0.0753    893.7969   1426.2902     1576.987      43.5463 -18.67     0.977     0.852      3.008     109.3927  20.0554        140
 3.50   0.0002    880.2279   1592.5995     478198.1      43.5463 -74.88     2.295     2.153      3.328     109.4175  13.8510        141
 5.85   0.0316    888.8192    325.9107      3760.28      43.5463  14.33     1.795     1.118      4.843     109.4299  19.1119        142
 4.32   0.0310    885.7714   1500.3190     3828.737      43.5463 -47.18     1.288     1.236      3.125     109.4422  19.0924        143
 6.69   0.0466    884.9854    339.2439     2552.808      43.5463   1.88     1.115     0.976      4.452     109.4546  19.5325        144
 4.41   0.0504    877.7620    961.1234     2356.163      43.5463  48.84     1.163     1.036      2.918     109.4175  19.6195        145
 7.36   0.0820    876.2601    541.5875     1450.433      43.5463 -71.99     0.730     0.460      2.784     109.4546  20.1463        146
 4.01   0.0094    869.4244   1103.6707     12698.86      43.5463 -53.80     1.974     1.805      4.297     109.4546  17.7906        147
 4.73   0.0247    867.9416    939.8662     4802.731      43.5463  40.92     1.861     1.340      4.513     109.3927  18.8463        148
 6.00   0.0953    869.3427    643.8574     1246.215      43.5463  68.51     0.903     0.685      2.898     109.3927  20.3110        149
 8.08   0.1216    860.4965   1554.4667     977.3357      43.5463  47.96     0.505     0.494      2.661     109.4051  20.5749        150
 4.48   0.0363    858.4943   1339.6819       3270.5      43.5463 -89.81     1.307     1.111      3.465     109.3679  19.2635        151
 9.04   0.0757    855.5130    545.4774     1569.618      43.5463 -47.85     0.501     0.498      3.008     109.3431  20.0605        152
 4.00   0.0499    844.9637   1063.9869     2380.181      43.5463   0.91     1.166     1.132      2.974      109.467  19.6085        153
 4.48   0.0224    843.4077   1106.2847      5314.97      43.5463  32.29     1.633     1.312      3.929     109.4299  18.7362        154
 4.42   0.0176    836.6409    298.8359     6752.622      43.5463  13.40     1.461     1.389      3.376     109.4794  18.4763        155
 6.70   0.1283    836.6004   1520.7461      927.061      43.5463  18.12     0.737     0.455      2.455     109.5165  20.6322        156
 5.61   0.0773    835.6668    819.2198      1537.38      43.5463 -71.79     0.963     0.856      2.959      109.467  20.0830        157
 3.50   0.0040    823.0052    654.4105     29559.92      43.5463 -83.81     1.792     1.755      3.318     109.3803  16.8732        158
 7.85   0.2066    819.4944   1398.4906      574.623      43.5463  46.57     0.500     0.499      2.395     109.3307  21.1515        159
 3.50   0.0044    803.0336   1378.7603     27130.73      43.5463 -69.40     1.795     1.721      3.299      109.467  16.9663        160
 3.50   0.0015    798.4865    695.7316      78147.7      43.5463 -86.83     2.615     1.932      4.134     109.3555  15.8177        161
 4.07   0.0091    800.7063     41.1536      13071.3      43.5463 -21.76     1.693     1.566      3.574     109.3555  17.7592        162
 4.14   0.0101    774.2417   1427.3613     11816.47      43.5463  87.89     2.916     1.917      6.281      109.467  17.8688        163
 7.08   0.0698    768.0103    140.0022     1701.458      43.5463  29.11     0.803     0.799      3.625     109.4051  19.9729        164
 4.13   0.0168    742.8445    556.3011      7074.28      43.5463 -34.92     1.481     1.410      3.380     109.3307  18.4258        165
 4.18   0.0456    738.1149   1158.1183     2602.702      43.5463  46.52     1.220     1.125      2.988     109.3679  19.5114        166
 5.08   0.0404    736.0377    649.8889     2939.095      43.5463 -14.78     1.149     1.126      3.399     109.4051  19.3795        167
 3.50   0.0004    726.6054    848.5026     292185.4      43.5463 -59.30     2.218     2.156      3.337     109.4175  14.3859        168
 3.76   0.0243    727.4673   1178.3390     4888.011      43.5463 -11.27     1.391     1.325      3.004     109.4051  18.8272        169
 4.97   0.0749    721.4175   1395.0933     1586.187      43.5463  16.86     1.087     0.945      3.073     109.4422  20.0491        170
 3.86   0.0192    715.8361    808.3896     6174.982      43.5463  44.55     1.417     1.392      3.070     109.4546  18.5734        171
 3.89   0.0191    708.9615   1163.8932     6213.289      43.5463  24.41     1.453     1.390      3.229     109.3555  18.5667        172
 4.36   0.0154    704.3986   1339.0472     7730.296      43.5463 -19.01     1.731     1.435      4.326     109.5165  18.3295        173
 3.58   0.0107    702.8040    952.5435     11112.28      43.5463   0.10     1.619     1.588      3.319     109.5289  17.9355        174
 6.22   0.0391    699.0404    582.8082     3042.681      43.5463   2.98     1.801     0.780      4.636      109.467  19.3419        175
 5.68   0.0330    691.6804   1213.7858     3597.384      43.5463  77.71     1.495     1.232      4.704      109.467  19.1600        176
 5.63   0.0429    686.6819   1213.8464     2771.155      43.5463 -21.78     1.110     0.991      3.691     109.3927  19.4433        177
 4.13   0.0125    685.6551    644.3333     9497.979      43.5463 -63.50     1.583     1.570      3.551     109.4051  18.1059        178
 5.64   0.0800    687.6524    130.9210     1484.086      43.5463  76.07     0.992     0.751      2.861     109.3803  20.1214        179
 7.15   0.0621    668.9968   1221.9562     1914.098      43.5463 -24.53     0.799     0.795      3.712     109.5041  19.8451        180
 3.50   0.0004    648.2855   1464.4170     284333.5      43.5463 -69.67     2.216     2.119      3.310     109.4422  14.4154        181
 4.97   0.0447    654.7122    870.9673     2657.732      43.5463   2.52     1.152     1.052      2.993     109.4299  19.4887        182
 6.73   0.0682    645.7885    653.0032     1741.338      43.5463 -88.03     0.910     0.757      3.666     109.3927  19.9478        183
 7.14   0.0914    641.2024    276.8073     1299.937      43.5463 -45.81     0.756     0.567      3.387     109.3927  20.2652        184
 4.00   0.0428    630.8334    806.1291     2775.087      43.5463 -32.81     1.204     1.121      2.885     109.4422  19.4418        185
 4.18   0.0245    623.4021   1581.5424     4858.779      43.5463 -70.30     1.343     1.334      3.069     109.5165  18.8337        186
 7.17   0.0501    618.3039   1151.0571     2368.305      43.5463 -56.98     1.011     0.847      4.406     109.3431  19.6139        187
 8.01   0.1233    609.5258    945.4915     963.6019      43.5463  43.32     0.505     0.495      2.422     109.3803  20.5903        188
 4.05   0.0122   1566.7317     22.0384     9723.011      43.5463 -82.69     1.558     1.536      3.407     109.4422  18.0805        189
 3.90   0.0106   1542.6284    654.7056     11194.52      43.5463 -20.66     1.560     1.526      3.368     109.3927  17.9275        190
 3.50   0.0005   1563.6940    304.2377       255986      43.5463 -66.29     2.153     2.092      3.278     109.3555  14.5295        191
 3.50   0.0005   1558.0250    487.6977     254034.3      43.5463 -66.03     2.143     2.087      3.273     109.3927  14.5378        192
 4.07   0.0158   1570.5496     92.7681     7540.537      43.5463   5.62     1.449     1.365      3.108     109.4794  18.3565        193
 4.35   0.0271   1546.1001    863.5326     4377.988      43.5463  60.65     1.555     1.323      3.773     109.3803  18.9468        194
 4.36   0.0246   1561.2551    861.5045     4831.117      43.5463  24.14     1.333     1.259      3.123     109.3679  18.8399        195
 4.29   0.0186   1565.7307    784.6671     6399.905      43.5463 -79.71     1.779     1.443      3.963     109.3555  18.5346        196
 4.98   0.0627   1550.8820   1221.9401      1893.03      43.5463  62.30     1.036     0.926      2.929     109.3803  19.8571        197
 3.52   0.0014   1552.6270    682.2676     83418.87      43.5463 -26.28     4.564     3.920      8.786     109.4546  15.7468        198
 7.78   0.0920   1535.9836   1429.0035     1291.675      43.5463 -45.74     0.928     0.527      3.483     109.4051  20.2721        199
 7.02   0.0570   1532.6090    415.6633     2084.823      43.5463  48.72     1.033     0.896      4.063     109.5165  19.7523        200
 7.52   0.0827   1519.9846   1100.6998     1437.335      43.5463  86.06     0.750     0.674      3.460     109.4175  20.1561        201
 3.93   0.0254    928.3964   1322.5002     4674.708      43.5463 -31.62     1.356     1.325      3.131     109.4175  18.8756        202
 3.50   0.0034   1514.9313    392.7249     35425.71      43.5463 -23.87     1.775     1.769      3.204     109.3555  16.6767        203
 5.93   0.0701   1515.3757   1547.3199     1695.663      43.5463  51.18     1.032     0.871      3.338     109.4422  19.9767        204
 3.50   0.0009   1507.2021    269.3686     138925.4      43.5463 -48.81     2.044     2.007      3.239     109.4299  15.1930        205
 5.06   0.1341   1498.3208    844.3195     885.5325      43.5463 -45.02     0.932     0.754      2.535     109.3803  20.6820        206
 4.39   0.0330   1504.1243    723.3888     3606.118      43.5463  12.61     1.292     1.159      2.993     109.5041  19.1574        207
 3.91   0.0139    939.1819   1067.1804     8581.494      43.5463 -23.57     1.513     1.435      3.203     109.4422  18.2161        208
 6.65   0.0959   1488.1456     78.1188     1238.288      43.5463 -45.13     0.829     0.671      3.086     109.3555  20.3179        209
 3.90   0.0333    912.9329    838.5873     3574.864      43.5463   2.45     1.314     1.169      2.971     109.5041  19.1669        210
 5.59   0.0318    950.8376    654.3040     3738.878      43.5463  78.79     1.551     1.317      4.515     109.3555  19.1181        211
 5.55   0.0690    947.8024    445.2863     1722.394      43.5463 -18.52     0.958     0.857      3.038     109.4299  19.9597        212
 5.14   0.0588    965.2233    416.4817     2021.483      43.5463   5.83     0.989     0.953      2.736     109.4422  19.7858        213
 7.34   0.0362    938.4374    516.3667     3280.705      43.5463  63.09     1.194     0.958      5.483     109.4794  19.2601        214
 7.70   0.0480   1474.8301    998.5100     2473.781      43.5463  -0.48     0.997     0.737      5.119     109.4051  19.5666        215
 6.32   0.0523   1482.4355    575.2174     2275.256      43.5463 -30.72     1.216     0.964      4.131     109.4794  19.6574        216
 5.63   0.0651   1438.6631   1271.3156     1823.981      43.5463 -44.30     0.991     0.877      3.145     109.3803  19.8974        217
 4.96   0.0129   1072.1385   1219.1556     9241.839      43.5463 -73.38     2.045     1.693      5.538     109.4546  18.1356        218
 5.54   0.0818   1066.6794    569.0623     1452.444      43.5463 -72.69     1.026     0.751      2.829     109.3679  20.1448        219
 3.80   0.0162   1415.3887   1386.6190     7349.738      43.5463  66.37     1.447     1.403      3.073     109.4175  18.3843        220
 6.18   0.0346   1090.9879    468.1757      3434.48      43.5463 -62.80     1.759     1.038      5.466     109.4299  19.2103        221
 5.13   0.0499   1079.4308    330.0719     2381.735      43.5463   1.88     1.105     0.946      3.176     109.4422  19.6078        222
 4.95   0.0623   1065.6902   1597.3223     1661.867      43.5463 -41.45     0.991     0.875      2.787     95.38908  19.9985        223
 7.25   0.0034   1441.0599   1082.6106     35256.82      43.5463  43.18     3.004     0.678      5.850     109.5041  16.6819        224
 3.50   0.0075   1435.3345    224.8122     15793.14      43.5463   8.56     1.647     1.603      3.184     109.4918  17.5538        225
 3.50   0.0027   1081.8091   1148.2362      43337.3      43.5463 -80.95     1.837     1.797      3.211      109.467  16.4578        226
 3.50   0.0038   1107.4955    428.0776     31434.84      43.5463  43.66     1.787     1.762      3.295     109.3431  16.8065        227
 4.56   0.0408   1411.0604    350.0138     2914.897      43.5463  44.64     1.362     1.124      3.506     109.4422  19.3884        228
 8.25   0.3612   1453.4999    391.5077     328.6338      43.5463  45.62     0.501     0.499      2.431     109.3059  21.7582        229
 3.53   0.0103   1439.8121    619.2056     11543.62      43.5463 -60.99     1.553     1.539      3.151     109.3679  17.8941        230
 3.50   0.0003   1393.4231    114.5192     347723.2      43.5463 -67.20     2.208     2.138      3.270     109.4422  14.1969        231
 4.54   0.0116   1120.3519    329.9191     10244.93      43.5463  56.42     2.461     1.649      5.379     109.4051  18.0237        232
 6.48   0.0187   1110.6660    479.0210     6340.476      43.5463   1.27     1.761     1.526      6.959      109.467  18.5447        233
 4.68   0.0404   1129.2065    547.2877     2942.402      43.5463  71.54     1.175     1.119      3.185     109.4299  19.3782        234
 6.13   0.0654   1432.1282    340.5711     1817.283      43.5463  14.13     1.053     0.904      3.572     109.4422  19.9014        235
 6.31   0.1325   1436.1823   1347.1876     896.8257      43.5463  46.94     0.750     0.568      2.446     109.4175  20.6682        236
 3.50   0.0113   1408.2489    308.3757      10499.5      43.5463 -14.66     1.549     1.501      3.082     109.4918  17.9971        237
 5.08   0.0270   1400.5464   1031.5115     4396.808      43.5463  39.22     1.427     1.369      3.899     109.3803  18.9422        238
 3.50   0.0036   1388.7075   1428.5374     33138.48      43.5463  70.62     1.772     1.749      3.191     109.3927  16.7492        239
 6.64   0.0702   1412.1656      1.3077     1276.998      43.5463 -77.75     1.080     0.410      3.156     82.49855  20.2845        240
 4.84   0.0563   1406.4120    329.8513     2111.461      43.5463  15.98     1.142     0.958      2.805     109.4918  19.7385        241
 4.30   0.0587   1330.4430    386.8843      2023.65      43.5463  16.06     1.156     0.951      2.571     109.4175  19.7847        242
 4.52   0.0193   1259.4530    432.5583     6158.169      43.5463 -48.56     1.842     1.798      4.797     109.4299  18.5764        243
 3.59   0.0062   1278.0834   1331.4264     19037.74      43.5463 -36.64     1.689     1.649      3.248     109.4299  17.3510        244
 3.73   0.0103   1390.4573    713.3554     11544.17      43.5463  38.34     1.571     1.545      3.192     109.4299  17.8941        245
 5.82   0.0730   1388.9025    806.6617     1626.534      43.5463  12.93     0.989     0.752      2.987     109.3679  20.0218        246
 4.22   0.0144   1392.2563   1038.8906     8277.092      43.5463  16.23     1.460     1.440      3.343     109.3803  18.2553        247
 3.50   0.0028   1218.8794   1194.9824     42918.38      43.5463  53.40     1.952     1.914      3.466     109.4794  16.4684        248
 3.50   0.0030   1372.5548   1019.0366     39778.91      43.5463 -48.58     1.920     1.818      3.356     109.4794  16.5509        249
 3.50   0.0026   1210.6853   1279.0161     45619.01      43.5463  83.11     5.652     3.435      9.703     109.4422  16.4021        250
 3.50   0.0009   1320.0603    660.0400     133595.8      43.5463 -67.20     2.078     2.029      3.324     109.4546  15.2355        251
 8.46   0.2160   1262.3207    216.3079     549.9407      43.5463 -45.69     0.561     0.342      2.520     109.3803  21.1992        252
 7.40   0.1395   1379.2585    319.0047     852.5966      43.5463  -0.27     0.675     0.438      2.437     109.5041  20.7231        253
 6.95   0.1217   1291.8110    546.1641     977.0751      43.5463 -45.23     0.757     0.568      2.871      109.467  20.5752        254
 8.13   0.0444   1352.4635    152.3469     2676.023      43.5463 -72.28     0.978     0.845      5.182     109.3927  19.4813        255
 3.63   0.0297   1292.8221    412.6759     3995.786      43.5463 -24.73     1.324     1.261      2.903     109.4546  19.0460        256
 6.90   0.1022   1346.3254    605.1124     1162.056      43.5463 -69.53     0.937     0.687      3.288     109.3555  20.3869        257
 3.95   0.0072   1329.8258    655.8967     16442.04      43.5463  -2.69     1.799     1.727      3.727     109.4051  17.5101        258
 3.94   0.0313   1332.9427    107.4934     3788.944      43.5463  -1.49     1.316     1.165      2.944     109.3679  19.1037        259
 3.50   0.0001   1298.3925    724.9255     800645.2      43.5463 -52.23     2.372     2.270      3.341     109.4918  13.2914        260
 4.02   0.0345   1304.6865    892.9958     3449.478      43.5463 -76.52     1.296     1.169      3.116     109.4299  19.2056        261
 3.89   0.0461   1319.2695    264.1481     2578.583      43.5463   7.88     1.176     1.120      2.744     109.3927  19.5215        262
 4.19   0.0090   1307.5225    669.7191     13170.67      43.5463 -50.89     1.592     1.575      3.462     109.4051  17.7510        263
 3.59   0.0023   1272.7434    610.0253     52676.86      43.5463 -57.80     4.137     2.553      6.939      109.467  16.2459        264
 5.97   0.1044   1299.1758     54.0958     1137.705      43.5463 -43.69     0.828     0.676      2.628     109.4175  20.4099        265
 3.50   0.0037   1291.3833    762.2225     31849.77      43.5463 -25.39     2.258     1.792      3.813     109.4175  16.7922        266
 3.50   0.0079   1265.4619    807.9507     15061.39      43.5463 -30.51     1.645     1.596      3.201     109.4175  17.6053        267
 5.79   0.0161   1293.5248    742.2045     7394.159      43.5463  -4.43     1.542     1.369      5.531     109.5041  18.3778        268
 6.79   0.0908   1273.5171    697.9951     1308.842      43.5463  89.49     0.823     0.701      3.208     109.4299  20.2578        269
 4.93   0.0690   1228.6475   1153.6614     1722.084      43.5463  44.30     0.997     0.870      2.730     109.4051  19.9599        270
 5.25   0.0841   1262.1740    855.1698      1413.76      43.5463 -45.68     0.891     0.860      2.662     109.4422  20.1741        271
 3.50   0.0018   1214.6323    513.0753     65267.03      43.5463 -14.07     1.919     1.891      3.236     109.4175  16.0133        272
 3.96   0.0160   1237.0515   1553.6429     7420.246      43.5463 -66.85     1.468     1.444      3.261     109.4546  18.3740        273
 6.19   0.0282   1229.7683    599.1210     4206.975      43.5463 -25.30     1.417     1.266      5.293     109.4175  18.9901        274
 3.50   0.0097   1234.4177    304.8783     12295.42      43.5463  -6.79     1.613     1.551      3.160     109.4794  17.8256        275
 5.08   0.0614   1237.6338     48.3471     1937.482      43.5463  43.28     1.036     0.959      2.929     109.4794  19.8319        276
 6.91   0.1314   1204.2040   1217.4023     904.1826      43.5463  71.26     0.742     0.453      2.490     109.4175  20.6594        277
 5.67   0.0172   1212.7019   1429.5331     6911.417      43.5463  69.15     2.054     1.789      6.569     109.4175  18.4511        278
 4.02   0.0241   1200.8488   1442.2327     4935.272      43.5463 -76.12     1.572     1.483      3.826     109.4794  18.8167        279
 4.18   0.0161   1207.6141    838.9321     7406.309      43.5463 -17.13     1.467     1.426      3.221     109.4918  18.3760        280
 5.00   0.0143   1194.9594    124.1157     8307.901      43.5463 -81.32     1.958     1.640      5.180     109.4299  18.2513        281
 3.80   0.0163   1201.9172    339.1206     7277.188      43.5463  43.10     1.498     1.455      3.187     109.3803  18.3951        282
 4.92   0.0423   1130.2356    219.7730     2808.371      43.5463 -10.18     1.218     1.127      3.398      109.467  19.4289        283
 3.50   0.0009   1138.5403    148.1239     136139.6      43.5463 -74.17     2.078     2.043      3.317     109.4051  15.2150        284
 5.84   0.0783   1181.8572    176.1720     1518.085      43.5463  42.81     0.901     0.856      3.060     109.4794  20.0968        285
 5.01   0.0479   1180.9396    549.3316     2482.699      43.5463  63.60     1.141     1.029      3.168     109.3927  19.5627        286
 4.39   0.0269   1153.5300   1353.1674     4425.139      43.5463  13.79     1.506     1.347      3.767     109.4422  18.9352        287
 3.50   0.0006   1165.1499   1299.8224     214378.6      43.5463 -75.74     2.142     2.082      3.320     109.4794  14.7220        288
 3.50   0.0016   1130.0022    183.5886     72427.38      43.5463 -33.06     1.954     1.929      3.290     109.4051  15.9002        289
 3.50   0.0045   1157.8748    236.4912     26247.36      43.5463 -42.72     1.764     1.750      3.282     109.3679  17.0023        290
 5.10   0.0377   1161.8063    887.7887      3152.45      43.5463  84.17     1.165     1.128      3.279     109.3803  19.3034        291
 3.94   0.0189   1151.2523     99.4780     6269.871      43.5463   0.03     1.470     1.407      3.216     109.3803  18.5569        292
 6.52   0.0882   1131.0277    359.2787     1347.366      43.5463  81.37     0.729     0.679      2.828     109.4175  20.2263        293
 7.49   0.0948   1086.2960   1452.9686     1252.983      43.5463  -2.22     0.739     0.684      3.614     109.3679  20.3051        294
 3.90   0.0306   1095.4277   1526.6780     3884.541      43.5463  63.44     1.318     1.254      2.845     109.4299  19.0767        295
 7.28   0.0014   1090.2825    783.0780     84247.02      43.5463  44.32     1.415     0.516      4.003     109.3803  15.7361        296
 3.50   0.0008   1079.9761    512.1813       144363      43.5463 -43.96     2.092     2.065      3.331     109.4422  15.1514        297
 5.73   0.0983   1094.6826   1136.2802      1208.71      43.5463  44.82     0.932     0.755      2.782     109.3803  20.3442        298
 7.58   0.1338    982.2479   1486.9852     888.2294      43.5463   0.75     0.683     0.432      2.563      109.467  20.6787        299
 8.90   0.1040   1088.4893    397.4680     1141.911      43.5463  50.26     0.502     0.497      3.011     109.3803  20.4059        300
 5.96   0.0233   1065.3254   1563.1619     5092.065      43.5463 -58.63     1.805     1.363      5.875     109.4299  18.7828        301
 3.50   0.0009    984.9092    558.5052     128805.2      43.5463 -62.58     2.059     2.017      3.294     109.3307  15.2752        302
 3.50   0.0016   1009.8051    813.7728     74493.81      43.5463 -49.24     1.950     1.934      3.264     109.4422  15.8697        303
 7.09   0.0420    978.4369    452.7353     2832.512      43.5463 -88.40     0.993     0.959      4.886     109.4546  19.4196        304
 5.38   0.0258    980.8336    797.9319     4612.211      43.5463 -89.10     1.448     1.289      4.275     109.4546  18.8902        305
 3.50   0.0006   1040.2742    633.1237     185287.7      43.5463 -73.45     2.131     2.083      3.318     109.3803  14.8804        306
 3.50   0.0030   1038.7018    525.4651     39190.04      43.5463 -66.52     1.860     1.813      3.274     109.4175  16.5671        307
 4.55   0.0144   1030.4423    302.6757     8246.252      43.5463  64.08     2.394     1.661      5.290     109.4175  18.2594        308
 5.70   0.0188    986.7168    454.0870     6314.639      43.5463  64.37     1.736     1.543      5.924     109.3679  18.5491        309
 8.63   0.1022   1014.5037    453.4631     1161.896      43.5463 -59.83     0.501     0.498      3.004     109.3803  20.3871        310
 6.24   0.1056    998.0503    233.3297     1124.537      43.5463  84.06     0.736     0.665      2.614     109.3803  20.4226        311
 3.50   0.0014   1025.7133   1380.0258     85111.25      43.5463 -81.64     2.027     1.933      3.282     109.4422  15.7250        312
 3.71   0.0105   1011.3628    344.7765     11354.68      43.5463 -46.20     1.590     1.544      3.250     109.4546  17.9121        313
 8.15   0.0887   1011.2456    267.9750     1340.376      43.5463   1.18     0.695     0.430      3.398     109.4918  20.2319        314
 4.10   0.0320    999.9547   1273.7301     3713.349      43.5463 -24.21     1.320     1.164      3.073     109.4051  19.1256        315
 4.00   0.0094   1001.6890    542.7207     12679.73      43.5463  11.48     1.644     1.579      3.477     109.3679  17.7922        316
