#   1 KRON_RADIUS            Kron apertures in units of A or B                         
#   2 MAGERR_APER            RMS error vector for fixed aperture mag.                   [mag]
#   3 Y_IMAGE                Object position along y                                    [pixel]
#   4 X_IMAGE                Object position along x                                    [pixel]
#   5 THETA_IMAGE            Position angle (CCW/x)                                     [deg]
#   6 FLUX_APER              Flux vector within fixed circular aperture(s)              [count]
#   7 A_IMAGE                Profile RMS along major axis                               [pixel]
#   8 THRESHOLD              Detection threshold above background                       [count]
#   9 B_IMAGE                Profile RMS along minor axis                               [pixel]
#  10 FLUX_RADIUS            Fraction-of-light radii                                    [pixel]
#  11 FLUXERR_APER           RMS error vector for aperture flux(es)                     [count]
#  12 MAG_APER               Fixed aperture magnitude vector                            [mag]
#  13 NUMBER                 Running object number                                     
 3.50   0.0000     16.4846    985.0487 -88.42     4453.706     3.323           15     0.950      5.104  0.006053524  18.9282          1
 3.50   0.0000     14.7202   1445.7919 -12.73     11056.44     0.894           15     0.871      1.125   0.00605558  17.9410          2
 3.66   0.0000     10.4219   1183.5706  30.15     164.5355     0.496           15     0.493      1.027   0.00605558  22.5093          3
 3.70   0.0000     53.5542     63.8334   0.65     27978.87     3.223           15     2.760      6.314   0.00605832  16.9329          4
 3.50   0.0000     18.1610     91.3383 -13.31     4216.073     0.854           15     0.799      0.952   0.00605558  18.9877          5
 3.50   0.0000     17.1640    384.6291  21.83     365.8091     0.791           15     0.664      1.051  0.006056265  21.6419          6
 3.50   0.0000     24.0484    383.2874  85.27      239.432     0.716           15     0.638      1.327  0.006052153  22.1020          7
 3.50   0.0000     24.9643    367.1665   0.52     803.2454     0.775           15     0.706      0.827  0.006059005  20.7879          8
 4.65   0.0000     31.6623   1109.2914  47.49     168.5683     0.560           15     0.341      1.196  0.006053524  22.4831          9
 4.21   0.0000     35.0246   1110.5502  87.83     253.3788     0.755           15     0.497      1.423  0.006059005  22.0406         10
 5.57   0.0000     33.4304    326.8004 -20.62     236.2767     0.724           15     0.454      1.885   0.00605421  22.1164         11
 3.50   0.0000     38.0025   1521.2594 -87.84     226.4485     0.679           15     0.641      0.849  0.006059689  22.1626         12
 3.50   0.0000     38.8572   1170.8073  44.41     198.0386     0.702           15     0.555      1.187  0.006060374  22.3081         13
 3.66   0.0000     42.5373    915.4800   9.22     236.4408     0.500           15     0.499      1.019  0.006051467  22.1157         14
 3.50   0.0000     59.9561   1078.5742  31.78     39667.85     1.032           15     1.016      1.444  0.006059005  16.5539         15
 3.65   0.0000     50.4391   1435.4663 -35.44     279.0269     0.502           15     0.494      1.014   0.00605558  21.9359         16
 3.50   0.0000     53.1817   1075.3824 -23.20     374.9897     0.805           15     0.662      1.094   0.00605558  21.6150         17
 3.50   0.0000    182.1936   1107.6221 -25.58     654974.5     3.772           15     3.431      4.864  0.006054895  13.5094         18
 3.50   0.0000     80.3717    537.7493  -5.75     35687.62     1.048           15     1.014      1.447  0.006057635  16.6687         19
 3.50   0.0000     75.3648    128.0521 -86.71     1749.683     0.854           15     0.739      0.890  0.006057635  19.9426         20
 3.50   0.0000     82.6959    421.4143 -72.87     316.4407     0.859           15     0.596      1.441  0.006054895  21.7993         21
 6.11   0.0000     90.9168    376.7346 -31.11     666.3289     1.024           15     0.837      3.403  0.006051468  20.9908         22
 3.50   0.0000     96.7847     56.2023 -59.33     2567.758     0.818           15     0.811      0.915  0.006053524  19.5261         23
 3.50   0.0000     91.5104    496.0167  -0.58     234.1192     0.717           15     0.500      0.917  0.006056265  22.1264         24
 3.78   0.0000     98.1249    452.8040 -11.32     471.4677     1.071           15     0.682      1.965  0.006059005  21.3664         25
 3.50   0.0000    121.9263    789.2548 -15.97     53124.23     1.058           15     1.025      1.464  0.006052839  16.2368         26
 4.06   0.0000    117.7394    154.3338  40.16     133.2625     0.544           15     0.345      1.011  0.006052839  22.7382         27
 4.56   0.0000    117.5239     67.4068  67.74     179.0067     0.501           15     0.490      1.206  0.006057635  22.4178         28
 3.96   0.0000    131.3228    418.2580 -49.63     151.6033     0.538           15     0.347      0.986   0.00605421  22.5982         29
 3.50   0.0000    147.0003    354.2470 -80.72     230.6674     0.696           15     0.645      1.207  0.006059689  22.1425         30
 3.61   0.0000    151.4800   1280.4366  71.78     198.0506     0.500           15     0.496      1.010   0.00605421  22.3081         31
 3.50   0.0000    162.3728   1468.3977 -12.55     32927.48     1.022           15     0.990      1.365  0.006054895  16.7561         32
 3.75   0.0000    155.4916     82.4820 -45.97     139.5304     0.504           15     0.496      1.030  0.006053524  22.6883         33
 3.50   0.0000    165.0217   1445.7847   0.43     682.5122     0.787           15     0.703      0.876   0.00605421  20.9647         34
 3.50   0.0000    166.9025    104.3787 -13.76     586.6597     0.847           15     0.700      0.960  0.006052839  21.1290         35
 3.50   0.0000    170.4771    877.3688 -24.55     9927.313     0.885           15     0.868      1.046  0.006054895  18.0579         36
 3.50   0.0000    171.7132    325.4172 -25.85     1213.275     0.852           15     0.815      1.004  0.006054895  20.3401         37
 3.50   0.0000    169.4062   1368.8124 -20.00     173.4818     0.687           15     0.459      1.045  0.006051468  22.4519         38
 4.05   0.0000    235.2762    403.3510 -56.41     25002.25     4.126           15     3.394      8.935  0.006052153  17.0551         39
 3.50   0.0000    181.1801    324.4292 -72.37     746.3646     0.886           15     0.871      1.468  0.006056265  20.8676         40
 4.58   0.0000    180.3201    575.5798  18.33     360.0611     0.943           15     0.573      1.971  0.006056265  21.6591         41
 3.50   0.0000    193.8262    318.1837  -6.03     181231.8     1.168           15     1.125      1.664  0.006056265  14.9044         42
 3.50   0.0000    186.6623   1355.1072 -12.09     288.8144     0.700           15     0.643      1.368  0.006052839  21.8985         43
 3.50   0.0000    192.7826   1350.5308  -5.58     918.5611     0.853           15     0.805      0.957   0.00605832  20.6422         44
 4.56   0.0000    195.3431    268.1645  17.10     212.4376     0.754           15     0.439      1.758   0.00605695  22.2319         45
 3.50   0.0000    208.9181    350.0374  39.04     892.8007     1.097           15     0.765      1.517   0.00605558  20.6731         46
 3.50   0.0000    206.8045    549.0883 -81.12      1810.05     0.807           15     0.760      0.806   0.00605421  19.9058         47
 4.44   0.0000    210.7544    827.5543  -4.74     3046.726     2.190           15     0.935      4.592  0.006057635  19.3404         48
 3.50   0.0000    203.5035    251.0098   0.06     235.9078     0.715           15     0.500      0.903  0.006053524  22.1181         49
 3.50   0.0000    210.8109    684.9264 -87.32     426.8981     0.854           15     0.720      1.478  0.006059005  21.4742         50
 3.50   0.0000    212.1967   1306.0751 -86.76     1704.765     0.809           15     0.744      0.810  0.006059005  19.9708         51
 5.90   0.0000    230.0026    561.9687  -3.90     2782.458     1.940           15     1.752      6.711   0.00605558  19.4389         52
 3.50   0.0000    222.5936    774.9836 -87.99     667.8486     0.863           15     0.719      0.943  0.006052839  20.9883         53
 4.09   0.0000    222.6281    345.6372 -40.48     531.8577     1.060           15     0.907      2.203   0.00605558  21.2355         54
 3.50   0.0000    228.8382    415.6403 -59.82     2161.516     0.934           15     0.867      1.344   0.00605832  19.7131         55
 3.50   0.0000    223.9923   1226.0446   0.55     2077.342     0.737           15     0.711      0.588  0.006057635  19.7562         56
 3.53   0.0000    244.1672    113.0579 -88.34      1116.92     1.168           15     0.777      1.814   0.00605695  20.4299         57
 3.56   0.0000    239.2120    838.8415  37.84     361.1119     0.761           15     0.676      1.477  0.006056265  21.6559         58
 3.50   0.0000    255.5057    613.0828 -34.10     2890.069     1.188           15     0.895      1.639  0.006051468  19.3977         59
 3.50   0.0000    251.7935   1372.9500 -87.02     386.5677     0.849           15     0.724      1.474  0.006059005  21.5819         60
 3.50   0.0000    259.8762    997.5461  -3.09      86268.3     1.100           15     1.050      1.547  0.006052839  15.7104         61
 3.50   0.0000    250.8616    107.4943  -4.54      386.481     0.726           15     0.669      1.044  0.006052153  21.5822         62
 3.50   0.0000    253.6643   1352.9545   2.63     235.2258     0.685           15     0.632      0.899  0.006054895  22.1213         63
 3.50   0.0000    266.0662     67.6727  -6.25     65206.04     1.074           15     1.050      1.518  0.006050782  16.0143         64
 3.50   0.0000    265.7233    123.9960  -0.35     168.3721     0.615           15     0.447      1.105  0.006056265  22.4843         65
 3.50   0.0000    270.8557   1273.7720 -47.35     332.0127     0.746           15     0.656      1.164  0.006057635  21.7471         66
 3.50   0.0000    282.0216   1522.4011  -0.35     4815.296     0.856           15     0.774      0.930   0.00605558  18.8434         67
 3.50   0.0000    287.6032   1486.5247  -9.07     19669.17     0.962           15     0.940      1.183   0.00605832  17.3155         68
 3.50   0.0000    289.9657    515.1097  27.42     1515.682     1.002           15     0.951      1.441  0.006052839  20.0985         69
 5.21   0.0000    297.1519   1414.1385 -41.70     711.8638     1.750           15     0.645      4.827  0.006053524  20.9190         70
 3.50   0.0000    293.5961   1475.6418  47.80     646.6346     0.855           15     0.787      1.018  0.006057635  21.0234         71
 3.50   0.0000    312.5960    439.5113 -36.04     219691.1     1.288           15     1.205      1.872   0.00605421  14.6955         72
 3.50   0.0000    294.0192   1327.5461  -0.06     2017.981     0.865           15     0.714      0.881  0.006057635  19.7877         73
 4.16   0.0000    292.5126    248.4423 -49.46     150.7323     0.508           15     0.488      1.101  0.006053524  22.6045         74
 3.50   0.0000    303.3094    201.8168 -12.85     15669.89     0.939           15     0.904      1.208   0.00605558  17.5623         75
 3.50   0.0000    302.3451    563.6672 -44.29     844.8826     0.852           15     0.791      1.055  0.006052839  20.7330         76
 4.63   0.0000    308.6402     85.3959  80.27     284.1541     0.981           15     0.467      2.029  0.006056265  21.9161         77
 3.50   0.0000    318.8064    905.5882 -11.57     45803.54     1.067           15     1.026      1.500  0.006051468  16.3978         78
 4.16   0.0000    322.3329    641.4796 -67.12     654.4272     1.624           15     0.716      2.913  0.006050782  21.0103         79
 3.50   0.0000    322.1700    697.3477 -12.81     11341.73     0.895           15     0.871      1.079   0.00605695  17.9133         80
 3.62   0.0000    317.1805    227.1662  42.14     216.5831     0.735           15     0.558      1.422  0.006056265  22.2109         81
 3.50   0.0000    327.6009    595.4840  -9.01     1476.158     0.906           15     0.891      1.236   0.00605558  20.1272         82
 5.03   0.0000    324.4849    955.4946  44.76     176.0586     0.512           15     0.488      1.518  0.006048038  22.4359         83
 3.78   0.0000    325.2673    341.7325  44.99     140.5096     0.517           15     0.353      0.954  0.006051468  22.6807         84
 3.50   0.0000    329.2280   1546.1112 -41.23     346.8692     0.734           15     0.650      0.984  0.006053524  21.6996         85
 3.50   0.0000    332.3817     93.1848 -67.31     425.9005     0.792           15     0.661      1.021   0.00605558  21.4767         86
 3.50   0.0000    335.0340   1440.4576   0.44     354.2316     0.727           15     0.664      0.913   0.00605695  21.6768         87
 3.50   0.0000    351.4928   1345.9336 -12.95     187420.2     1.174           15     1.154      1.728  0.006052839  14.8680         88
 3.50   0.0000    351.4919    890.9019   2.65     196477.7     1.159           15     1.156      1.720  0.006050096  14.8167         89
 3.50   0.0000    346.4391    867.0427 -63.23     6940.811     0.872           15     0.861      1.014   0.00605832  18.4465         90
 3.50   0.0000    350.1840     54.7675 -37.63     961.0113     0.828           15     0.764      0.956   0.00605695  20.5932         91
 3.67   0.0000    348.4668     42.5097 -40.99     137.2488     0.503           15     0.496      1.022  0.006052839  22.7062         92
 3.50   0.0000    355.9484    431.8481 -88.39      4986.43     0.937           15     0.852      1.243  0.006057635  18.8055         93
 3.50   0.0000    360.7476   1034.0226 -89.50     455.3342     0.790           15     0.703      0.926  0.006059005  21.4042         94
 3.50   0.0000    361.2324   1500.4402 -16.74     1923.318     0.863           15     0.815      0.987   0.00605832  19.8399         95
 3.50   0.0000    359.8575    533.1956  39.71     296.5294     0.758           15     0.662      1.267  0.006059689  21.8698         96
 3.50   0.0000    368.2189    761.1461 -12.03     11394.62     0.902           15     0.877      1.168  0.006057635  17.9082         97
 3.50   0.0000    367.5698    442.8435 -84.85     4100.726     0.865           15     0.808      0.975   0.00605832  19.0178         98
 4.03   0.0000    363.3318   1415.7358  49.43     132.7497     0.545           15     0.345      1.021  0.006052153  22.7424         99
 3.50   0.0000    375.7258    753.6906  49.74     374.1979     1.464           15     0.520      2.416  0.006051468  21.6172        100
 5.24   0.0000    369.6736    210.2996  46.47     143.4983     0.559           15     0.342      1.213  0.006050096  22.6579        101
 3.96   0.0000    373.2341   1084.0790 -36.71      345.858     0.811           15     0.651      1.607   0.00605421  21.7028        102
 3.50   0.0000    372.9349    992.5711  12.89     508.2318     0.846           15     0.699      0.937   0.00605558  21.2848        103
 3.50   0.0000    370.5015     71.9082  -2.39      220.528     0.730           15     0.500      1.142   0.00604941  22.1913        104
 3.54   0.0000    375.5398     87.4500  47.18     206.7689     0.504           15     0.492      1.000   0.00605421  22.2613        105
 3.50   0.0000    380.3604    125.9185  -5.40     288.0088     0.697           15     0.626      1.066  0.006054895  21.9015        106
 3.74   0.0000    382.5930     67.2884 -17.32      240.084     0.678           15     0.469      1.188  0.006054895  22.0991        107
 3.50   0.0000    395.3600    231.5268  -0.52     39785.49     1.039           15     1.021      1.458  0.006054895  16.5507        108
 3.50   0.0000    388.9947   1195.4945 -89.79     181.9099     0.726           15     0.500      0.995   0.00605421  22.4004        109
 3.50   0.0000    393.9053   1088.7450   1.23     1861.167     0.826           15     0.763      0.842  0.006051468  19.8755        110
 3.50   0.0000    397.1158   1461.2053   3.89     7937.318     0.857           15     0.837      1.032  0.006054895  18.3008        111
 3.50   0.0000    389.7080    260.7393 -47.62     144.6378     0.526           15     0.351      0.833  0.006052839  22.6493        112
 3.50   0.0000    398.3027    354.6313 -16.15     8992.457     0.886           15     0.866      1.065  0.006050782  18.1653        113
 5.09   0.0000    391.7090     95.6480 -41.97     160.3924     0.566           15     0.338      1.274  0.006051468  22.5370        114
 3.50   0.0000    396.6312    977.8607   8.36     264.7975     0.697           15     0.622      1.082   0.00605558  21.9927        115
 5.40   0.0000    396.9663    626.9137 -50.33     585.3946     0.776           15     0.770      2.420  0.006054895  21.1314        116
 6.12   0.0000    403.8000    526.5995  70.37     253.0296     0.752           15     0.446      2.543   0.00605695  22.0421        117
 3.50   0.0000    407.2128    282.2084  45.10      221.085     0.691           15     0.550      0.990  0.006052153  22.1886        118
 3.50   0.0000    415.7662    837.4925 -10.59     20949.49     0.976           15     0.947      1.250  0.006052153  17.2471        119
 3.50   0.0000    419.7375    433.4600  -8.53     37619.05     1.023           15     1.005      1.409  0.006053524  16.6115        120
 6.99   0.0000    413.3591   1562.3308 -46.06      205.074     0.587           15     0.327      2.181   0.00605558  22.2702        121
 3.50   0.0000    421.0593    159.0569  43.12     693.6216     1.185           15     0.839      1.867  0.006052153  20.9472        122
 5.34   0.0000    418.7148   1204.6683 -42.31     156.9244     0.555           15     0.343      1.289  0.006052153  22.5608        123
 3.50   0.0000    424.2813    926.4229 -17.02     4166.725     0.868           15     0.838      1.006   0.00605558  19.0005        124
 3.50   0.0000    419.6123   1580.7310  16.35     211.6491     0.666           15     0.469      1.006   0.00605832  22.2360        125
 3.81   0.0000    419.5503    774.5352  13.96     147.8487     0.499           15     0.497      1.065   0.00605421  22.6255        126
 3.50   0.0000    426.1671    299.8909 -46.17     203.1155     0.688           15     0.552      0.763  0.006053524  22.2806        127
 3.52   0.0000    424.4232   1064.1791  20.55     170.5653     0.697           15     0.458      1.150  0.006056265  22.4703        128
 3.50   0.0000    426.8605   1179.6385  20.10     428.3203     0.998           15     0.697      1.780  0.006056265  21.4706        129
 3.50   0.0000    438.0877    252.1659  -8.98     17247.89     0.942           15     0.908      1.279  0.006054895  17.4582        130
 3.50   0.0000    433.0063   1422.0161  -4.42     1218.957     0.715           15     0.713      0.576  0.006052839  20.3350        131
 3.50   0.0000    434.0676    151.0764  25.03     571.0896     0.720           15     0.718      0.890  0.006050096  21.1582        132
 3.53   0.0000    433.5498    406.4980 -39.19     135.9486     0.505           15     0.493      1.002  0.006048038  22.7166        133
 3.88   0.0000    467.6284    850.1495  22.23     3607.993     6.637           15     1.103     10.817  0.006057635  19.1568        134
 3.50   0.0000    440.0429    305.8197   1.22     614.4357     0.778           15     0.705      0.850  0.006056265  21.0788        135
 3.50   0.0000    445.4963    122.3596 -47.28      670.929     0.894           15     0.798      1.209  0.006050096  20.9833        136
 3.50   0.0000    443.9940    655.0388   1.48     181.7785     0.590           15     0.582      0.975  0.006056265  22.4011        137
 3.50   0.0000    444.0155    174.3318 -87.00     278.5574     0.711           15     0.636      1.263   0.00605832  21.9377        138
 3.92   0.0000    447.5544    884.0591  14.06     675.1834     1.448           15     0.747      2.968  0.006054895  20.9764        139
 3.50   0.0000    450.4539     21.3603 -54.92     5663.982     0.875           15     0.851      1.016   0.00605558  18.6672        140
 3.50   0.0000    461.1238    807.6865  -1.36     98701.09     1.108           15     1.081      1.568  0.006050096  15.5642        141
 3.50   0.0000    457.9855     34.6315  -7.65     6392.493     0.861           15     0.809      0.977   0.00605695  18.5358        142
 3.50   0.0000    452.9284   1533.0669 -41.52      320.567     0.722           15     0.716      0.866  0.006050782  21.7852        143
 3.94   0.0000    454.5219   1224.5588 -65.51     145.0461     0.500           15     0.496      1.086   0.00605421  22.6462        144
 3.50   0.0000    463.8805    468.6622   5.29     1865.289     0.845           15     0.775      0.914  0.006051468  19.8731        145
 3.50   0.0000    461.1011   1096.3849  14.76     569.8854     0.861           15     0.703      1.068  0.006053524  21.1605        146
 4.05   0.0000    461.4844    725.1926  -9.88     323.8121     0.949           15     0.480      1.839  0.006054895  21.7743        147
 4.21   0.0000    465.6996    561.7150 -46.06     141.3464     0.541           15     0.348      1.066  0.006048038  22.6743        148
 3.50   0.0000    471.5074    254.2721 -61.40      1616.55     0.871           15     0.817      0.974  0.006052839  20.0285        149
 3.50   0.0000    472.1558    734.9695  88.57     2360.875     0.795           15     0.736      0.739   0.00605832  19.6173        150
 3.50   0.0000    478.0310    923.0765  -2.32     3003.689     0.769           15     0.736      0.667  0.006054895  19.3559        151
 3.50   0.0000    476.0123   1168.3380  89.11     220.7517     0.688           15     0.633      0.947  0.006057635  22.1902        152
 3.50   0.0000    478.0302   1277.0203 -18.46     1035.233     0.716           15     0.716      0.594   0.00605558  20.5124        153
 3.50   0.0000    478.9910    682.7250  89.08     249.6316     0.690           15     0.641      1.080   0.00605832  22.0567        154
 4.74   0.0000    488.4888    839.6581 -89.56     440.9655     1.468           15     0.474      3.669  0.006052839  21.4390        155
 3.50   0.0000    481.0199   1309.7543 -83.91      224.214     0.672           15     0.646      0.805   0.00605695  22.1733        156
 3.50   0.0000    484.0858   1070.6497   3.27     1346.478     0.850           15     0.746      0.911  0.006052839  20.2270        157
 4.68   0.0000    496.1667     83.2030  42.36     1758.143     1.715           15     1.112      3.581   0.00605695  19.9374        158
 4.70   0.0000    495.6011   1186.6326 -12.37     1766.794     2.449           15     1.008      5.026   0.00605558  19.9320        159
 4.08   0.0000    493.2627    574.6475  39.71     138.2724     0.552           15     0.342      1.032   0.00605421  22.6982        160
 3.78   0.0000    533.1496    518.8732  39.74     13594.37     2.529           15     1.848      4.215  0.006051468  17.7166        161
 3.50   0.0000    498.0488    366.3426  87.44     300.6401     0.690           15     0.632      0.991  0.006054895  21.8549        162
 3.62   0.0000    504.2650    762.8640 -11.42     1006.838     1.136           15     0.993      2.161  0.006052153  20.5426        163
 3.50   0.0000    501.7854   1310.1752  43.57     278.3817     0.733           15     0.652      1.007   0.00605421  21.9384        164
 3.50   0.0000    502.0432    863.9369  -1.14     675.4323     0.717           15     0.715      0.660   0.00605421  20.9760        165
 3.50   0.0000    515.2407   1460.9457  23.93      2356.44     3.497           15     0.798      5.866  0.006054895  19.6194        166
 3.50   0.0000    512.5298   1302.4106  -3.43     13018.54     0.908           15     0.893      1.073   0.00605832  17.7636        167
 3.50   0.0000    510.0150    165.9505 -16.48     512.7292     0.732           15     0.720      1.056  0.006057635  21.2753        168
 3.50   0.0000    513.2787   1310.6052 -17.54     1081.743     0.845           15     0.817      0.998  0.006056265  20.4647        169
 3.50   0.0000    510.3745    160.8660 -19.33     200.1916     0.703           15     0.450      1.116   0.00605558  22.2964        170
 3.50   0.0000    513.9379   1179.2053   1.46     754.1703     0.782           15     0.706      0.944  0.006059689  20.8563        171
 3.50   0.0000    519.2127    642.0255 -80.71     518.4639     0.811           15     0.728      1.278  0.006054895  21.2632        172
 3.50   0.0000    518.2984   1519.1268  13.84     259.3484     0.687           15     0.631      1.006  0.006050782  22.0153        173
 3.50   0.0000    520.9633    853.9824 -88.44     162.3222     0.605           15     0.585      1.269  0.006057635  22.5241        174
 3.50   0.0000    536.1949    404.5129  26.30       317.24     1.079           15     0.560      1.775  0.006054895  21.7965        175
 3.50   0.0000    540.2865    999.9573  88.40     1916.357     0.838           15     0.735      0.843   0.00605421  19.8438        176
 3.50   0.0000    555.9639    778.7435  83.97     217.3556     0.676           15     0.642      0.840  0.006056265  22.2071        177
 3.50   0.0000    559.0237   1041.7947   0.35     2540.064     0.817           15     0.730      0.777   0.00605558  19.5379        178
 3.50   0.0000    571.3787     45.9998  49.03     1560.411     1.437           15     0.822      2.102  0.006054895  20.0669        179
 3.50   0.0000    564.9589    139.6722   0.08     446.0528     0.799           15     0.704      1.037   0.00605558  21.4265        180
 3.69   0.0000    563.2801    905.7167  44.75     139.5165     0.531           15     0.351      0.954  0.006052153  22.6884        181
 3.94   0.0000    571.1721   1447.5476  14.55      1344.33     1.754           15     0.991      2.950  0.006057635  20.2287        182
 3.85   0.0000    567.3187    632.2808 -47.43     140.2513     0.547           15     0.346      0.988  0.006052153  22.6827        183
 3.50   0.0000    572.6301   1242.9188 -47.99     7965.177     0.867           15     0.857      1.045  0.006054895  18.2970        184
 3.50   0.0000    587.8795   1316.0587  -2.41     196381.5     1.192           15     1.156      1.725  0.006053524  14.8172        185
 3.50   0.0000    576.1861   1001.9141 -85.77     434.5194     0.838           15     0.726      1.460   0.00605558  21.4550        186
 3.50   0.0000    574.9515   1337.0007  88.16     1142.317     0.716           15     0.713      0.566  0.006059689  20.4055        187
 3.50   0.0000    580.8380    145.0133 -20.61     11265.81     0.887           15     0.863      1.164  0.006057635  17.9206        188
 3.50   0.0000    582.3220    319.2436 -18.49     11008.67     0.896           15     0.875      1.087  0.006053524  17.9457        189
 4.88   0.0000    597.1649    782.3618  -2.55     4280.727     2.041           15     1.867      6.095   0.00605695  18.9712        190
 3.50   0.0000    584.7556     76.0143 -89.03     620.7451     0.790           15     0.704      0.947  0.006056265  21.0677        191
 3.50   0.0000    585.3632   1172.9736  -0.69     258.2998     0.696           15     0.627      1.043   0.00605558  22.0197        192
 3.50   0.0000   1014.7902    453.1744  45.70     395.3753     0.743           15     0.656      1.143   0.00605558  21.5575        193
 3.50   0.0000   1594.8091    655.0619   5.28     373.2048     1.061           15     0.624      1.799  0.005848544  21.6201        194
 3.50   0.0000   1593.9850    374.1514   2.25     490.5679     0.817           15     0.702      1.121  0.005971403  21.3233        195
 3.50   0.0000   1591.2461    567.0024   3.29      280.825     0.674           15     0.642      0.798  0.006059005  21.9289        196
 3.50   0.0000   1558.1235    487.7676 -12.72     46123.16     1.071           15     1.034      1.496  0.006054895  16.3902        197
 4.33   0.0000   1560.2693    103.7248  44.48     142.8797     0.522           15     0.352      0.961  0.006050782  22.6626        198
 3.50   0.0000   1557.0012    737.9983   0.02     157.7301     0.586           15     0.581      0.651   0.00605695  22.5552        199
 3.50   0.0000   1554.4534   1233.0522  -0.46     302.8799     0.733           15     0.498      1.042   0.00605558  21.8468        200
 3.50   0.0000   1551.9757   1513.7290 -88.37      202.265     0.682           15     0.642      0.951  0.006056265  22.2852        201
 4.14   0.0000   1552.7423    133.3648  38.93     150.5118     0.555           15     0.340      1.076   0.00605695  22.6061        202
 3.50   0.0000   1550.9629   1221.9932  14.51     805.2794     0.718           15     0.717      0.673   0.00605695  20.7851        203
 3.91   0.0001   1551.5038    352.4662  46.83     130.4526     0.508           15     0.490      1.086  0.006053524  22.7614        204
 3.50   0.0000   1546.1119    863.5273  66.29     1370.568     1.087           15     0.856      1.529  0.006050782  20.2077        205
 3.50   0.0000   1541.0056    330.0174  -1.14     149.2333     0.581           15     0.577      0.552   0.00605421  22.6153        206
 3.81   0.0000   1538.8774    505.8886  48.92     237.5227     0.725           15     0.562      1.542  0.006050096  22.1107        207
 3.50   0.0000   1538.8950    263.6623  76.89      293.037     0.699           15     0.628      1.102  0.006052153  21.8827        208
 3.50   0.0000   1536.6200   1428.5448 -48.19     650.7598     1.844           15     0.627      2.591  0.006056265  21.0164        209
 3.50   0.0000   1535.8694    919.9150 -44.06     396.1852     0.745           15     0.639      0.858  0.006051468  21.5553        210
 4.89   0.0000   1534.2906    976.0057  -5.99     452.7249     0.707           15     0.655      1.918  0.006052839  21.4104        211
 3.50   0.0000   1532.6438    415.8946  19.76     745.3755     1.124           15     0.827      1.767  0.006050096  20.8691        212
 3.50   0.0000   1527.1750    879.1344 -44.07      288.992     0.741           15     0.650      1.025  0.006056265  21.8978        213
 3.50   0.0000   1514.6709    483.7967 -86.21     920.3942     0.838           15     0.803      0.985   0.00605832  20.6401        214
 3.50   0.0000   1195.1041    124.2611 -80.61      1817.45     1.237           15     0.911      1.914  0.006051468  19.9013        215
 3.50   0.0000   1195.9843   1053.3036  89.99     226.9611     0.686           15     0.639      0.985  0.006054895  22.1601        216
 3.87   0.0000   1180.1399   1404.3931  70.13     192.9835     0.704           15     0.453      1.260  0.006060374  22.3362        217
 3.50   0.0000   1165.2070   1299.8625 -17.80     41902.41     1.040           15     1.008      1.440  0.006059005  16.4944        218
 3.50   0.0000   1158.0677    186.3183  89.45     237.7156     0.713           15     0.633      1.321  0.006052153  22.1099        219
 3.50   0.0000   1151.7195    693.9235 -11.00     367581.2     1.465           15     1.438      2.357  0.006053524  14.1366        220
 3.50   0.0000   1156.0018    567.6863 -89.20     316.1244     0.728           15     0.635      1.465   0.00605421  21.8004        221
 3.75   0.0000   1156.5894    351.5300   5.09     164.3984     0.499           15     0.492      1.042   0.00605832  22.5103        222
 8.47   0.0000   1152.5039    683.8229 -89.78     1205.323     1.348           15     0.666      6.984   0.00605421  20.3472        223
 4.10   0.0000   1153.4441    576.5019 -42.09     200.5279     0.514           15     0.483      1.096  0.006050096  22.2946        224
 8.88   0.0000   1151.0209    705.3643  89.58      994.087     1.186           15     0.481      5.872   0.00605695  20.5564        225
 3.50   0.0000   1148.0212    112.7076 -87.11     208.3892     0.677           15     0.641      0.868  0.006053524  22.2528        226
 3.50   0.0000   1146.9436    795.0072  88.87     152.5495     0.590           15     0.573      0.660  0.006061059  22.5915        227
 3.50   0.0000   1145.8497    769.8937 -48.25     333.8588     0.779           15     0.638      1.271  0.006050096  21.7411        228
 3.50   0.0000   1151.2727     99.4279 -26.55     1600.032     0.866           15     0.821      1.002   0.00605558  20.0397        229
 4.85   0.0000   1146.6708    327.3087  46.05     140.1126     0.565           15     0.340      1.248  0.006051468  22.6838        230
 3.50   0.0000   1141.3693    661.5532 -51.73     505.8501     0.945           15     0.802      1.516   0.00605832  21.2899        231
 3.50   0.0000   1133.9031    607.6722 -23.01     360.2455     0.786           15     0.661      0.899  0.006051468  21.6585        232
 3.50   0.0000   1131.0127    359.2206  -2.56     503.4968     0.794           15     0.705      0.997   0.00605421  21.2950        233
 3.50   0.0000   1130.2445    219.7151 -27.65     743.9186     0.858           15     0.781      1.099  0.006053524  20.8712        234
 3.50   0.0000   1130.1213    183.6057 -12.19     17705.46     0.958           15     0.918      1.239   0.00605558  17.4297        235
 3.50   0.0000   1129.8270    504.7611 -44.66     292.1663     0.751           15     0.649      1.129   0.00605832  21.8859        236
 3.79   0.0000   1129.7340   1145.3108  41.72     161.1109     0.537           15     0.349      0.975  0.006053524  22.5322        237
 3.50   0.0000   1129.1033    547.4508  -0.53      727.896     0.865           15     0.719      0.965  0.006048038  20.8948        238
 3.57   0.0000   1125.5797    276.4755  11.91       177.95     0.500           15     0.493      0.998  0.006057635  22.4243        239
 3.50   0.0000   1120.4387    329.8807  57.26     2379.775     2.088           15     0.842      3.392  0.006053524  19.6087        240
 5.89   0.0000   1115.9824    483.9792  -2.68      520.859     0.606           15     0.599      2.324   0.00605558  21.2582        241
 3.50   0.0000   1114.1022    674.3486  10.26     619.5476     0.839           15     0.702      0.923  0.006048725  21.0698        242
 5.05   0.0000   1110.6881    479.0298  -9.07     1662.307     1.220           15     0.897      2.938  0.006053524  19.9982        243
 4.04   0.0000   1108.5511   1123.5917  54.87      172.915     0.503           15     0.486      1.102   0.00605832  22.4554        244
 3.50   0.0000   1107.5592    428.0436 -68.88     7869.114     0.871           15     0.859      1.011   0.00605695  18.3102        245
 3.50   0.0000   1106.9590   1267.0492  22.58     176.9086     0.585           15     0.580      0.753   0.00605695  22.4306        246
 3.50   0.0000   1105.3925    678.5505  40.23     676.6826     1.174           15     0.773      2.015   0.00605832  20.9740        247
 3.50   0.0000   1094.8533   1136.2158  47.27     361.4706     0.729           15     0.655      0.978  0.006057635  21.6548        248
 3.50   0.0000   1091.1810    468.1634 -63.47     860.2856     2.179           15     0.647      3.504  0.006057635  20.7134        249
 4.90   0.0000   1093.1174    428.7585  26.30     474.3412     1.266           15     0.617      2.676  0.006054895  21.3598        250
 3.50   0.0000   1089.4271    642.5135 -38.17     3414.951     0.873           15     0.858      1.011  0.006054895  19.2165        251
 3.50   0.0000   1088.3113    396.8775  67.53     331.4015     0.867           15     0.655      1.396  0.006050096  21.7491        252
 3.50   0.0000   1083.8992     43.0321 -16.44     593.6987     0.741           15     0.724      1.208  0.006050096  21.1161        253
 3.50   0.0000   1081.8456   1148.2327 -25.05     10950.14     0.885           15     0.868      1.136   0.00605832  17.9515        254
 3.50   0.0000   1080.0590    512.2422 -12.99     29895.32     1.011           15     0.984      1.403  0.006054895  16.8610        255
 3.68   0.0000   1079.4600    922.4719 -43.12     189.6573     0.505           15     0.493      1.021  0.006052839  22.3551        256
 3.53   0.0000   1078.3182    468.7436  49.58     143.1958     0.535           15     0.348      0.908  0.006052839  22.6602        257
 4.11   0.0000   1074.9030    352.3564 -87.52     304.0367     0.726           15     0.639      1.666  0.006050096  21.8427        258
 3.50   0.0000   1072.1155   1219.0836 -75.85     1879.109     1.077           15     0.910      1.579  0.006050096  19.8651        259
 3.50   0.0000   1073.5475      7.0251 -89.53     670.4349     0.865           15     0.712      0.871  0.005974182  20.9841        260
 3.50   0.0000   1066.9686    569.1039 -51.69     340.0916     0.733           15     0.712      1.027  0.006051468  21.7210        261
 3.50   0.0000   1064.2825    292.0649   5.12     273.5443     0.703           15     0.636      1.220  0.006051468  21.9574        262
 3.50   0.0000   1063.0682      7.3924  12.26     504.9002     0.843           15     0.695      0.865  0.006017088  21.2920        263
 4.15   0.0000   1048.4739    208.4408 -52.38     156.1294     0.503           15     0.492      1.066  0.006054895  22.5663        264
 3.63   0.0000   1040.5000    467.0055   5.06     284.2523     0.751           15     0.498      1.312  0.006053524  21.9157        265
 3.50   0.0000   1038.2679    122.0010 -37.26     695.4668     1.604           15     0.683      2.651   0.00605832  20.9443        266
 3.77   0.0000   1037.4598    242.4559  45.72     204.6519     0.505           15     0.491      1.050  0.006052839  22.2725        267
 3.50   0.0000   1030.2832    302.6995  65.18     1806.884     2.320           15     1.104      3.803   0.00604941  19.9077        268
 3.50   0.0000   1028.0256    464.2540 -88.12     164.5503     0.623           15     0.435      0.945   0.00605832  22.5093        269
 3.50   0.0000   1028.2209    351.8145 -41.79     213.1999     0.708           15     0.549      1.167   0.00605421  22.2280        270
 3.50   0.0000   1025.8187   1380.0295  -4.01     19784.08     0.946           15     0.934      1.294  0.006056265  17.3092        271
 3.50   0.0000   1023.7655     50.3365  -8.35     265149.1     1.248           15     1.215      1.883   0.00605558  14.4913        272
 3.50   0.0000   1009.8973    813.7781 -17.48     18152.11     0.947           15     0.914      1.256  0.006052839  17.4027        273
 3.50   0.0000   1011.0823    267.8849  52.72     439.9962     0.751           15     0.728      1.320  0.006051468  21.4414        274
 3.86   0.0000   1004.4709   1238.4375  48.09      143.633     0.512           15     0.483      1.076  0.006056265  22.6569        275
 3.50   0.0000   1001.6329   1555.4990 -39.94     1274.465     0.881           15     0.822      1.007   0.00604941  20.2867        276
 3.50   0.0000   1001.8130    542.6465 -15.91      2904.77     0.857           15     0.803      0.953  0.006056265  19.3922        277
 3.50   0.0000   1000.0179   1273.7877 -11.42     982.7692     0.810           15     0.705      0.803   0.00605421  20.5689        278
 3.50   0.0000    998.2060    233.6394  -8.34     600.4706     0.831           15     0.757      1.010  0.006056265  21.1038        279
 3.58   0.0000    993.4240    499.5421 -16.33     193.4502     0.499           15     0.494      1.019   0.00605832  22.3336        280
 3.50   0.0000    992.3694    346.0027  -1.55     241.6657     0.684           15     0.629      0.893  0.006054895  22.0920        281
 3.50   0.0000    991.0795      9.7261 -77.43     299.7836     0.709           15     0.640      1.313  0.006052839  21.8580        282
 3.50   0.0000    986.7823    454.1974  68.37     1174.056     0.934           15     0.860      1.427  0.006053524  20.3758        283
 3.50   0.0000    985.0013    558.5350 -16.41     26667.81     1.001           15     0.965      1.367  0.006059689  16.9850        284
 3.50   0.0000    982.2427   1487.0428   8.92     250.6897     0.682           15     0.640      0.935   0.00605421  22.0522        285
 3.50   0.0000    980.9020    798.0669 -50.74     987.0953     0.930           15     0.825      1.398   0.00605421  20.5641        286
 3.50   0.0000    978.9730   1066.0076  88.56     145.6915     0.583           15     0.576      0.555  0.006056265  22.6414        287
 3.50   0.0000    978.2540    452.8878  83.79     545.2566     0.794           15     0.709      1.098  0.006052153  21.2085        288
 3.88   0.0000    977.2387   1280.6263  36.83     157.1462     0.548           15     0.339      1.032   0.00605695  22.5592        289
 3.50   0.0000    965.0887    416.5681  19.34     436.6314     0.782           15     0.664      0.944  0.006053524  21.4497        290
 3.65   0.0001    959.5026    893.5092 -45.15     118.4238     0.507           15     0.493      1.011  0.006050096  22.8664        291
 3.87   0.0000    955.3351   1029.7324  49.25     141.8983     0.548           15     0.345      1.011  0.006050782  22.6701        292
 3.50   0.0000    951.0183    654.3859  86.61     907.9073     1.025           15     0.854      1.605  0.006054895  20.6549        293
 3.50   0.0000    952.1093     61.6862 -74.50     286.8482     0.701           15     0.632      1.164   0.00604941  21.9059        294
 3.50   0.0000    949.9297    267.7683  75.05     248.5937     0.677           15     0.639      0.819   0.00605558  22.0613        295
 3.50   0.0000    947.9475    445.1141 -26.36      436.168     0.720           15     0.717      0.925  0.006052153  21.4509        296
 3.50   0.0000    947.6364    133.8334   8.72     284.0925     0.691           15     0.620      1.056   0.00605832  21.9163        297
 3.50   0.0000    941.7228    725.9884  -1.73     225.0861     0.713           15     0.650      1.405   0.00605832  22.1691        298
 3.50   0.0000    939.2720   1067.1464 -78.38     2049.562     0.837           15     0.790      0.906  0.006052839  19.7708        299
 4.15   0.0000    938.4742    516.3674  50.27     715.8626     1.019           15     0.790      1.821   0.00605421  20.9129        300
 3.50   0.0000    932.5042   1118.0176   0.59     177.2363     0.719           15     0.500      0.928  0.006054895  22.4286        301
 3.50   0.0000    929.7848   1178.4783  -6.25     16425.68     0.933           15     0.910      1.151  0.006057635  17.5112        302
 3.50   0.0000    928.3083   1322.5372 -15.03     1155.842     0.848           15     0.824      1.000  0.006053524  20.3928        303
 3.50   0.0000    926.0380    666.2431 -87.62     173.1617     0.638           15     0.428      1.070  0.006059005  22.4539        304
 3.50   0.0000    925.8896     46.8889  45.96     223.6961     0.692           15     0.558      0.999   0.00604941  22.1759        305
 5.15   0.0000    917.2154    253.3820  70.34     236.1415     0.740           15     0.443      2.000   0.00605558  22.1171        306
 3.50   0.0000    912.2415   1001.1108 -84.65     602.8026     0.788           15     0.705      1.014  0.006053524  21.0996        307
 3.50   0.0000    912.9767    838.6080  -0.56     966.8795     0.860           15     0.715      0.883   0.00605558  20.5866        308
 3.50   0.0000    908.9637      5.9986 -89.74      169.124     0.593           15     0.584      1.174  0.005809394  22.4795        309
 3.54   0.0000    907.9316    659.4976 -89.59     260.9614     0.739           15     0.500      1.261  0.006052839  22.0086        310
 3.50   0.0000    904.4464   1315.2140  87.13     383.6001     0.874           15     0.681      1.229  0.006056265  21.5903        311
 4.25   0.0000    904.2960    734.7166  45.90      179.773     0.538           15     0.349      1.108  0.006048725  22.4132        312
 3.50   0.0000    900.5508    302.8600 -40.45     7138.792     0.878           15     0.863      1.034   0.00605421  18.4159        313
 3.50   0.0000    899.9661    379.9881 -86.41     205.0771     0.584           15     0.578      0.583   0.00605695  22.2702        314
 3.50   0.0000    897.1007    987.6790 -74.47      255.324     0.701           15     0.627      1.124   0.00604941  22.0323        315
 3.50   0.0000    896.2523    538.1432 -18.75       1204.6     1.053           15     0.958      1.597   0.00605421  20.3479        316
 3.81   0.0000    896.5678    542.5171  67.52     241.9825     0.826           15     0.659      1.628  0.006054895  22.0905        317
 3.50   0.0000    893.9709   1426.0844  -2.87     424.2057     0.720           15     0.714      0.758  0.006054895  21.4811        318
 3.50   0.0000    882.2172    184.0899 -16.17     404085.2     2.109           15     1.938      2.990  0.006056265  14.0338        319
 4.10   0.0000    869.2971    224.7967  86.22     1250.204     2.241           15     0.830      4.693  0.006054895  20.3075        320
 3.50   0.0000    888.8007    681.1498 -45.29     234.0851     0.717           15     0.550      1.232  0.006059689  22.1266        321
 3.50   0.0000    888.6888    325.8536  15.00     819.5862     1.693           15     0.788      2.581  0.006051468  20.7660        322
 3.50   0.0000    885.6116   1304.7076  66.73     628.0914     1.346           15     0.705      1.944  0.006053524  21.0549        323
 3.50   0.0000    885.9541   1500.1621   0.68     919.0716     0.771           15     0.706      0.792  0.006057635  20.6416        324
 3.50   0.0000    885.0444    339.1935   1.95       473.92     0.860           15     0.723      1.511  0.006057635  21.3607        325
 3.50   0.0000    880.2617   1592.2482  89.26     58948.12     1.138           15     1.000      1.512  0.006053524  16.1238        326
 3.73   0.0000    882.0825    224.5747 -89.23     3235.314     3.992           15     1.053      7.141  0.006054895  19.2752        327
 5.26   0.0000    879.7658    671.4405 -68.69     251.1703     0.711           15     0.455      1.715   0.00605695  22.0501        328
 3.50   0.0000    878.1177   1177.0952 -17.80      955.459     1.157           15     0.990      2.072  0.006050096  20.5995        329
 3.50   0.0000    877.8281    961.0408  88.80     602.3367     0.776           15     0.706      0.849  0.006057635  21.1004        330
 3.50   0.0000    876.6785    541.8705  11.61      244.246     0.691           15     0.631      1.081  0.006051468  22.0804        331
 3.50   0.0000    869.5497   1103.6627 -27.96     2413.734     0.979           15     0.861      1.245  0.006053524  19.5933        332
 3.50   0.0000    869.4858    643.9561 -88.35     330.7356     0.727           15     0.666      0.940   0.00605421  21.7513        333
 3.53   0.0000    868.1054    939.9172  38.07       998.37     1.570           15     0.769      2.487  0.006050782  20.5518        334
 3.50   0.0000    866.9589    454.7084 -88.32     203.8492     0.688           15     0.644      1.110  0.006050782  22.2767        335
 3.50   0.0000    864.6188   1479.4635   6.03     163.3609     0.499           15     0.486      0.981   0.00605695  22.5171        336
 4.21   0.0000    864.5591    355.4193 -61.42     190.9061     0.498           15     0.492      1.106  0.006057635  22.3479        337
 3.50   0.0000    859.3066   1224.6658  -7.41     182596.7     1.142           15     1.118      1.694  0.006053524  14.8963        338
 3.50   0.0000    860.5825   1554.4580 -20.20     188.3273     0.499           15     0.492      0.981  0.006056265  22.3627        339
 3.50   0.0000    859.6841   1157.3541 -41.60     930.0321     0.849           15     0.784      1.027  0.006053524  20.6288        340
 3.50   0.0000    858.5895   1339.5704 -60.60     713.4708     0.826           15     0.798      1.068   0.00605695  20.9166        341
 3.85   0.0000    855.3602    545.4374 -82.00     303.7936     0.874           15     0.486      1.345   0.00605832  21.8436        342
 6.81   0.0000    847.1396    361.6481  29.16     465.5408     0.750           15     0.638      3.215   0.00605421  21.3801        343
 3.50   0.0000    844.7289   1206.4722 -31.50     683.5463     0.871           15     0.775      1.047  0.006050096  20.9631        344
 3.50   0.0000    845.0040   1064.0054  -8.26     571.7035     0.715           15     0.712      0.573  0.006053524  21.1571        345
 3.50   0.0000    843.4752   1106.3242  41.83     1080.505     0.940           15     0.806      1.131  0.006052839  20.4659        346
 3.50   0.0000    837.8936   1247.2285 -21.85     1542.585     0.985           15     0.822      1.358  0.006053524  20.0794        347
 3.50   0.0000    838.1575    992.1693  42.15     235.4148     0.704           15     0.556      1.161   0.00605832  22.1204        348
 3.50   0.0000    836.8963   1520.5164 -88.78      241.442     0.718           15     0.500      0.940  0.006048038  22.0930        349
 3.50   0.0000    836.7676    298.8687  87.21     1567.072     0.816           15     0.779      0.875   0.00605558  20.0623        350
 3.50   0.0000    835.6367    819.1263  69.29     390.1875     0.780           15     0.668      0.987   0.00605421  21.5718        351
 3.50   0.0000    823.0458    654.4122  -9.15     7022.288     0.869           15     0.833      0.997  0.006056265  18.4338        352
 3.50   0.0000    822.0479    330.7408  86.35     163.8754     0.622           15     0.437      0.978   0.00605421  22.5137        353
 3.50   0.0000    819.5613   1398.5176 -26.78     192.5031     0.501           15     0.495      0.983  0.006054895  22.3389        354
 3.50   0.0000    819.2051    779.1572  48.12     190.1061     0.695           15     0.551      1.024  0.006057635  22.3525        355
 3.50   0.0000    818.9949    702.7935  87.71     263.2265     0.667           15     0.644      0.707   0.00605421  21.9992        356
 3.50   0.0000    817.5875    433.7421  18.79     203.5947     0.673           15     0.467      1.010  0.006057635  22.2781        357
 3.50   0.0000    815.5913    878.1392 -56.20     324.8433     0.837           15     0.637      1.476  0.006059689  21.7708        358
 3.50   0.0000    803.1048   1378.7255  -8.91     6708.479     0.853           15     0.826      1.001  0.006051468  18.4834        359
 3.50   0.0000    799.3143    695.6749 -79.27     15702.81     0.966           15     0.905      1.197  0.006050782  17.5601        360
 3.50   0.0000    794.3097    695.9285 -72.52     2670.948     0.931           15     0.811      1.048  0.006052153  19.4833        361
 3.50   0.0000    800.8320     41.2064 -10.67     3114.433     0.818           15     0.801      0.916  0.006057635  19.3166        362
 5.94   0.0000    794.3373    295.7312  49.24     182.3335     0.549           15     0.344      1.520  0.006053524  22.3978        363
 4.41   0.0000    774.1598   1427.3154  87.67     2159.255     2.003           15     1.090      4.339  0.006054895  19.7142        364
 3.50   0.0000    768.0027    140.1252  16.91     369.4617     0.748           15     0.737      1.346  0.006059005  21.6311        365
 5.01   0.0000    767.2936    930.3038 -44.35     161.5812     0.547           15     0.347      1.154   0.00604941  22.5290        366
 3.50   0.0000    766.8862    391.9793 -88.59     1359.927     0.758           15     0.707      0.670   0.00605558  20.2162        367
 3.67   0.0000    764.4622    567.5245   7.10     155.4191     0.499           15     0.499      1.022  0.006052153  22.5712        368
 6.02   0.0000    758.4749   1340.5171 -44.71     230.4512     0.516           15     0.483      2.023  0.006051467  22.1436        369
 7.23   0.0000    755.1161    195.8151  50.00     532.9003     0.830           15     0.676      3.350   0.00605695  21.2334        370
 3.50   0.0000    752.6188   1080.1906 -18.80     172.3089     0.683           15     0.457      0.982   0.00605421  22.4592        371
 3.50   0.0000    742.8993    556.3744  -4.58     1629.166     0.852           15     0.766      0.904  0.006051468  20.0201        372
 5.37   0.0000    742.3218    387.3076 -45.76     199.9953     0.561           15     0.341      1.297  0.006051468  22.2974        373
 3.50   0.0000    738.1060   1158.0787  60.78      571.131     0.719           15     0.718      0.919  0.006050782  21.1582        374
 3.50   0.0000    736.0535    649.9190  20.19     632.4479     0.720           15     0.717      0.851  0.006051468  21.0474        375
 3.50   0.0000    732.9496    391.1081 -80.95     485.6269     0.736           15     0.733      1.314  0.006052839  21.3342        376
 3.50   0.0000    726.7185    848.5880 -13.78     50990.34     1.055           15     1.019      1.481   0.00605695  16.2813        377
 3.50   0.0000    727.4648   1178.2852 -78.83       1110.1     0.849           15     0.820      0.990  0.006052153  20.4366        378
 3.50   0.0000    724.2036    404.9919  -5.28       218487     1.259           15     1.216      1.889  0.006054895  14.7014        379
 3.50   0.0000    721.3871   1394.9557  59.56     444.7159     0.794           15     0.672      1.119  0.006056265  21.4298        380
 3.50   0.0000    715.9861    808.4078  -0.50     1416.309     0.862           15     0.713      0.879  0.006052153  20.1721        381
 3.50   0.0000    709.0077   1163.8965   0.06     1455.808     0.757           15     0.708      0.693   0.00605421  20.1422        382
 3.53   0.0000    707.5828    538.5190 -15.89     159.5655     0.500           15     0.493      0.997  0.006057635  22.5427        383
 3.50   0.0000    704.1627   1339.2231 -66.21     1401.994     0.978           15     0.832      1.365   0.00605695  20.1831        384
 3.50   0.0000    702.8494    952.5405 -12.02     2590.222     0.866           15     0.791      0.944  0.006054895  19.5167        385
 4.50   0.0001    701.2946    651.3340 -42.88     127.6988     0.560           15     0.341      1.126  0.006053524  22.7845        386
 3.50   0.0000    699.0820    583.0854   6.22      643.434     1.760           15     0.693      2.789  0.006051468  21.0287        387
 3.50   0.0000    691.9409   1213.9050  43.75     531.9586     0.743           15     0.724      1.237  0.006052153  21.2353        388
 3.50   0.0000    692.0333    316.3544  87.94     255.7747     0.689           15     0.634      1.044   0.00605832  22.0304        389
 3.50   0.0000    687.8965    130.9720 -37.92     328.4645     0.728           15     0.717      1.006  0.006051468  21.7588        390
 3.50   0.0000    686.6031   1213.8276 -67.18     400.9687     0.800           15     0.658      1.022   0.00605421  21.5422        391
 3.50   0.0000    685.7629    644.3139  17.30     2104.529     0.845           15     0.820      0.983  0.006054895  19.7421        392
 4.27   0.0000    685.4396    401.4284  60.29      168.055     0.497           15     0.494      1.177  0.006057635  22.4864        393
 3.74   0.0000    681.5657    543.5992 -69.04     1483.004     1.404           15     0.833      2.308   0.00605421  20.1221        394
 7.24   0.0000    683.4173    472.2743  12.53       1515.4     1.297           15     0.978      5.713  0.006059689  20.0987        395
 4.40   0.0000    677.5269    201.5130  43.84     177.7193     0.506           15     0.493      1.181  0.006050782  22.4257        396
 4.30   0.0000    673.4588    231.5481  46.14      181.352     0.506           15     0.490      1.175  0.006053524  22.4037        397
 4.02   0.0000    669.0722   1221.5317 -88.84     269.2195     0.769           15     0.499      1.456  0.006050782  21.9747        398
 3.61   0.0000    666.5350   1180.4802 -41.56     173.0822     0.503           15     0.496      1.007  0.006051467  22.4544        399
 3.50   0.0000    654.7972    870.9797 -88.81     643.1813     0.782           15     0.702      0.831  0.006054895  21.0292        400
 3.50   0.0000    648.3354   1464.4542 -16.22     50111.13     1.050           15     1.028      1.491  0.006053524  16.3002        401
 3.50   0.0000    645.8907    653.0442 -35.11     416.0115     0.724           15     0.719      0.994  0.006052153  21.5022        402
 3.50   0.0000    639.8677    536.8982 -11.56     11706.95     0.896           15     0.878      1.174  0.006052839  17.8789        403
 3.50   0.0000    641.5020    276.9086  -1.67     224.2371     0.729           15     0.500      1.099  0.006050096  22.1732        404
 5.95   0.0000    636.2729    490.5765 -51.83     1348.186     2.651           15     0.846      6.841   0.00605695  20.2256        405
 3.50   0.0000    631.2473    483.4312  15.16     317432.7     1.415           15     1.344      2.178   0.00605832  14.2959        406
 3.50   0.0000    630.9396    806.2008   2.04     683.1421     0.782           15     0.705      0.906  0.006059689  20.9637        407
 3.50   0.0000    623.3418   1581.4885 -13.10     1154.439     0.846           15     0.829      1.011  0.006052839  20.3941        408
 3.50   0.0000    618.3663   1151.0735 -64.70     487.8633     0.800           15     0.675      1.186   0.00605421  21.3293        409
 3.50   0.0000    609.8167    945.4895 -90.00     268.7452     0.717           15     0.500      1.032  0.006056265  21.9766        410
 3.50   0.0000    605.5989    586.3758  49.00     1198.184     0.861           15     0.838      1.016  0.006054895  20.3537        411
 4.76   0.0000    604.0292    788.9792  89.07     460.8463     0.619           15     0.588      1.557   0.00605558  21.3911        412
 3.50   0.0000   1585.9562   1069.7611  -0.85     556.1617     0.791           15     0.706      0.996  0.006057635  21.1870        413
 3.50   0.0000   1562.6390   1566.2188  69.87     358.9612     0.787           15     0.666      1.102  0.006057635  21.6624        414
 3.68   0.0000    588.5083   1139.4800  47.06     152.0245     0.502           15     0.497      1.018  0.006052153  22.5952        415
 3.50   0.0000   1592.9989   1385.0219  -3.37     356.7587     0.764           15     0.713      1.275  0.006054895  21.6691        416
 5.12   0.0000   1586.6613    642.2787  48.47     225.2738     0.555           15     0.343      1.284  0.006052153  22.1682        417
 3.50   0.0000   1584.9958   1108.9314  -0.75     2085.809     0.746           15     0.710      0.615   0.00605832  19.7518        418
 3.50   0.0000   1552.7296    682.4494 -30.86     18175.81     4.087           15     3.262      8.084  0.006052153  17.4013        419
 3.50   0.0000   1581.1466   1414.5560  46.54     401.2921     0.970           15     0.684      1.439   0.00605558  21.5413        420
 3.50   0.0000   1561.2738    861.4814 -25.06      1645.12     0.867           15     0.821      0.985  0.006051468  20.0095        421
 3.50   0.0000   1563.8364    304.3066 -18.05     47509.52     1.066           15     1.033      1.518  0.006051468  16.3580        422
 3.50   0.0000   1571.3798   1338.7501 -17.16     193.9683     0.684           15     0.462      1.057  0.006056265  22.3307        423
 3.50   0.0000   1566.7678     22.0270  89.57     2725.843     0.825           15     0.735      0.843  0.006056265  19.4612        424
 3.50   0.0000   1575.0518   1491.1178 -34.95     449.0247     0.721           15     0.715      0.910  0.006052153  21.4193        425
 3.50   0.0000   1570.6804     92.7318 -53.48     2280.425     0.857           15     0.818      0.988  0.006051468  19.6550        426
 3.50   0.0000   1565.9200    784.5812 -72.98      1684.71     1.065           15     0.843      1.462   0.00605695  19.9837        427
 4.14   0.0000   1563.0710    386.2285 -76.78     448.0134     1.137           15     0.627      1.918   0.00605558  21.4218        428
 4.79   0.0000   1564.3177   1058.2966 -46.24      149.897     0.554           15     0.344      1.190  0.006050096  22.6105        429
 3.50   0.0000   1541.9304    135.1563  -8.75     4340.164     0.801           15     0.786      0.863   0.00605421  18.9562        430
 3.50   0.0000   1504.1782    723.4139   1.89     1210.415     0.851           15     0.794      0.975   0.00605421  20.3427        431
 3.50   0.0000   1542.7432    654.7680 -51.27     3142.147     0.840           15     0.815      0.971  0.006057635  19.3069        432
 3.50   0.0000   1528.7280    733.3473  47.33     382.5945     0.848           15     0.707      1.235  0.006052839  21.5932        433
 3.80   0.0000   1524.2723    378.8801  73.39     365.8871     1.267           15     0.595      2.036  0.006052153  21.6416        434
 3.50   0.0000   1522.7759     14.2471  47.55     367.3952     0.731           15     0.658      1.129   0.00605832  21.6372        435
 3.50   0.0000   1498.1967   1232.8259 -46.47       202.43     0.706           15     0.551      1.125  0.006054895  22.2843        436
 3.50   0.0000   1519.0890     85.0717  30.79     461.8499     0.754           15     0.750      1.406  0.006052153  21.3887        437
 4.18   0.0001   1497.2980   1124.7048  45.18     130.2543     0.545           15     0.347      1.062   0.00604941  22.7630        438
 3.50   0.0000   1520.1949   1100.9286  83.65     611.5087     1.170           15     0.729      1.750  0.006057635  21.0840        439
 3.50   0.0000   1515.3938   1547.1298  74.36     689.3911     0.948           15     0.696      1.464  0.006057635  20.9538        440
 3.50   0.0000   1514.9900    392.7280  -6.21     9011.605     0.890           15     0.858      1.117   0.00605832  18.1630        441
 3.50   0.0000   1503.8885   1096.5161   1.35     350.7542     0.737           15     0.675      1.194  0.006052153  21.6875        442
 3.50   0.0000   1507.3202    269.4153  -8.73     30202.49     1.009           15     0.983      1.347  0.006057635  16.8499        443
 3.50   0.0000   1498.5603    844.4210  53.79     684.4698     0.807           15     0.802      1.009   0.00605695  20.9616        444
 3.50   0.0000   1504.2402   1311.7751 -42.03     261.1971     0.713           15     0.546      1.206   0.00605832  22.0076        445
 4.66   0.0000   1494.5273    872.5963  66.25     205.4172     0.501           15     0.489      1.228  0.006057635  22.2684        446
 3.97   0.0000   1496.4775    930.4913 -44.55     204.9923     0.513           15     0.486      1.040  0.006051467  22.2707        447
 4.31   0.0000   1502.0271   1413.7739  88.76     188.8583     0.677           15     0.418      1.470  0.006056265  22.3597        448
 3.50   0.0000   1488.3303     78.1825  77.26      663.926     0.833           15     0.758      1.037   0.00605832  20.9947        449
 3.50   0.0000   1201.9847    339.1174   0.14     2036.366     0.785           15     0.715      0.699   0.00605695  19.7779        450
 3.50   0.0000   1200.9647   1442.2192  56.47     1351.852     1.050           15     0.896      1.531   0.00605695  20.2227        451
 3.50   0.0000   1482.6047    575.0537 -49.38     901.5832     1.723           15     0.778      2.519  0.006060374  20.6625        452
 3.50   0.0000   1218.8940   1194.8979   6.49     11140.23     0.885           15     0.862      1.141   0.00604941  17.9328        453
 4.92   0.0000   1221.0516   1431.4871  55.53     576.9362     1.026           15     0.710      2.135  0.006052153  21.1472        454
 3.56   0.0000   1475.0586    998.4743 -17.64     982.7084     2.452           15     0.684      4.386  0.006052839  20.5689        455
 3.50   0.0000   1434.4208   1090.5404   5.29     98382.38     1.145           15     1.090      1.684   0.00605695  15.5677        456
 4.83   0.0000   1478.4274   1023.5498  40.80      248.474     0.506           15     0.486      1.406  0.006057635  22.0618        457
 3.50   0.0000   1477.0640    198.9561   8.65     367.9463     0.730           15     0.724      1.118  0.006054895  21.6355        458
 4.05   0.0000   1475.8075   1570.1848 -53.63     259.2241     0.744           15     0.552      1.406  0.006052153  22.0158        459
 3.50   0.0000   1467.8199   1128.8060  49.47     204.4984     0.717           15     0.551      1.220  0.006054895  22.2733        460
 3.50   0.0000   1458.1593    611.8194 -41.24     221.0167     0.709           15     0.559      1.275  0.006057635  22.1889        461
 3.50   0.0000   1234.4695    304.8658 -77.92     3188.597     0.866           15     0.788      0.950  0.006052153  19.2910        462
 3.50   0.0000   1228.7637   1153.9070 -85.76     563.1789     0.789           15     0.706      1.007  0.006052153  21.1734        463
 3.50   0.0000   1453.8096    391.7986 -45.29     376.0395     0.727           15     0.658      1.007   0.00605421  21.6119        464
 3.50   0.0000   1462.4812   1381.9485   1.50     301.3967     0.717           15     0.499      0.933  0.006052153  21.8522        465
 3.50   0.0000   1237.7106     48.2860 -44.31     624.8787     0.837           15     0.785      1.000  0.006051468  21.0605        466
 3.50   0.0000   1454.8185    922.7558  44.02     204.9043     0.730           15     0.548      1.277   0.00605695  22.2711        467
 3.50   0.0000   1262.5007    216.2075 -87.71      439.225     0.824           15     0.689      0.998  0.006052839  21.4433        468
 3.50   0.0000   1449.6281     88.0215  -4.84     247.9286     0.689           15     0.627      0.946  0.006056265  22.0642        469
 3.50   0.0000   1451.8975   1225.1240 -52.79      235.295     0.728           15     0.558      1.507  0.006050782  22.1210        470
 3.50   0.0000   1265.5339    807.9094 -80.51     3786.048     0.865           15     0.789      0.955  0.006053524  19.1045        471
 3.50   0.0000   1435.4061    224.8043 -80.82     4355.471     0.864           15     0.821      1.006   0.00605421  18.9524        472
 3.50   0.0000   1439.9381    619.1690  -7.16     3338.498     0.802           15     0.752      0.762   0.00605558  19.2411        473
 3.50   0.0000   1438.9027    647.3972  17.64      405.235     0.818           15     0.666      1.184   0.00605421  21.5307        474
 3.50   0.0000   1438.9189   1271.2377 -10.28     825.2777     0.817           15     0.707      0.904  0.006054895  20.7585        475
 3.50   0.0000   1436.3177   1347.3644 -27.37     526.8648     0.822           15     0.737      1.025  0.006054895  21.2458        476
 3.50   0.0000   1277.9178    343.5418  -0.59      330.731     0.724           15     0.669      0.963  0.006052839  21.7513        477
 3.50   0.0000   1432.3300    341.1860  28.32     731.9619     1.206           15     0.769      1.880  0.006059689  20.8888        478
 3.50   0.0000   1306.9312    574.3385 -82.14     265.0674     0.688           15     0.635      1.054  0.006052839  21.9916        479
 3.50   0.0000   1288.8348    768.3059  23.53     407.5316     0.784           15     0.662      0.991  0.006051468  21.5246        480
 3.50   0.0000   1418.9578    106.9568 -17.79     175.6615     0.592           15     0.587      1.220   0.00605558  22.4383        481
 3.95   0.0000   1420.4875    429.5287 -46.35        212.3     0.507           15     0.492      1.068  0.006051467  22.2326        482
 3.50   0.0000   1298.5343    725.0360 -12.32     121942.9     1.161           15     1.116      1.674  0.006056265  15.3346        483
 3.50   0.0000   1291.8544    546.0005 -69.77     402.4224     0.719           15     0.713      0.868  0.006059689  21.5383        484
 3.50   0.0000   1406.3467    329.9770  89.69     987.6152     0.853           15     0.715      0.854  0.006059005  20.5635        485
 3.50   0.0000   1415.4495   1386.6025 -67.71     2230.145     0.866           15     0.860      0.994  0.006059689  19.6792        486
 3.50   0.0000   1419.3124   1126.4200 -71.63      19833.9     1.040           15     0.903      1.253   0.00605558  17.3065        487
 3.50   0.0000   1408.2823    308.3437 -26.86     3198.051     0.858           15     0.836      0.997  0.006052153  19.2878        488
 3.50   0.0000   1411.1757    350.0356  43.30     1084.617     1.129           15     0.793      1.490   0.00605558  20.4618        489
 3.50   0.0000   1400.6798   1031.5006  41.68     1317.139     0.925           15     0.808      1.078  0.006048725  20.2509        490
 3.50   0.0000   1388.7744   1428.5145 -15.95     8964.034     0.872           15     0.856      1.026   0.00605421  18.1687        491
 3.50   0.0000   1403.9277   1363.1219 -48.70     405.8006     0.725           15     0.715      0.986  0.006052153  21.5292        492
 3.50   0.0000   1388.9789    806.7930  -1.20     799.3153     0.783           15     0.703      0.846   0.00605421  20.7932        493
 3.50   0.0000   1393.5612    114.6463  -8.16     61270.42     1.086           15     1.044      1.556  0.006056265  16.0819        494
 3.50   0.0000   1390.5688    713.3209 -71.92     3299.283     0.866           15     0.848      1.006   0.00605421  19.2540        495
 6.29   0.0000   1402.4832   1345.4427  53.74     250.3636     0.503           15     0.493      1.926   0.00605421  22.0536        496
 3.50   0.0000   1392.3381   1038.9209 -86.79     2467.132     0.846           15     0.758      0.886  0.006051468  19.5695        497
 3.50   0.0000   1388.8145   1585.1672  42.84     281.0016     0.737           15     0.653      1.025  0.006056265  21.9282        498
 3.50   0.0000   1393.0216   1534.3190   1.44     442.9052     0.806           15     0.713      1.147  0.006056265  21.4342        499
 3.50   0.0000   1306.6312    844.8427 -67.46     379.4004     0.863           15     0.662      1.455   0.00605832  21.6023        500
 3.50   0.0000   1372.6664   1018.9969 -33.68     9819.102     0.893           15     0.875      1.094  0.006059005  18.0698        501
 3.50   0.0000   1385.7189   1273.8611  25.85     570.6727     1.140           15     0.799      2.021  0.006051468  21.1590        502
 3.50   0.0000   1368.3408    149.8570  66.23     418.9202     0.794           15     0.659      0.978  0.006052153  21.4947        503
 5.13   0.0000   1356.9304   1134.9218  13.70     6762.817     4.010           15     3.045     10.005  0.006050782  18.4747        504
 3.50   0.0000   1362.6154   1111.8184  18.76     195.9406     0.676           15     0.460      0.932   0.00605558  22.3197        505
 3.50   0.0000   1370.9360   1215.6427  85.84     242.4812     0.688           15     0.628      0.943  0.006054895  22.0883        506
 3.50   0.0000   1379.2953    319.1414 -64.58     453.3938     0.788           15     0.668      1.091  0.006051468  21.4088        507
 3.50   0.0000   1366.2847   1159.5454   8.23     386978.9     1.725           15     1.553      2.631  0.006051468  14.0808        508
 3.50   0.0000   1370.6986    706.7529 -49.67     135.3748     0.523           15     0.350      0.830  0.006047352  22.7212        509
 3.50   0.0000   1362.9359    391.0280 -22.28     311.0014     0.764           15     0.713      1.401  0.006056265  21.8181        510
 6.12   0.0000   1362.9835    527.5053  56.59     231.4443     0.763           15     0.325      2.057  0.006054895  22.1389        511
 3.50   0.0000   1366.8281   1134.3715  46.84     2845.045     0.889           15     0.847      1.126   0.00605695  19.4148        512
 3.50   0.0000   1309.2632    297.0207  -1.67     160.9956     0.617           15     0.440      0.941  0.006057635  22.5330        513
 3.50   0.0000   1346.3651    605.1908 -67.85     605.9557     0.913           15     0.767      1.231  0.006056265  21.0939        514
 3.50   0.0000   1347.0365    194.6494 -86.12     280.4092     0.694           15     0.632      1.074   0.00605695  21.9305        515
 4.20   0.0000   1352.3684    152.0142  79.46     726.4633     1.604           15     0.716      3.000   0.00605695  20.8970        516
 3.50   0.0000   1353.0184    475.5170  89.15     223.8645     0.728           15     0.500      0.991  0.006056265  22.1750        517
 3.61   0.0000   1352.5078    967.5209 -45.22     177.9666     0.523           15     0.475      1.024  0.006052153  22.4242        518
 3.50   0.0000   1338.9546   1480.0238  84.50     229.4301     0.591           15     0.581      1.019  0.006057635  22.1484        519
 3.50   0.0000   1327.0020    494.9901   0.34     147.8808     0.580           15     0.578      0.549  0.006053524  22.6252        520
 3.50   0.0000   1330.4777    386.9766  89.79      777.572     0.867           15     0.718      0.929   0.00605558  20.8231        521
 3.50   0.0000   1332.9437    107.4621  -1.68     1260.899     0.866           15     0.716      0.923   0.00605421  20.2983        522
 3.50   0.0000   1330.0608    655.8768   0.20     3511.438     0.812           15     0.778      0.890  0.006052839  19.1863        523
 3.50   0.0000   1330.6968   1139.7206 -70.50     1059.492     1.068           15     0.821      1.543  0.006050096  20.4873        524
 3.50   0.0000   1320.1740    660.0808  -0.62     27268.41     0.998           15     0.969      1.365   0.00605558  16.9608        525
 4.07   0.0000   1325.3950    633.6495   8.92     296.8176     1.011           15     0.469      1.849  0.006059689  21.8688        526
 4.25   0.0001   1315.3226   1134.3151 -45.39     112.8632     0.565           15     0.340      1.064  0.006050782  22.9186        527
 3.50   0.0000   1299.1671     54.0433 -87.34     612.3961     0.773           15     0.711      0.937   0.00605832  21.0824        528
 3.50   0.0000   1319.3265    264.0484 -87.98     1111.413     0.850           15     0.717      0.885  0.006052153  20.4353        529
 3.50   0.0000   1307.6615   1036.3239 -30.89     2388.859     1.668           15     0.856      2.275  0.006052839  19.6045        530
 3.50   0.0000   1304.9506    892.9589 -54.53     1014.493     0.715           15     0.714      0.617   0.00605695  20.5344        531
 3.50   0.0000   1307.5846    669.7106 -78.11      3150.74     0.864           15     0.843      1.002  0.006056265  19.3040        532
 3.50   0.0000   1293.5880    742.3658 -55.38     1488.956     0.868           15     0.851      1.012  0.006057635  20.1178        533
 3.50   0.0000   1291.5795    761.9441 -48.13     7136.438     0.874           15     0.863      1.039   0.00605695  18.4163        534
 4.40   0.0000   1302.3148    939.2697 -48.15      164.754     0.540           15     0.348      1.104  0.006051468  22.5079        535
 4.17   0.0000   1303.4885     42.5113  44.74     155.7511     0.500           15     0.500      1.134   0.00604941  22.5689        536
 3.50   0.0000   1292.9957    412.8804  -0.90     1407.773     0.762           15     0.707      0.699  0.006056265  20.1787        537
 3.50   0.0000   1272.6946    610.0607 -56.82     11011.13     3.851           15     1.388      5.453  0.006052839  17.9454        538
 3.50   0.0000   1283.1102   1569.1025 -43.71     278.5797     0.741           15     0.638      0.748  0.006048725  21.9376        539
 3.50   0.0000   1278.1102   1331.4089  -2.46     4871.438     0.862           15     0.809      0.947   0.00605421  18.8309        540
 3.50   0.0000   1262.1873    855.1470 -57.89      711.499     0.779           15     0.749      0.963   0.00605832  20.9196        541
 3.50   0.0000   1274.0239    698.1062 -50.08     462.7917     0.739           15     0.719      1.155  0.006053524  21.3865        542
 3.50   0.0000   1238.1003    857.4230 -44.11     492.4078     0.965           15     0.693      1.532  0.006051468  21.3192        543
 3.70   0.0000   1253.5558   1108.4050 -67.79     185.0709     0.498           15     0.490      1.023  0.006057635  22.3817        544
 3.50   0.0000   1259.5906    432.5603  22.01     1857.714     1.505           15     1.289      2.745   0.00605695  19.8776        545
 3.50   0.0000   1221.4332    995.3491 -27.40     743657.2     4.456           15     3.981      5.322  0.006057635  13.3716        546
 3.50   0.0000   1237.1001   1553.5743  -3.05     2021.926     0.857           15     0.767      0.924  0.006051468  19.7856        547
 3.50   0.0000   1182.9635    673.8813   3.31     423.3773     0.719           15     0.713      0.816  0.006054895  21.4832        548
 3.50   0.0000   1243.9324    613.8645 -44.89     280.7347     0.737           15     0.637      0.693  0.006050782  21.9293        549
 3.50   0.0000   1242.6184    672.8909 -84.78     1138.643     0.854           15     0.750      0.913  0.006054895  20.4090        550
 3.50   0.0000   1210.9890   1279.0691  82.61     9830.114     5.530           15     2.751      9.107   0.00605832  18.0686        551
 3.95   0.0000   1231.6655    181.2738  48.70     151.6928     0.551           15     0.344      1.021  0.006050782  22.5976        552
 3.50   0.0000   1229.7628    599.2430 -36.13     882.5971     0.889           15     0.809      1.422   0.00605832  20.6856        553
 4.64   0.0000   1228.4692    914.5784 -52.58     160.7886     0.506           15     0.486      1.351  0.006057635  22.5344        554
 6.34   0.0000   1227.3052   1199.3127 -44.56     179.0904     0.556           15     0.344      1.833  0.006048725  22.4173        555
 3.50   0.0000   1203.3994   1075.6669  34.28     1554.617     1.063           15     0.805      1.386   0.00605832  20.0709        556
 4.95   0.0000   1212.5896   1429.4227   2.74     1720.703     1.563           15     1.293      4.042   0.00605558  19.9607        557
 3.50   0.0000   1214.7391    513.0858 -13.24     16928.67     0.929           15     0.905      1.222  0.006052153  17.4784        558
 3.50   0.0000   1210.3369   1415.8226  64.48     365.0251     0.813           15     0.667      1.245  0.006057635  21.6442        559
 3.50   0.0000   1210.9817    829.2726  86.10     248.2964     0.686           15     0.659      1.198  0.006059005  22.0626        560
 5.11   0.0000   1065.3240   1563.2046 -54.59     1099.542     1.392           15     0.899      3.641  0.006057635  20.4470        561
 3.50   0.0000   1207.7089    838.9487 -86.20     2098.351     0.839           15     0.741      0.870  0.006053524  19.7453        562
 7.07   0.0000   1189.3331    963.3232 -45.46     405.5751     0.573           15     0.336      2.276  0.006050096  21.5298        563
 3.50   0.0000   1204.0961   1217.4910   2.03     286.5032     0.723           15     0.669      0.962   0.00604941  21.9072        564
 3.68   0.0000   1197.5616   1200.5199 -30.09     152.8847     0.501           15     0.494      1.018  0.006053524  22.5891        565
 3.50   0.0000   1181.0049    549.4685  -0.01     817.8995     0.866           15     0.714      0.886  0.006059005  20.7682        566
 3.50   0.0000   1185.1667    313.8749  42.48      322.407     0.734           15     0.652      0.964   0.00605421  21.7790        567
 3.50   0.0000   1181.9813    176.2653   0.19     664.8818     0.793           15     0.697      0.846   0.00605695  20.9931        568
 6.76   0.0000   1177.4858     18.5089 -44.90     268.6289     0.518           15     0.482      2.370  0.006050096  21.9771        569
 3.50   0.0000   1175.9812    253.7232 -88.33      170.188     0.615           15     0.447      1.004   0.00605832  22.4727        570
 3.50   0.0000   1172.7035    758.2310 -68.11     6409.402     3.081           15     2.570      6.146  0.006050782  18.5330        571
 3.50   0.0000   1173.1234    208.4921  89.58      234.606     0.720           15     0.500      0.986  0.006051468  22.1242        572
 3.50   0.0000   1172.7734    233.0123  -8.44     243.6589     0.673           15     0.645      0.795   0.00605558  22.0830        573
 3.50   0.0000   1161.8237    887.9128 -85.48     721.3087     0.781           15     0.709      1.018  0.006054895  20.9047        574
 3.50   0.0000   1158.0204    236.4894 -11.01     6413.486     0.871           15     0.817      0.972  0.006054895  18.5323        575
 6.04   0.0000   1158.0449    700.5287 -44.64     1631.227     1.585           15     0.912      5.896  0.006053524  20.0187        576
 3.50   0.0000   1153.5779   1353.1797  85.20     1092.031     0.878           15     0.844      1.271   0.00605695  20.4544        577
 3.50   0.0000   1138.6849    148.1734 -26.83     28956.79     1.007           15     0.983      1.371  0.006054895  16.8956        578
 3.95   0.0000   1116.9108   1170.3369 -75.86     258.5751     0.704           15     0.653      1.647  0.006052839  22.0185        579
 3.50   0.0000   1128.0170    837.9933   1.00     203.1409     0.588           15     0.583      1.015  0.006053524  22.2805        580
 3.50   0.0000   1126.3713    166.5026 -13.83     153.2717     0.501           15     0.482      0.963  0.006051468  22.5863        581
 3.50   0.0000   1104.5811    751.8900 -16.90     12246.95     0.918           15     0.897      1.131  0.006054895  17.8299        582
 4.78   0.0000   1101.3403    113.6931  46.61     159.1187     0.569           15     0.338      1.329  0.006051468  22.5457        583
 3.50   0.0000   1095.0302    778.2557 -10.10     26804.82     1.009           15     0.976      1.398  0.006057635  16.9795        584
 3.50   0.0000   1095.4926   1526.7136 -69.99     1074.155     0.852           15     0.818      0.998  0.006050096  20.4723        585
 3.50   0.0000   1086.3464   1452.8789  68.90     391.3192     0.892           15     0.652      1.542  0.006052153  21.5687        586
 3.50   0.0000   1079.2306    330.0713 -85.92      640.636     0.787           15     0.705      0.969   0.00605558  21.0335        587
 3.50   0.0000   1080.0435     53.0245 -82.31     170.0252     0.586           15     0.579      0.770   0.00605832  22.4737        588
 3.52   0.0000   1053.1530    400.7721 -50.78     235.5125     0.725           15     0.552      1.401   0.00605832  22.1200        589
 5.53   0.0000   1022.6707   1270.3081  46.09     280.0751     0.564           15     0.340      1.612  0.006052153  21.9318        590
 4.00   0.0000   1052.6091    237.8041  19.83     203.4329     0.714           15     0.450      1.384  0.006053524  22.2789        591
 3.50   0.0000   1060.0074    727.0026  13.01     928.0829     0.965           15     0.706      1.338  0.006052839  20.6310        592
 3.65   0.0000   1053.4882   1385.4362 -53.52     138.5634     0.505           15     0.491      1.016  0.006053524  22.6959        593
 3.50   0.0000   1047.5841   1158.4358  -9.48     157.3052     0.496           15     0.493      1.001   0.00605695  22.5581        594
 3.50   0.0000   1038.7920    525.4020 -28.29     9297.134     0.882           15     0.863      1.061  0.006052839  18.1291        595
 3.50   0.0000   1043.4156    809.5249 -13.55      185.374     0.500           15     0.492      0.982  0.006059005  22.3799        596
 3.50   0.0000   1040.3528    633.1797   2.53     35323.24     1.025           15     1.002      1.410   0.00605695  16.6798        597
 3.61   0.0000   1042.5542   1095.8090  22.42     201.6216     0.724           15     0.447      1.267  0.006057635  22.2887        598
 3.50   0.0000   1019.7134   1154.9897   1.67     212.9575     0.673           15     0.641      0.783   0.00605558  22.2293        599
 3.86   0.0000   1033.5032    493.4841 -46.70      136.663     0.502           15     0.498      1.043  0.006048038  22.7109        600
 3.73   0.0001   1029.5059   1035.4728 -81.75     123.1792     0.500           15     0.499      1.026  0.006052153  22.8237        601
 3.50   0.0000   1011.4099    344.7763 -74.68     2740.498     0.865           15     0.821      0.997   0.00605558  19.4554        602
 4.50   0.0000   1025.5608    128.5190  30.92     192.7417     0.501           15     0.494      1.237  0.006053524  22.3376        603
 3.50   0.0000   1017.3643    201.1322  15.67     287.9464     0.708           15     0.622      1.250  0.006056265  21.9017        604
