#   1 NUMBER                 Running object number                                     
#   2 EXT_NUMBER             FITS extension number                                     
#   3 FLUX_BEST              Best of FLUX_AUTO and FLUX_ISOCOR                          [count]
#   4 FLUXERR_BEST           RMS error for BEST flux                                    [count]
#   5 MAG_BEST               Best of MAG_AUTO and MAG_ISOCOR                            [mag]
#   6 MAGERR_BEST            RMS error for MAG_BEST                                     [mag]
#   7 KRON_RADIUS            Kron apertures in units of A or B                         
#   8 X_IMAGE                Object position along x                                    [pixel]
#   9 Y_IMAGE                Object position along y                                    [pixel]
#  10 A_IMAGE                Profile RMS along major axis                               [pixel]
#  11 B_IMAGE                Profile RMS along minor axis                               [pixel]
#  12 THETA_IMAGE            Position angle (CCW/x)                                     [deg]
         1   1       958712     171.5191 -14.9542   0.0002  3.50   1107.5574    183.5872     5.235     4.880 -24.92
         2   1      43933.5     202.1742 -11.6070   0.0050  4.07     63.6141     54.7853     5.365     4.865  10.86
         3   1     5972.606     116.9392  -9.4404   0.0213  4.05    984.9714     18.2255     4.233     2.082 -89.63
         4   1     3777.646     71.40068  -8.9431   0.0205  4.10     91.2174     19.4714     1.811     1.786 -50.22
         5   1     9909.256     68.39749  -9.9901   0.0075  3.50   1445.6405     16.2575     2.069     1.951  10.92
         6   1     313.1227     51.37114  -6.2393   0.1782  5.88    145.2244      5.8206     1.171     0.700  -0.38
         7   1     46280.12     80.29659 -11.6635   0.0019  3.50   1078.3888     61.4053     2.432     2.332  59.86
         8   1     134.1003     39.48931  -5.3186   0.3198  7.12   1183.2153     11.4046     0.760     0.448  19.10
         9   1     415.5513     54.76182  -6.5466   0.1431  5.38    384.3959     19.2027     1.234     0.891  18.99
        10   1     1061.489     83.05042  -7.5648   0.0850  6.15    366.8643     26.2155     1.520     1.276  22.58
        11   1     511.7942     74.28255  -6.7727   0.1576  8.12    382.6800     25.4832     1.089     0.824  34.63
        12   1     510.9773     69.91521  -6.7710   0.1486  6.45   1110.6578     36.5190     1.297     0.966 -49.38
        13   1     657.9388       86.239  -7.0455   0.1423  6.19    326.7798     34.8941     1.759     1.173  -6.17
        14   1     44838.84     80.29659 -11.6291   0.0019  3.50    537.4344     81.5319     2.423     2.339 -10.68
        15   1     241.9064     51.37114  -5.9591   0.2306  6.57   1170.5585     40.7102     1.270     0.507  40.85
        16   1      198.442     40.97999  -5.7441   0.2243  5.84   1521.2733     40.0144     0.741     0.661  85.98
        17   1      312.933     54.21144  -6.2386   0.1881  5.96    915.1636     44.3193     1.037     0.830 -57.46
        18   1     265.6788      37.9401  -6.0609   0.1551  8.83    440.3448     45.6943     0.570     0.337  43.15
        19   1     1613.629     61.46999  -8.0195   0.0414  3.86    128.1458     76.6940     1.719     1.565 -36.54
        20   1     1514.785     118.5944  -7.9509   0.0850  6.41    376.7003     91.3006     2.278     1.590  59.94
        21   1     468.6173     71.19037  -6.6770   0.1650  5.67    421.1942     84.3876     1.543     1.097 -71.73
        22   1     66623.95     82.68854 -12.0591   0.0013  3.50    788.9817    123.3941     2.490     2.407   1.93
        23   1     2446.264      72.2358  -8.4713   0.0321  4.29     56.0174     98.1544     1.876     1.626  -2.93
        24   1     739.7351      80.6692  -7.1727   0.1184  6.17    452.8300     99.8754     1.469     1.252  11.31
        25   1     252.5361     45.81702  -6.0058   0.1970  5.78    495.7601     92.9686     0.890     0.757  -1.84
        26   1     256.7535     46.46695  -6.0238   0.1965  8.06   1075.7946     97.6176     0.767     0.445  18.16
        27   1     276.5106     54.48732  -6.1043   0.2140  7.50    990.2148    118.7651     0.770     0.712  56.09
        28   1     286860.5     92.28626 -13.6442   0.0003  3.50    317.9610    195.1572     2.782     2.657 -41.25
        29   1     37439.93     76.86188 -11.4333   0.0022  3.50   1468.2515    163.8908     2.301     2.243 -11.43
        30   1     203.4232     46.14313  -5.7710   0.2463  8.09    418.1811    132.3931     0.751     0.447  19.00
        31   1     8442.417     73.67449  -9.8162   0.0095  3.64    877.2230    171.7732     2.117     2.046 -67.73
        32   1     47245.53     241.3251 -11.6859   0.0055  4.14    403.5941    236.5317     6.506     5.518 -41.84
        33   1     153.3187     36.73534  -5.4640   0.2602  6.41    353.9936    148.9917     0.620     0.600 -89.87
        34   1      130.506     27.92316  -5.2891   0.2324  5.04   1280.5729    152.7571     0.724     0.458  70.56
        35   1     653.0602     49.28564  -7.0374   0.0820  3.57    104.0227    167.9652     1.477     1.352 -78.60
        36   1     1053.485     88.13081  -7.5566   0.0909  6.30   1445.8739    166.7165     1.482     1.386  25.89
        37   1     1425.562     82.86967  -7.8850   0.0631  5.49    325.4615    173.1771     1.587     1.503  16.30
        38   1     115.5385     30.97796  -5.1568   0.2912  6.55    634.5322    161.5322     0.509     0.489  45.00
        39   1      371.952     58.98029  -6.4262   0.1722  6.45   1368.4978    170.4766     0.962     0.894   1.76
        40   1     143.8945     35.90973  -5.3951   0.2710  6.49    651.2307    170.4273     0.769     0.448  19.56
        41   1     621.1864     86.93169  -6.9831   0.1520  7.88    575.0485    181.2506     1.588     0.819  33.93
        42   1     1106.571     72.85587  -7.6099   0.0715  5.32   1350.5676    194.2067     1.471     1.371 -61.81
        43   1     469.0336     60.48641  -6.6780   0.1401  6.62   1354.9641    188.1914     1.032     0.844  38.79
        44   1     5065.552     138.2126  -9.2616   0.0296  4.60    827.3505    212.4507     4.311     2.212 -12.74
        45   1     1983.844     76.66655  -8.2438   0.0420  4.85    548.9967    208.1533     1.728     1.561 -56.60
        46   1      123.072     29.49014  -5.2254   0.2602  5.72    268.7589    196.9942     0.669     0.428 -89.70
        47   1     921.8735     73.06138  -7.4117   0.0861  4.64    349.6559    210.1383     1.790     1.474  53.37
        48   1     1648.584     54.21144  -8.0428   0.0357  3.50   1306.0121    213.7668     1.673     1.542  -5.52
        49   1     5090.757     180.3818  -9.2670   0.0385  5.57    561.9375    231.9906     3.530     3.154 -29.90
        50   1      85405.7      85.1894 -12.3287   0.0011  3.50     67.5887    267.4318     2.519     2.455   4.04
        51   1     283.1819     58.98029  -6.1302   0.2262  6.26    250.8450    205.3241     1.499     0.627  36.23
        52   1     667.1906     76.27439  -7.0606   0.1242  5.22    684.2392    212.3623     1.589     1.414 -21.56
        53   1     121913.6     84.30475 -12.7151   0.0008  3.50    997.3770    261.3211     2.487     2.473  -5.15
        54   1     1858.562     55.57718  -8.1729   0.0325  3.62   1226.0276    225.6275     1.638     1.513  56.38
        55   1     2158.247     126.7828  -8.3353   0.0638  8.63   1122.9299    224.0614     1.885     1.218  71.23
        56   1     743.6832     81.59328  -7.1785   0.1192  5.20    345.2687    223.4958     1.862     1.400  38.99
        57   1     769.0786     64.56323  -7.2149   0.0912  4.84    774.7049    224.2253     1.485     1.274 -64.77
        58   1     1622.848     106.1871  -8.0257   0.0711  5.40    112.9577    245.7517     2.269     1.821 -84.19
        59   1     4263.531     114.9998  -9.0744   0.0293  4.76    612.8062    256.8083     2.763     2.241 -31.38
        60   1      868.422     98.87504  -7.3468   0.1236  6.68    838.1740    240.4640     1.587     1.461   3.11
        61   1     792.9875     83.41072  -7.2482   0.1142  6.57   1372.6572    253.3820     1.676     1.007 -77.44
        62   1     351672.1     91.14183 -13.8653   0.0003  3.50    439.4230    313.6555     2.726     2.645 -29.46
        63   1     392.1851     49.99508  -6.4837   0.1384  7.15    107.6562    251.7136     1.286     0.961 -47.45
        64   1     225.1644      47.1079  -5.8812   0.2272  7.46   1352.0001    254.2400     0.825     0.505  52.98
        65   1     19942.21     74.08041 -10.7494   0.0040  3.50   1486.3666    289.1064     2.197     2.143  -0.24
        66   1     4374.009     67.06926  -9.1022   0.0167  3.69   1522.2140    283.4656     1.863     1.834  34.16
        67   1     201.4993     39.86721  -5.7607   0.2149  8.03    123.0000    266.9816     0.858     0.289  90.00
        68   1     440.8799     68.39749  -6.6108   0.1685  6.59   1273.7917    272.2896     1.215     0.927   3.52
        69   1     14721.33     74.08041 -10.4199   0.0055  3.50    201.6470    304.5827     2.214     2.163   7.61
        70   1     311890.5     91.14183 -13.7350   0.0003  3.50    890.7000    352.8533     2.708     2.638 -41.09
        71   1     58273.14     79.73441 -11.9137   0.0015  3.50    905.3373    320.2001     2.371     2.336  17.94
        72   1     1549.548      60.7338  -7.9755   0.0426  3.50    515.0054    291.1290     1.867     1.704  -4.76
        73   1       300522      90.8122 -13.6947   0.0003  3.50   1345.7853    352.8833     2.672     2.630 -27.88
        74   1     1856.805     61.71344  -8.1719   0.0361  3.89   1327.5559    295.5385     1.682     1.633  16.46
        75   1     884.5861     52.15097  -7.3669   0.0640  5.59   1475.5228    294.7319     1.490     1.410 -32.70
        76   1     1332.194     112.0947  -7.8114   0.0914  5.89   1413.5488    298.9774     2.281     1.700 -31.73
        77   1     9862.407     70.97943  -9.9850   0.0078  3.50    697.2145    323.5643     2.098     2.084  48.90
        78   1     722.2278     61.22557  -7.1467   0.0921  4.10    563.4363    303.5893     1.634     1.445 -14.17
        79   1     192.0378     35.90973  -5.7085   0.2031  8.31    247.3226    294.2922     0.554     0.344 -43.23
        80   1     1009.769     94.53356  -7.5106   0.1017  5.61    641.3190    322.5241     1.952     1.535  77.61
        81   1     438.6527       60.238  -6.6053   0.1491  8.04     85.7015    310.1534     1.131     0.517 -35.38
        82   1     2004.017     91.47028  -8.2548   0.0496  5.15    595.4161    328.8730     1.940     1.713 -35.23
        83   1     6943.085     87.44762  -9.6039   0.0137  4.20    867.0420    347.9107     2.264     2.015  25.16
        84   1     417.1154     62.43808  -6.5506   0.1626  6.23   1545.8273    331.3643     1.283     0.835  52.86
        85   1     188.5988      37.9401  -5.6888   0.2185  5.89    955.5109    326.3526     0.926     0.478   0.07
        86   1     460.5061     57.17302  -6.6581   0.1348  6.09     93.5791    333.6950     0.971     0.940  55.69
        87   1     342.5399      51.6622  -6.3368   0.1638  5.78   1439.6562    336.5270     1.042     0.821 -34.70
        88   1     4909.606     71.81945  -9.2276   0.0159  3.69    431.7284    357.2689     2.062     1.955 -73.63
        89   1     866.0796     68.39749  -7.3439   0.0858  5.25     54.6837    351.3244     1.405     1.282  61.37
        90   1     10045.83     74.08041 -10.0050   0.0080  3.71    760.9843    369.6347     2.101     2.028  22.47
        91   1     49399.87     80.48311 -11.7343   0.0018  3.50    231.3483    396.6438     2.424     2.344 -28.26
        92   1     2010.221     82.86967  -8.2581   0.0448  4.89   1500.1429    362.7214     1.894     1.593   0.84
        93   1     3601.829     61.46999  -8.8913   0.0185  3.54    442.7167    368.9449     1.817     1.730  23.76
        94   1     534.0375     70.76787  -6.8189   0.1439  6.61   1033.3591    362.1609     1.241     0.996 -58.97
        95   1     207.0688     44.82448  -5.7903   0.2351  5.00    533.3430    361.2872     1.219     0.716  -8.77
        96   1       343.99     57.17302  -6.3414   0.1805  7.19   1415.9182    364.6555     0.961     0.690 -70.00
        97   1     709.9421     66.69587  -7.1281   0.1020  6.32    753.3804    376.5251     2.021     1.175  45.42
        98   1     472.9077     70.12935  -6.6869   0.1610  5.75   1083.9891    375.3518     1.453     1.092 -64.08
        99   1      474.899     54.21144  -6.6915   0.1240  5.86      1.5932    381.5696     2.024     0.637 -89.37
       100   1     681.7281     71.40068  -7.0840   0.1137  6.06    992.6714    374.2666     1.283     1.155  16.70
       101   1     359.3328     59.98857  -6.3887   0.1813  6.92     72.0737    371.3849     1.328     0.618  -4.98
       102   1     200.2417     43.80946  -5.7539   0.2376  7.71    209.7980    370.4338     0.757     0.448 -20.40
       103   1     7723.608     67.29245  -9.7196   0.0095  3.50    354.4694    399.6199     2.028     1.927  17.69
       104   1     6868.291     65.48561  -9.5921   0.0104  3.50   1461.0906    398.5513     1.985     1.894  -9.16
       105   1     286.6378     53.93414  -6.1433   0.2043  5.48     67.2584    384.9274     1.574     0.663  84.64
       106   1     118.3723     30.49009  -5.1831   0.2797  5.96     87.0265    376.7703     0.694     0.420   1.14
       107   1     44973.86       78.407 -11.6324   0.0019  3.50    433.2188    421.0826     2.332     2.293   2.48
       108   1     386.0757     57.69516  -6.4667   0.1623  6.76    125.8206    382.1244     0.976     0.759 -25.56
       109   1     1598.557     62.19747  -8.0093   0.0423  4.03   1088.6277    395.3357     1.645     1.542  16.80
       110   1     21582.24     74.28255 -10.8352   0.0037  3.50    837.3096    417.0440     2.185     2.170  10.22
       111   1     738.2087     86.58604  -7.1704   0.1274  7.52    626.6414    397.2802     1.368     1.024 -84.28
       112   1     106.8601     26.26285  -5.0720   0.2669  5.78   1196.0000    390.9907     0.849     0.289  90.00
       113   1     1096.827     76.66655  -7.6003   0.0759  6.11      1.9529    413.6238     2.734     0.909  88.05
       114   1     252.7413     45.48858  -6.0067   0.1955  4.90    977.6585    397.7170     1.233     0.712 -45.77
       115   1     594.9984     81.95998  -6.9363   0.1496  7.33    526.4940    405.2974     1.299     1.026  83.57
       116   1     140815.2     85.89056 -12.8716   0.0007  3.50    807.5491    462.6601     2.554     2.475 -14.20
       117   1      3657.54     60.98018  -8.9080   0.0181  3.50    926.3489    425.5665     1.842     1.791  46.72
       118   1     15991.42     74.08041 -10.5097   0.0050  3.50    252.0300    439.4121     2.198     2.152   6.63
       119   1     324.4181     58.98029  -6.2778   0.1974  6.39    281.9646    408.1781     1.164     0.805  29.19
       120   1     122.4888     31.93135  -5.2202   0.2831  5.62    943.7681    403.4152     0.745     0.452 -19.28
       121   1     986.0686     88.97742  -7.4848   0.0980  5.73    159.3221    422.2335     1.823     1.388  51.63
       122   1     300.9084     62.67777  -6.1961   0.2262  7.68    299.5127    426.9838     1.409     0.499  88.57
       123   1     278.5599      50.4879  -6.1123   0.1968  7.33   1204.3013    419.4578     1.015     0.481  -8.30
       124   1      579.218     80.29659  -6.9071   0.1506  7.02   1179.8237    428.1476     1.268     1.091  43.93
       125   1     1331.782      72.2358  -7.8111   0.0589  5.03   1421.9890    434.3694     1.563     1.401 -10.91
       126   1     343.5237     47.74025  -6.3399   0.1509  8.46    133.4180    424.2213     0.751     0.455  71.45
       127   1     157.1055     36.32488  -5.4905   0.2511  5.94   1580.9537    421.4902     0.778     0.499   2.69
       128   1     224.1688     35.48972  -5.8764   0.1719  8.25    136.3273    421.6680     0.574     0.335  45.21
       129   1     145.8846     36.32488  -5.4100   0.2704  7.28   1063.4724    425.5192     0.503     0.496  46.62
       130   1     465.1128       60.238  -6.6689   0.1407  8.39    718.8471    431.2661     1.078     0.508  67.24
       131   1      8169.15     195.2318  -9.7804   0.0260  4.91    850.2258    469.1449     7.532     2.223  21.77
       132   1     5443.372       78.407  -9.3397   0.0156  4.03     21.3153    451.8586     2.088     1.943  -0.20
       133   1     665.4058     69.05202  -7.0577   0.1127  5.98    151.0912    435.1284     1.240     1.134  52.00
       134   1     624.3286     66.62063  -6.9885   0.1159  5.34    305.5745    441.5390     1.441     1.138 -51.09
       135   1     959.5898     75.08562  -7.4552   0.0850  5.43    122.1028    446.8850     1.505     1.355  85.16
       136   1     80.51379     27.38091  -4.7647   0.3693  6.19    353.6779    435.6658     0.573     0.336 -45.55
       137   1     5676.193     73.47069  -9.3851   0.0141  3.93     34.4913    459.3049     1.983     1.870 -43.25
       138   1      836.313     85.01321  -7.3059   0.1104  5.27    883.4819    448.5699     2.147     1.280   7.79
       139   1     285.4187     55.84632  -6.1387   0.2125  8.31    654.3727    445.0175     1.075     0.452 -25.27
       140   1      1738.22     58.98029  -8.1003   0.0368  3.72    468.4330    465.1295     1.736     1.538  46.31
       141   1     306.4323     45.15775  -6.2158   0.1600  5.43   1533.5862    454.5111     0.992     0.775   2.58
       142   1     590.0736     45.15775  -6.9273   0.0831  3.81   1096.4277    462.4622     1.423     1.022  13.23
       143   1     87.64478     27.92316  -4.8568   0.3460  6.24   1224.3202    454.6659     0.572     0.336  45.64
       144   1     2202.629     68.39749  -8.3574   0.0337  4.18    734.7418    473.5637     1.675     1.672 -32.10
       145   1     347.7919     60.48641  -6.3533   0.1889  7.76    723.9955    463.4885     1.225     0.497 -62.96
       146   1     1512.896     63.62748  -7.9495   0.0457  4.23    254.3179    473.0175     1.614     1.461   2.68
       147   1      2788.92     57.95446  -8.6136   0.0226  3.50    922.8689    479.3951     1.738     1.689  50.12
       148   1     1169.572     64.79506  -7.6701   0.0602  4.25   1276.8654    479.2148     1.668     1.470  88.29
       149   1     164.7476     41.70536  -5.5420   0.2749  6.15   1198.3262    468.1648     0.748     0.647 -25.50
       150   1     106.7286     35.48972  -5.0707   0.3611  8.21    561.6643    466.6413     0.589     0.326 -45.84
       151   1      21464.1     177.0256 -10.8293   0.0090  4.30    518.4934    534.3708     4.541     3.949  33.99
       152   1     760.6414       86.239  -7.2030   0.1231  5.41    839.4063    489.4281     2.624     1.021 -82.78
       153   1     2581.284     122.0832  -8.5296   0.0514  5.00     82.7204    497.6219     2.586     2.443 -14.39
       154   1     2282.215     109.9336  -8.3959   0.0523  4.50   1186.5588    497.1445     2.872     2.197 -19.25
       155   1     254.2489     45.15775  -6.0131   0.1929  5.27   1167.6362    477.6234     1.409     0.553 -32.52
       156   1      1189.07     49.58894  -7.6880   0.0453  3.50   1070.7618    485.5692     1.528     1.376 -13.26
       157   1      161.072     23.87012  -5.5176   0.1609  3.50    682.8082    480.6513     0.846     0.613 -28.81
       158   1     139.0078     30.49009  -5.3576   0.2382  5.97   1309.2524    483.2269     0.842     0.349  17.63
       159   1     11765.21      72.2358 -10.1765   0.0067  3.50   1302.1998    513.8845     2.242     2.029 -12.26
       160   1      139.139     33.75745  -5.3586   0.2635  7.02    424.4973    490.9982     0.783     0.319  57.39
       161   1     1204.784     84.83665  -7.7023   0.0765  4.94    762.6536    505.6879     1.866     1.696  29.68
       162   1     341.2747     59.23397  -6.3328   0.1885  6.04    366.5008    499.2488     1.260     0.822  48.61
       163   1      621.335     45.81702  -6.9833   0.0801  3.64    863.6854    503.5775     1.342     1.232  22.73
       164   1       3239.7     104.3353  -8.7763   0.0350  4.16   1461.1040    516.8404     3.621     1.835  25.63
       165   1     355.3739     57.17302  -6.3767   0.1747  6.26   1310.3589    502.6222     1.014     0.855 -36.68
       166   1     1110.457     44.10003  -7.6138   0.0431  4.41   1309.9906    514.6971     1.613     1.381 -41.48
       167   1     1059.184     104.7655  -7.5624   0.1074  6.42    164.7969    511.4173     2.143     1.304  15.76
       168   1     127.5178     23.87012  -5.2639   0.2033  3.50    442.7247    504.0079     0.742     0.697 -86.64
       169   1     714.0349     49.89039  -7.1343   0.0759  3.90   1179.1432    515.1553     1.351     1.290 -11.56
       170   1     498.2063     46.14313  -6.7435   0.1006  3.71    642.2778    520.8369     1.390     1.164   1.63
       171   1     322831.6     89.64896 -13.7724   0.0003  3.50   1315.8739    589.2560     2.686     2.599 -42.29
       172   1      278.843     61.22557  -6.1134   0.2385  7.82    854.1041    522.2987     0.956     0.691 -68.90
       173   1     249.4711     47.42513  -5.9926   0.2065  6.17   1519.3197    519.8758     0.920     0.674  20.54
       174   1     1546.519     51.95163  -7.9734   0.0365  3.50    999.6561    541.7063     1.600     1.510 -28.15
       175   1     578978.6     95.95046 -14.4067   0.0002  3.50    483.1350    632.6228     2.864     2.775 -18.25
       176   1     411.1909     65.94196  -6.5351   0.1742  5.93    404.2007    537.3940     1.629     0.795  25.92
       177   1     2269.088     59.23397  -8.3896   0.0283  3.50   1041.6516    560.4192     1.867     1.613  18.47
       178   1     6958.343     65.71419  -9.6063   0.0103  3.50   1242.7412    574.0022     1.968     1.904  14.96
       179   1     1599.134     95.79406  -8.0097   0.0651  6.18   1336.7483    576.2877     1.689     1.511  46.16
       180   1     1728.082     93.41666  -8.0939   0.0587  4.94     45.8521    572.7739     2.131     1.762  54.85
       181   1     1568.605     71.81945  -7.9888   0.0497  3.50   1448.4083    573.2253     2.428     1.835  31.01
       182   1      9515.69     70.76787  -9.9461   0.0081  3.56    319.1037    583.7048     2.099     2.037  10.35
       183   1     9466.977     68.83454  -9.9405   0.0079  3.50    144.8951    582.1736     2.082     1.967  -0.68
       184   1     159.3483     35.90973  -5.5059   0.2447  6.40    778.6027    557.7811     0.764     0.454  72.66
       185   1     6217.524     133.4661  -9.4840   0.0233  4.05    782.6208    598.1442     3.563     3.261 -52.42
       186   1     473.4249     64.09707  -6.6881   0.1470  5.76    139.6721    566.2109     1.261     1.043 -56.27
       187   1     137.9365     38.33327  -5.3492   0.3018  6.84    633.2249    568.5835     0.738     0.455 -19.07
       188   1     444.7493     70.76787  -6.6203   0.1728  6.26   1001.7804    578.0511     1.682     0.817 -28.13
       189   1     728.5261     65.71419  -7.1561   0.0980  5.30     75.9674    586.1544     1.328     1.229  -8.76
       190   1     1099.525     54.48732  -7.6030   0.0538  3.64   1555.2332   1002.5687     1.624     1.448  79.83
       191   1     759.5734     56.91015  -7.2014   0.0814  4.41    654.3972   1598.1855     1.887     1.210  -0.88
       192   1     409.5382     45.15775  -6.5307   0.1197  3.70    373.5580   1595.8204     1.480     1.018  36.47
       193   1     487.0419     69.91521  -6.7189   0.1559  6.34   1384.2332   1594.4935     1.436     0.913 -29.70
       194   1     1206.267     73.26632  -7.7036   0.0660  4.85   1108.5289   1586.2167     1.711     1.419  10.82
       195   1     2291.167     78.21552  -8.4001   0.0371  4.54     21.5654   1567.9301     1.823     1.751   3.80
       196   1     1663.702     95.16589  -8.0527   0.0621  5.33    784.3434   1567.0110     2.030     1.671 -85.86
       197   1     194.0388     37.14127  -5.7197   0.2079  6.81    670.7685    880.5679     0.733     0.453  20.32
       198   1     246.7156     50.78402  -5.9805   0.2235  8.16    542.0080    878.4954     0.795     0.500   1.12
       199   1     2458.094     70.76787  -8.4765   0.0313  3.65   1103.3278    870.8375     2.023     1.970 -75.84
       200   1     301597.8     93.09509 -13.6986   0.0003  3.50   1224.3727    860.6606     2.793     2.688 -17.04
       201   1     941.2758     66.62063  -7.4343   0.0769  4.19    939.8438    868.9675     1.862     1.435  48.58
       202   1     168.2544      37.9401  -5.5649   0.2449  6.08    643.2283    870.7625     0.935     0.438 -45.21
       203   1     135.1947     34.19875  -5.3274   0.2747  7.88    454.3017    868.9412     0.908     0.211  62.52
       204   1     696.7664     46.46695  -7.1077   0.0724  3.50   1157.1390    861.1002     1.498     1.226  18.12
       205   1     124.1997     23.23347  -5.2353   0.2032  3.50   1554.1732    861.9904     0.917     0.472 -54.13
       206   1     462.9568     48.36433  -6.6639   0.1135  4.21   1339.3500    859.9587     1.495     0.944 -33.28
       207   1     151.8159     39.48931  -5.4533   0.2825  8.51    545.0228    857.5150     0.802     0.312  31.94
       208   1     185.6426     35.48972  -5.6717   0.2076  8.32    363.3300    850.6461     0.585     0.329  45.93
       209   1     1031.825     54.48732  -7.5340   0.0573  3.50   1106.0951    844.6611     1.754     1.489  26.38
       210   1     503.2131     42.41832  -6.7544   0.0915  3.50   1063.7417    845.9619     1.310     1.128 -67.33
       211   1     826.2869     83.05042  -7.2928   0.1092  6.17   1206.1925    845.9415     1.560     1.216 -72.76
       212   1     2221.787     107.8683  -8.3668   0.0527  5.60   1247.2026    839.2313     2.111     1.866 -63.16
       213   1     1411.141     67.95763  -7.8739   0.0523  4.46    298.8445    837.9797     1.631     1.534  12.84
       214   1     218.7405      47.1079  -5.8498   0.2339  6.13   1520.5084    838.5260     1.021     0.596  45.37
       215   1     277.7821     44.82448  -6.1093   0.1752  5.37    818.9592    836.8230     0.944     0.770  62.38
       216   1     6419.298     71.81945  -9.5187   0.0122  3.62    654.3231    824.2859     2.096     1.990  45.13
       217   1     94.81213     28.97723  -4.9422   0.3319  6.99    779.6790    820.6904     0.561     0.341 -44.39
       218   1     291.5768     53.93414  -6.1619   0.2009  7.22    878.2869    817.8287     1.042     0.570 -18.00
       219   1     5601.639     65.94196  -9.3708   0.0128  3.50   1378.5775    804.4241     1.936     1.899  24.13
       220   1     83.66846     18.97005  -4.8064   0.2462  4.95    127.3259    809.3414     0.578     0.333 -45.66
       221   1      17144.1     83.05042 -10.5853   0.0053  3.50    695.5576    799.8766     2.757     2.170  85.99
       222   1     2731.998     63.86271  -8.5912   0.0254  3.60     41.0133    802.0168     1.832     1.772  17.44
       223   1     286.5681     45.81702  -6.1431   0.1736  7.46    295.4833    796.0336     0.794     0.500 -88.72
       224   1     2587.901     89.31383  -8.5324   0.0375  3.80   1427.3660    775.2002     2.890     2.022 -86.99
       225   1      1469.95     65.48561  -7.9183   0.0484  4.00    391.5318    768.1792     1.844     1.529 -34.33
       226   1     418.1025     66.84532  -6.5532   0.1736  6.30    140.4928    768.8489     1.337     0.879 -79.70
       227   1     417.1259     79.54613  -6.5507   0.2071  7.78    193.6100    755.8051     1.706     0.651  86.14
       228   1     179.3276     39.10776  -5.6341   0.2368  7.70   1342.5267    756.4966     0.504     0.495  47.35
       229   1     1426.334     61.22557  -7.8856   0.0466  3.99    556.2839    744.2444     1.633     1.515 -43.37
       230   1     397400.2      96.2625 -13.9981   0.0003  3.50    404.7108    725.5315     2.928     2.738 -22.93
       231   1       612.42     68.17792  -6.9676   0.1209  5.16    649.6646    737.5416     1.432     1.311  80.81
       232   1     67034.79       82.507 -12.0658   0.0013  3.50    848.3533    727.9818     2.439     2.389  27.94
       233   1     955.6558      50.4879  -7.4508   0.0574  3.65   1178.1921    728.8093     1.450     1.412  49.56
       234   1     409.1117     54.48732  -6.5296   0.1446  5.35   1394.9901    722.8375     1.262     0.880  -0.28
       235   1     525.2012     45.15775  -6.8008   0.0934  3.83   1157.9702    739.4140     1.298     1.182  25.31
       236   1     1408.787     64.33057  -7.8721   0.0496  4.09    808.4064    717.2899     1.690     1.558  57.08
       237   1     1179.048     54.21144  -7.6788   0.0499  3.80   1163.6552    710.4381     1.559     1.418  10.15
       238   1     1524.028     71.61037  -7.9575   0.0510  3.97   1339.0944    705.6192     1.922     1.778 -43.80
       239   1     234.7003     42.41832  -5.9263   0.1963  8.85    538.5060    708.5008     0.503     0.497 -45.17
       240   1     2327.619     58.21261  -8.4173   0.0272  3.50    952.3771    704.2918     1.750     1.664  34.75
       241   1     619.0907     74.88567  -6.9794   0.1314  5.60    582.5702    700.6096     1.760     1.081  -7.99
       242   1     657.4789     54.79951  -7.0447   0.0905  4.76   1213.7378    692.9648     1.653     1.310  49.08
       243   1     389.1022     41.06075  -6.4752   0.1146  6.03   1213.9957    688.5043     1.280     0.955  32.90
       244   1     309.4396     55.03495  -6.2264   0.1931  6.69    316.1916    693.2252     1.068     0.678  16.66
       245   1     2789.073     149.4707  -8.6136   0.0582  5.31    472.2632    684.2127     3.176     2.643  80.65
       246   1     1924.902     62.19747  -8.2110   0.0351  3.75    644.1543    686.8886     1.784     1.627  11.80
       247   1     216.5951      37.9401  -5.8391   0.1902  4.71    130.9188    688.8412     0.907     0.746  89.98
       248   1      2510.97       122.94  -8.4996   0.0532  5.91    543.5035    682.6291     2.379     1.928 -61.11
       249   1     219.5502     43.46585  -5.8538   0.2150  8.25    401.0182    686.7358     0.683     0.441   1.01
       250   1     161.2816     35.48972  -5.5190   0.2390  7.16    230.4650    674.4924     0.501     0.498 -55.30
       251   1     560.0256     52.52569  -6.8705   0.1019  4.38    870.9708    656.2733     1.445     1.068 -80.68
       252   1      66193.5     79.54613 -12.0520   0.0013  3.50   1464.2933    649.7220     2.368     2.331   7.81
       253   1     322.9546     62.67777  -6.2729   0.2108  7.04    414.5703   1534.2606     1.290     0.650  -1.92
       254   1     10198.33     70.34283 -10.0213   0.0075  3.50    536.7910    641.2206     2.093     2.008  32.48
       255   1     651.0768     65.94196  -7.0341   0.1100  4.86    806.0596    631.8602     1.448     1.352  -7.26
       256   1     935.3182     59.48656  -7.4274   0.0691  4.44   1581.7684    624.8701     1.486     1.293  -0.44
       257   1     292.7446     59.73809  -6.1662   0.2216  7.60   1151.4739    619.8640     1.117     0.574  26.32
       258   1     333.6268     59.98857  -6.3082   0.1953  7.73    653.2193    647.1571     0.953     0.671 -18.86
       259   1      87.9635     42.77035  -4.8608   0.5280  7.52    946.1575    610.6086     0.761     0.445 -18.98
       260   1     1095.266     55.57718  -7.5988   0.0551  3.92    586.3604    606.9233     1.600     1.321  31.61
       261   1     406.1151     40.61245  -6.5216   0.1086  3.57    960.9187    878.8604     1.204     1.126 -38.72
       262   1     312.2701     56.91015  -6.2363   0.1979  6.26   1100.3423   1521.1362     1.360     0.634 -33.34
       263   1     109.6508     33.75745  -5.1000   0.3343  5.28    882.5083    593.5085     0.982     0.405  70.91
       264   1     1042.336     71.40068  -7.5450   0.0744  5.07    861.0878   1562.5160     1.564     1.347 -75.69
       265   1     58251.29     83.05042 -11.9133   0.0015  3.50    303.8436   1564.8943     2.493     2.394  -8.00
       266   1     24466.93     159.7507 -10.9714   0.0071  3.74    681.9242   1553.8458     4.766     4.085 -32.53
       267   1     2447.047     75.08562  -8.4716   0.0333  4.39    654.2137   1543.8602     1.806     1.722  83.24
       268   1     1725.205     70.34283  -8.0921   0.0443  4.26     92.3905   1571.7207     1.728     1.660  85.35
       269   1     129.6941     29.49014  -5.2823   0.2469  7.15   1565.6927   1564.3650     0.579     0.331  47.41
       270   1     3221.113     65.71419  -8.7700   0.0222  3.70    134.8626   1543.1177     1.861     1.807  13.62
       271   1     1001.081      72.2358  -7.5012   0.0784  4.36    863.0593   1546.9213     2.299     1.275  41.04
       272   1     353.5377     55.84632  -6.3711   0.1715  7.63   1491.3174   1576.4641     1.251     0.465  89.38
       273   1     58023.87     85.01321 -11.9090   0.0016  3.50    487.3318   1559.3071     2.552     2.462  -7.88
       274   1     558.6122     73.87773  -6.8678   0.1436  6.13   1221.4904   1552.6815     1.347     1.128 -81.14
       275   1     31257.42     81.95998 -11.2374   0.0028  3.50    269.0288   1508.4398     2.425     2.347   0.55
       276   1     841795.8     111.8268 -14.8130   0.0001  3.50    183.6469    883.3881     3.359     3.240 -25.60
       277   1     363.2157     64.33057  -6.4004   0.1923  7.54   1429.6595   1536.9376     1.278     0.620 -25.77
       278   1     146.1189     31.45827  -5.4118   0.2338  5.50    733.4183   1529.7546     0.745     0.453 -70.72
       279   1     7577.052     69.05202  -9.6988   0.0099  3.50    392.2966   1516.1572     2.134     1.955   2.53
       280   1     176.0615     36.32488  -5.6142   0.2241  7.47     12.4902   1524.0001     0.803     0.311 -58.10
       281   1     235.6794     45.48858  -5.9308   0.2096  7.85   1096.0143   1505.0273     0.627     0.612 -88.73
       282   1     633.1705     76.47072  -7.0038   0.1312  6.76   1546.2744   1516.7573     1.269     1.081 -58.46
       283   1     268.1178     55.30673  -6.0708   0.2240  5.89     77.9050   1489.2261     1.275     0.721 -85.23
       284   1     547.3777     45.15775  -6.8457   0.0896  3.50   1304.3940    887.0648     1.546     1.153  70.40
       285   1     330.9041     45.81702  -6.2993   0.1504  4.57    483.5974   1515.6066     1.128     0.919 -43.91
       286   1     495.2471     73.06138  -6.7371   0.1602  7.17    339.9195    886.6301     1.415     0.775   1.88
       287   1      209.033      37.9401  -5.8005   0.1971  5.59    844.0128   1499.6895     0.731     0.666   4.94
       288   1     753.7596     46.78852  -7.1931   0.0674  3.71   1499.8872    887.1884     1.355     1.271 -10.50
       289   1     1154.567     86.93169  -7.6560   0.0818  4.79   1177.0895    879.9671     1.925     1.781   1.79
       290   1     790.6703     55.03495  -7.2450   0.0756  4.04    723.2294   1505.4595     1.566     1.307 -27.09
       291   1     7608.266     182.1191  -9.7032   0.0260  4.75    224.2591    880.3963     7.221     2.163  87.86
       292   1      113.288     26.26285  -5.1355   0.2518  5.63    987.0000    898.9808     0.857     0.289  90.00
       293   1     162.7815     34.63441  -5.5290   0.2311  7.90    680.6741    890.3393     0.577     0.334  45.58
       294   1     1534.056     93.25602  -7.9646   0.0660  5.28    538.4159    897.4249     1.894     1.749  29.97
       295   1     1148.426     106.6099  -7.6503   0.1008  6.65    326.2474    890.1077     2.090     1.302  22.80
       296   1     479.7758     86.06496  -6.7026   0.1948  8.32    575.0490   1482.7103     1.286     0.867 -58.96
       297   1     88.12183      26.8277  -4.8627   0.3306  5.26   1494.5192   1491.4724     0.508     0.491 -44.31
       298   1     465.8293     59.23397  -6.6706   0.1381  5.33   1001.2723    913.9099     1.204     1.096 -17.81
       299   1     430.4769     67.95763  -6.5849   0.1714  6.46   1315.1787    905.8102     1.273     0.918 -73.04
       300   1     113229.9     84.83665 -12.6349   0.0008  3.50   1592.4185    881.6274     2.524     2.456  78.51
       301   1     404.5316     56.91015  -6.5174   0.1528  5.33   1425.6116    895.1293     1.332     0.901  22.24
       302   1     135.7279     42.77035  -5.3317   0.3422  7.51   1495.2007   1438.3938     0.765     0.441  19.65
       303   1     1339.344     56.11417  -7.8172   0.0455  3.50    806.9644    923.3138     1.705     1.570  65.58
       304   1     819.2102     63.39139  -7.2835   0.0840  4.61    838.4760    913.9817     1.454     1.365  19.87
       305   1     2351.558     59.73809  -8.4284   0.0276  3.50    308.0300   1409.5125     1.859     1.658  26.47
       306   1     369.5161     53.65541  -6.4191   0.1577  7.47    999.4857   1476.4878     1.041     0.500   0.19
       307   1     1636.823     65.48561  -8.0350   0.0434  4.14   1067.0037    940.5593     1.745     1.480  57.79
       308   1     6180.388     70.76787  -9.4775   0.0124  3.59    302.5987    901.8616     2.056     1.988 -34.10
       309   1     311.1503     52.23945  -6.2324   0.1823  7.53    253.0119    917.6951     0.750     0.681  -8.38
       310   1     14738.34     73.26632 -10.4211   0.0054  3.50   1178.3051    931.0344     2.201     2.101  38.39
       311   1     99.72363     28.45508  -4.9970   0.3099  6.94    647.3334   1439.7006     0.562     0.341  43.21
       312   1     101.6326     23.23347  -5.0176   0.2483  5.30   1346.6786   1438.3149     0.564     0.340  44.67
       313   1     658.5822     86.93169  -7.0465   0.1434  6.70    516.0169    940.1115     1.572     1.142  52.85
       314   1     985.3142     53.93414  -7.4839   0.0594  3.80   1322.3403    929.8040     1.572     1.385  46.83
       315   1     142189.9     88.97742 -12.8822   0.0007  3.50   1090.3253   1435.6713     2.677     2.602 -24.44
       316   1     2510.631     69.70042  -8.4995   0.0301  4.09    618.8486   1441.0920     1.823     1.680 -20.90
       317   1     203.0327     47.74025  -5.7689   0.2554  7.87    266.9670    950.5084     0.797     0.500   0.46
       318   1     584.1449     51.07843  -6.9163   0.0950  3.50    349.3116   1411.7726     1.880     1.195  62.13
       319   1     442.5435     64.33057  -6.6149   0.1579  5.90   1270.9764   1439.8511     1.330     0.943 -20.06
       320   1     934.8666     68.61636  -7.4269   0.0797  4.59    798.0069    982.2236     1.607     1.483   3.67
       321   1     631.7919     82.68854  -7.0014   0.1421  7.31    444.5894    948.8851     1.335     1.036  49.04
       322   1     3256.432     65.48561  -8.7819   0.0218  3.73    224.4045   1436.6449     1.856     1.774  25.06
       323   1     110.5939     29.99428  -5.1093   0.2945  7.35     60.3068    952.6716     0.563     0.340  46.12
       324   1     966.5122       78.407  -7.4630   0.0881  5.01    726.7319   1061.0553     1.869     1.399  -5.53
       325   1     408.8137     55.57718  -6.5288   0.1476  5.60    329.5723   1407.5088     1.107     0.930  42.39
       326   1     261.7931     49.58894  -6.0449   0.2057  7.67    569.1638   1067.8495     0.772     0.568 -43.07
       327   1     17740.99     78.02358 -10.6224   0.0048  3.50   1126.1257   1420.6368     2.318     2.281 -34.36
       328   1     263.4307     45.81702  -6.0517   0.1889  7.31    340.5226   1434.0306     0.823     0.499  88.05
       329   1     347.4172     48.36433  -6.3521   0.1512  6.26      1.4686   1413.4269     1.831     0.497  88.51
       330   1     335.3708     42.80481  -6.3138   0.1386  6.16    452.2737    979.4700     1.245     0.901  72.96
       331   1     448.2505     69.26883  -6.6288   0.1678  6.08    806.3391   1390.4139     1.517     0.893  14.97
       332   1     363.1195     52.23945  -6.4001   0.1562  5.00    416.5706    966.7556     1.190     0.957 -75.97
       333   1     764.7084     76.27439  -7.2087   0.1083  6.89    654.4576    951.8934     1.280     1.030 -83.76
       334   1     1674.063     74.48413  -8.0594   0.0483  4.66   1386.4370   1416.6246     1.742     1.548 -19.31
       335   1     2512.009     68.61636  -8.5001   0.0297  3.94    713.0142   1391.7336     1.876     1.718 -18.73
       336   1     141.6827     42.77035  -5.3783   0.3278  6.43   1362.1821   1404.9912     0.940     0.467 -52.53
       337   1     79254.66     86.58604 -12.2476   0.0012  3.50    114.2351   1394.7192     2.610     2.492  -2.33
       338   1      542.967     83.05042  -6.8369   0.1661  6.60    152.1203   1353.0374     1.536     1.084 -59.00
       339   1     9074.854     68.39749  -9.8946   0.0082  3.50   1148.0122   1083.0811     2.076     1.992   4.60
       340   1     1750.476     87.96051  -8.1079   0.0546  4.51   1218.8108   1073.2249     2.075     1.941 -45.91
       341   1     322.7958     35.06467  -6.2723   0.1180  3.50      6.7693   1064.1989     1.065     0.952  17.79
       342   1     1360.893     61.22557  -7.8346   0.0489  3.90   1038.5681   1393.6564     1.736     1.508  30.23
       343   1     801290.2     122.4511 -14.7595   0.0002  3.50   1159.4253   1367.8368     4.243     3.060  14.94
       344   1     829.4344     78.97862  -7.2970   0.1034  5.47   1031.5410   1401.7460     1.633     1.347 -12.84
       345   1      7152.16     68.17792  -9.6361   0.0104  3.50   1428.3429   1390.1338     2.015     1.981  24.43
       346   1     518.9877     55.57718  -6.7879   0.1163  4.62      6.8716   1074.2052     1.362     1.112 -18.31
       347   1      289.163     52.23945  -6.1529   0.1962  7.54    396.6888   1089.9775     0.741     0.678  78.15
       348   1     232.8752     37.54281  -5.9178   0.1751  5.07   1596.9507   1067.0283     0.796     0.782 -16.17
       349   1     850.1108     93.73714  -7.3237   0.1197  5.70    468.3736   1091.7946     2.025     1.407 -46.23
       350   1     277.4525     37.54281  -6.1080   0.1469  4.11    386.3806   1331.4196     1.014     0.857  44.83
       351   1     216.6182     35.48972  -5.8392   0.1779  8.30    429.3361   1094.3149     0.570     0.337 -44.00
       352   1     329.8597     58.72551  -6.2958   0.1933  7.47   1273.8695   1386.6847     0.947     0.678 -70.91
       353   1     32552.47     81.77683 -11.2815   0.0027  3.50    512.0276   1081.2974     2.425     2.366   3.34
       354   1     2160.356     137.4511  -8.3363   0.0691  6.88    478.9657   1112.3186     2.244     1.894  26.14
       355   1      8470.39     73.06138  -9.8198   0.0094  3.55   1018.7087   1373.8938     2.214     2.032  -5.56
       356   1     342.1992     57.69516  -6.3357   0.1831  6.20   1452.9968   1087.1072     1.198     0.771 -58.43
       357   1     13551.63     125.8331 -10.3300   0.0101  3.64    609.6885   1274.1567     4.494     2.827 -59.67
       358   1     782.6826     57.69516  -7.2340   0.0801  4.53    892.7053   1306.1177     1.545     1.114  10.67
       359   1     728.8007     84.48242  -7.1565   0.1259  6.51    674.4939   1115.3567     1.509     1.177  11.95
       360   1      907.136     90.31551  -7.3942   0.1081  6.19    678.2977   1106.8710     1.730     1.319 -51.68
       361   1     6723.064     71.81945  -9.5689   0.0116  3.61    427.8470   1108.7615     2.142     1.984 -15.39
       362   1     754.7522     49.89039  -7.1945   0.0718  3.50    107.1236   1333.7377     1.515     1.391 -13.21
       363   1      10374.2     73.26632 -10.0399   0.0077  3.50    751.7592   1105.7592     2.197     2.087  12.39
       364   1      4030.73     66.16896  -9.0135   0.0178  3.56   1331.1583   1279.3622     1.973     1.870  75.39
       365   1     279.0087     56.11417  -6.1140   0.2184  5.99    604.6953   1347.4882     1.121     0.830 -37.75
       366   1     30279.56      91.9502 -11.2029   0.0033  3.50    659.7673   1321.3125     2.415     2.358  26.44
       367   1     3334.161     61.59643  -8.8075   0.0201  3.78    655.5963   1331.2336     2.026     1.840  21.58
       368   1     1319.245     103.9033  -7.8008   0.0855  6.80   1139.4945   1332.0455     1.839     1.328 -84.41
       369   1     478.3755     42.06335  -6.6994   0.0955  3.50    263.9218   1320.5798     1.356     1.157  87.87
       370   1     257.1555     47.42513  -6.0255   0.2003  8.41     53.7503   1300.4139     0.759     0.449 -19.42
       371   1     400.4801     58.21261  -6.5065   0.1579  7.46    607.3632   1134.8855     0.926     0.679  18.15
       372   1     2863.839     64.55465  -8.6424   0.0245  4.31    669.5031   1308.7135     2.212     1.704 -40.71
       373   1     425.1663     56.11417  -6.5714   0.1433  6.42     47.7611   1239.1719     0.957     0.857 -21.29
       374   1     2525.897     84.48242  -8.5060   0.0363  4.01   1035.8164   1308.8643     2.483     1.886 -37.66
       375   1      9305.72     73.67449  -9.9219   0.0086  3.50   1194.6746   1220.2122     2.221     2.136  79.30
       376   1     187732.9     95.63741 -13.1839   0.0006  3.50    724.7348   1299.5779     3.006     2.626 -13.72
       377   1     6735.518     76.47072  -9.5709   0.0123  3.55    762.0449   1292.6382     2.462     2.015 -19.58
       378   1     820.2604     57.95446  -7.2849   0.0767  4.29    412.4755   1293.8401     1.530     1.267  -9.04
       379   1     762.5054     72.64977  -7.2056   0.1035  5.70    547.3597   1130.1278     1.403     1.218 -12.51
       380   1     470.4983     69.05202  -6.6814   0.1594  7.10    855.2509   1263.6656     1.106     0.924  59.97
       381   1     176.5496     39.48931  -5.6172   0.2429  7.20    545.4184   1292.7781     0.753     0.449 -70.33
       382   1     274.1952     53.37522  -6.0951   0.2114  7.25    357.5125   1132.3717     1.445     0.399 -36.20
       383   1     1214.178     71.81945  -7.7107   0.0642  4.07    432.3235   1260.6809     2.006     1.652  39.19
       384   1     3211.483     68.17792  -8.7668   0.0231  3.81    807.7172   1266.6024     1.921     1.787  21.31
       385   1      403.837       60.238  -6.5155   0.1620  5.84   1153.2823   1229.8680     1.141     0.989  39.15
       386   1      1215508     186.9136 -15.2119   0.0002  3.50    994.9560   1222.6515     5.721     5.297 -18.85
       387   1      257.564     52.81039  -6.0272   0.2227  7.16    697.8719   1275.1455     0.820     0.682  44.55
       388   1     129.7639     35.48972  -5.2829   0.2970  6.30    857.8015   1239.4313     0.723     0.459 -19.51
       389   1     770.0258     48.98046  -7.2163   0.0691  3.68    672.2609   1243.6359     1.512     1.251  45.24
       390   1     214.4017     39.48931  -5.8281   0.2000  8.04    216.5174   1262.5000     0.507     0.493  45.65
       391   1     30730.51     80.48311 -11.2189   0.0028  3.50    147.8721   1139.7532     2.420     2.293   8.49
       392   1     1651.521     93.09509  -8.0447   0.0612  4.85    124.0824   1196.0813     2.138     1.819 -57.97
       393   1       2617.9     66.39518  -8.5449   0.0275  3.92    304.5524   1235.6237     1.862     1.665  17.18
       394   1     1598.675     68.17792  -8.0094   0.0463  4.41   1553.3666   1238.3259     1.624     1.543 -27.74
       395   1     889.2198     87.78988  -7.3725   0.1072  6.26    599.4329   1231.2922     1.531     1.376   2.44
       396   1     1036.697      81.4093  -7.5391   0.0853  4.85   1441.9395   1201.8480     1.812     1.625  52.88
       397   1     1637.089     111.9608  -8.0352   0.0743  5.50   1429.0648   1213.8219     2.314     1.913  62.25
       398   1     196.8823     39.86721  -5.7355   0.2199  7.87    914.0066   1229.0000     0.858     0.289   0.00
       399   1     14212.12     73.87773 -10.3816   0.0056  3.50    512.8164   1215.8934     2.202     2.129  15.78
       400   1     727494.2     101.1242 -14.6546   0.0002  3.50    693.7171   1152.9501     3.016     2.910 -19.54
       401   1     7299.127       127.96  -9.6582   0.0190  3.63    757.7162   1174.0677     3.644     3.620 -45.34
       402   1     1411.314     61.71344  -7.8741   0.0475  3.50   1075.6238   1204.6260     1.933     1.730  31.30
       403   1     16188.64     75.48396 -10.5230   0.0051  3.50    813.5752   1011.1388     2.236     2.154  15.29
       404   1     126.9358     30.97796  -5.2590   0.2650  6.73   1216.5016   1205.4939     0.501     0.499 -44.35
       405   1        538.9      51.6622  -6.8288   0.1041  4.29    549.4454   1182.1754     1.339     1.138  52.54
       406   1     389.6145     69.26883  -6.4766   0.1931  6.34   1053.3743   1197.8005     1.564     0.815  43.07
       407   1      181.972     42.06335  -5.6500   0.2510  5.56    176.4455   1183.4515     1.019     0.596  43.21
       408   1     14600.42     155.6623 -10.4109   0.0116  3.50   1278.7762   1211.9427     5.910     3.549  81.36
       409   1     1719.667     71.19037  -8.0886   0.0450  4.66    838.6198   1209.0648     1.629     1.531 -85.48
       410   1      265.355      50.4879  -6.0596   0.2066  6.98    673.8151   1184.0507     0.843     0.646  49.31
       411   1     255.7736     51.95163  -6.0196   0.2206  7.66    769.3144   1146.9288     0.740     0.661 -78.58
       412   1     148.7113     30.97796  -5.4309   0.2262  7.59   1599.5153   1168.4935     0.514     0.486  45.20
       413   1      16159.1     76.86188 -10.5210   0.0052  3.50    183.3221   1131.2684     2.263     2.227 -33.12
       414   1     49539.02     81.95998 -11.7374   0.0018  3.50   1299.5200   1166.4520     2.443     2.420 -18.22
       415   1     110.8656     30.97796  -5.1120   0.3034  6.11     18.4826   1177.4873     0.507     0.492 -45.27
       416   1     1527.404      75.8802  -7.9599   0.0540  4.60     99.1998   1152.6638     1.736     1.672   1.48
       417   1     417.2638     60.98018  -6.5510   0.1587  5.70    887.9297   1162.4755     1.214     0.999  -3.09
       418   1     577.3931     66.39518  -6.9037   0.1249  5.47    219.2832   1131.3656     1.407     1.133   5.72
       419   1     5516.793     70.34283  -9.3542   0.0138  3.66    236.1456   1159.0969     2.114     1.861  28.13
       420   1      1403.72     53.65541  -7.8682   0.0415  3.50    338.7113   1203.1788     1.595     1.555 -30.19
       421   1     197.4061     46.46695  -5.7384   0.2556  7.47    566.4995   1159.0020     0.808     0.499 -87.40
       422   1     867.4067     72.85587  -7.3456   0.0912  4.83   1352.9104   1154.7657     1.614     1.496 -16.12
       423   1     83.17358     18.97005  -4.8000   0.2477  4.86    921.3041   1080.3595     0.575     0.333 -47.44
       424   1     676.3783     82.32507  -7.0755   0.1322  7.50    662.0576   1142.4078     1.224     1.053  77.12
       425   1     2520.534     104.0475  -8.5037   0.0448  4.51    329.5204   1121.3683     2.915     1.938  59.09
       426   1     835.3528     64.56323  -7.3047   0.0839  4.88   1526.4592   1096.9320     1.378     1.340  39.67
       427   1      2986.98     65.25624  -8.6881   0.0237  3.72    642.2306   1090.5541     1.830     1.775  36.55
       428   1     29397.47     78.97862 -11.1708   0.0029  3.50    777.9907   1096.1063     2.352     2.299  20.55
       429   1     326.8036     48.36433  -6.2857   0.1607  4.75    329.8643   1080.5232     1.275     0.874 -14.82
       430   1     210.5013     30.49009  -5.8081   0.1573  3.84   1136.1642   1096.0427     0.929     0.750  -2.80
       431   1     8268.345     72.44308  -9.7935   0.0095  3.63    525.2812   1039.9791     2.100     2.006  39.19
       432   1     411.8148     59.73809  -6.5368   0.1575  5.11     42.7669   1084.7773     1.515     0.952  -2.67
       433   1     1049.579     93.09509  -7.5525   0.0963  6.06   1563.1591   1066.8558     1.791     1.399  75.22
       434   1     186.9443      37.9401  -5.6793   0.2204  8.91   1268.9786   1022.3207     0.914     0.210  27.92
       435   1     200.9967     42.06335  -5.7580   0.2273  6.71    452.9904   1015.7997     0.813     0.506 -57.19
       436   1     42043.43     81.04009 -11.5592   0.0021  3.50    632.9153   1041.5137     2.383     2.353  15.00
       437   1     505.6356     71.40068  -6.7596   0.1534  7.54    121.8496   1039.7445     1.327     0.716  -7.06
       438   1     470772.2     95.32333 -14.1820   0.0002  3.50     50.2350   1025.0127     2.858     2.765 -13.87
       439   1     150.6949     35.06467  -5.4452   0.2527  7.17    467.0000   1041.9910     0.854     0.289  90.00
       440   1     1837.943     96.10661  -8.1608   0.0568  4.45    302.4050   1031.5867     2.790     1.770  70.40
       441   1     18859.12      75.8802 -10.6888   0.0044  3.50   1379.8351   1027.0432     2.265     2.218  39.68
       442   1     2369.167     70.55567  -8.4365   0.0323  4.11    344.5635   1012.5897     1.809     1.763  27.07
       443   1     28971.38       78.598 -11.1549   0.0029  3.50    558.3832    986.2089     2.341     2.296  37.48
       444   1     1775.034     112.3619  -8.1230   0.0687  6.13    454.2320    987.8520     1.987     1.789  47.58
       445   1     110.0336     30.97796  -5.1038   0.3057  6.80    266.9891   1011.5045     0.807     0.310 -31.78
       446   1      2708.26     70.55567  -8.5817   0.0283  3.95    542.3765   1002.9374     1.957     1.741  41.74
       447   1     227.5775     56.91015  -5.8928   0.2716  7.06    232.9362    999.1951     1.047     0.668 -30.84
       448   1     695.2339     52.52569  -7.1053   0.0820  4.14   1273.6106   1001.1895     1.429     1.189  -3.59
