#   1 KRON_RADIUS            Kron apertures in units of A or B                         
#   2 Y_IMAGE                Object position along y                                    [pixel]
#   3 MAG_BEST               Best of MAG_AUTO and MAG_ISOCOR                            [mag]
#   4 FLUX_BEST              Best of FLUX_AUTO and FLUX_ISOCOR                          [count]
#   5 X_IMAGE                Object position along x                                    [pixel]
#   6 THETA_IMAGE            Position angle (CCW/x)                                     [deg]
#   7 A_IMAGE                Profile RMS along major axis                               [pixel]
#   8 B_IMAGE                Profile RMS along minor axis                               [pixel]
#   9 MAGERR_BEST            RMS error for MAG_BEST                                     [mag]
#  10 NUMBER                 Running object number                                     
#  11 FLUXERR_BEST           RMS error for BEST flux                                    [count]
 3.87     54.0659  16.4715     42793.77     63.4899  10.31     5.081     4.648   0.0049          1     193.5732
 3.50     17.6085  18.6625     5688.312    984.8859 -88.11     4.180     1.842   0.0192          2     100.5567
 3.50     18.7843  19.1551     3613.886     91.0677 -71.47     1.673     1.595   0.0177          3     59.01929
 3.50     15.4372  18.0953     9590.932   1445.5699 -58.56     1.765     1.663   0.0071          4     62.36261
 8.71      7.7679  22.9264     112.0583   1469.4524 -68.75     0.745     0.449   0.4977          5     51.35972
 5.07      4.5796  21.6332     368.7478    145.2529  45.23     1.230     0.964   0.1616          6     54.86184
 7.04     10.4945  22.7223     135.2316   1183.4982  44.89     0.503     0.497   0.2723          7     33.90899
 3.50     60.5844  16.4119        45211   1078.2451  78.79     2.095     1.992   0.0018          8     73.32869
 7.80     14.3363  22.5816     153.9453    839.6812  45.80     0.572     0.336   0.2529          9     35.84818
 3.74     25.5083  20.8595     751.9423    367.0248 -44.59     1.386     1.224   0.0713         10     49.34483
 4.02     17.9750  21.8533     301.0895    384.0877  -6.22     1.065     0.750   0.1343         11     37.23637
 7.96     24.5876  21.2529     523.3929    383.1619  87.84     1.000     0.715   0.1433         12     69.05338
 7.77     35.5276  21.4411     440.1074   1110.5074  83.69     1.018     0.640   0.1598         13     64.75692
 6.92     34.3290  21.1030     600.9088    326.4467 -55.25     1.064     0.824   0.1212         14     67.06581
 5.72     38.8936  22.4559     172.8451   1521.2977  57.82     1.154     0.680   0.3268         15     52.01401
 3.50     40.2370  23.6564     57.20557   1226.1660 -45.15     0.973     0.347   0.3824         16     20.14494
 5.89     39.8462  22.0529      250.521   1170.4801  -0.96     0.941     0.732   0.2198         17     50.69699
 5.61     45.8528  21.5174     410.2556    440.1219 -39.18     1.403     1.002   0.1808         18     68.31482
 3.50     43.2798  22.2857      202.166    915.3459 -44.82     1.174     0.700   0.1711         19     31.85195
 3.50     80.9599  16.4502     43642.71    537.4124 -67.89     2.020     1.918   0.0018         20     71.22312
 6.55     51.1657  22.6552      143.849    265.9853  36.65     0.939     0.465   0.3429         21     45.41928
 6.43     51.0299  22.6036     150.8568   1435.2108 -33.32     0.788     0.497   0.2900         22     40.28988
 6.81     49.3377  24.2230     33.94641   1233.6754  45.58     0.575     0.334   0.9667         23     30.21741
 3.50     75.9613  20.1786      1407.82    127.6706  65.45     1.364     1.260   0.0359         24     46.52275
 5.74     82.8388  21.6722     355.7349    421.4473 -51.35     1.212     0.808   0.1793         25     58.73209
 4.96     91.5984  20.4556     1090.798    376.7576 -72.96     1.865     1.539   0.0861         26     86.45129
 3.50    122.5939  16.0190     64925.29    788.9185 -58.39     2.100     1.956   0.0012         27     72.86604
 3.56     97.3459  19.7013     2185.058     56.0111  -6.65     1.519     1.385   0.0266         28     53.61481
 6.17     92.9185  21.9584     273.3053    495.8493  75.14     1.341     0.684   0.2401         29     60.43482
 6.08     98.7694  20.9969     662.5784    452.5779 -24.86     1.703     0.981   0.1331         30     81.20685
 8.03    114.3488  22.4024     181.5624    270.3333 -45.61     0.584     0.329   0.2254         31     37.68773
 7.06    117.8673  22.1870     221.4041     66.8318  46.85     0.748     0.562   0.2317         32     47.24407
 6.06    118.7044  22.5852     153.4314    990.6282 -41.71     0.576     0.332   0.1974         33     27.88941
 8.26    118.5058  22.2516     208.6171    154.4909  45.33     0.502     0.498   0.2183         34     41.93504
 3.50    163.1394  16.6430     36541.68   1468.1359 -60.49     1.999     1.918   0.0021         35     70.02601
 5.15    132.4923  22.2749     204.2002    418.0414   0.53     0.805     0.500   0.1881         36     35.37335
 3.50    171.1355  18.2865     8042.434    877.1223 -68.19     1.765     1.708   0.0084         37     62.36261
 6.86    152.5081  22.4471     174.2369   1279.9960  -1.46     0.803     0.500   0.2712         38     43.51804
 3.58    165.8672  20.9505     691.4919   1445.5352  -0.27     1.320     1.134   0.0707         39     45.04546
 4.17    167.5935  21.0910     607.5846    104.3066 -28.86     1.173     1.010   0.0818         40     45.79006
 5.08    170.4301  21.7074     344.3938   1368.2188 -47.27     1.080     0.717   0.1456         41     46.15786
 5.71    169.4399  22.6642     142.6702    651.5150 -35.83     0.503     0.493   0.2257         42     29.65255
 4.38    181.2359  21.6681     357.0774    574.8821  23.27     1.275     0.773   0.1370         43     45.04546
 4.34    193.3881  20.6843     883.6082   1350.3932 -35.34     1.357     1.131   0.0682         44     55.47484
 8.45    186.9875  21.6462     364.3534   1354.0367 -74.12     0.796     0.783   0.2036         45     68.31482
 3.65    211.5628  18.9267      4459.94    827.4517  -6.95     3.903     1.922   0.0251         46     103.0481
 3.50    207.5028  20.0076     1648.005    548.9205 -81.19     1.547     1.367   0.0338         47     51.35972
 3.50    211.4505  21.3043      499.188    684.4575 -82.33     1.680     1.042   0.1066         48     49.00095
 3.50    212.9739  20.0539     1579.272   1305.9010  53.86     1.403     1.346   0.0332         49     48.30587
 4.26    231.0617  18.9106     4526.536    562.2328  -9.15     3.351     2.841   0.0324         50     135.1364
 3.50    204.4279  25.3930     11.55615   1498.4841 -36.26     0.505     0.489   1.8931         51     20.14494
 8.15    205.6816  22.9483     109.8196    937.0054 -28.40     0.896     0.214   0.3727         52     37.68773
 3.61    224.5214  19.9165     1792.308   1225.8654 -53.91     1.549     1.417   0.0334         53     55.16919
 3.50    260.5747  15.3608     119032.7    997.2193 -61.30     2.158     2.026   0.0007         54     74.47273
 3.50    266.7132  15.7519     83027.45     67.3777 -78.85     2.116     1.998   0.0010         55     73.55892
 3.50    223.2263  21.1144     594.5979    774.7523 -19.32     1.202     1.068   0.0751         56     41.12069
 7.24    219.2476  22.1279     233.7891    740.7269 -18.84     0.845     0.353   0.1891         57     40.70741
 4.29    244.2685  20.1985      1382.34    112.8207  77.16     2.123     1.544   0.0625         58     79.52362
 4.43    256.2211  19.0802     3871.997    612.7919 -37.89     2.500     1.801   0.0271         59     96.78661
 5.85    239.8068  21.0299     642.7726    838.5142 -15.30     1.259     0.961   0.1112         60      65.7931
 4.86    240.0475  23.0955     95.89661   1478.8186 -53.94     0.940     0.464   0.3725         61     32.89655
 6.94    251.4614  21.0210     648.0227    107.4959 -45.23     1.084     0.836   0.1145         62     68.31482
 6.35    252.5684  21.6679      357.151   1372.6412 -34.52     1.181     0.845   0.1323         63     43.51707
 3.50    288.3401  17.3379      19268.5   1486.2775 -54.62     1.867     1.775   0.0037         64      65.7931
 4.01    254.0000  22.8448     120.7993   1352.5071   0.00     1.051     0.289   0.2091         65     23.26137
 3.50    282.7326  19.0049      4149.73   1522.1934 -43.51     1.560     1.487   0.0145         66     55.47484
 6.90    271.2608  21.3269     488.9253   1273.5475 -11.09     1.161     0.926   0.1634         67     73.55892
 3.50    303.9948  17.6708     14179.49    201.5974 -73.98     1.829     1.713   0.0049         68     64.49528
 6.05    294.2973  20.5653     986.0244   1475.4902 -66.12     1.169     0.976   0.0736         69     66.81321
 3.50    302.8704  21.0094     655.0095    563.5295  64.72     1.317     1.259   0.0753         70     45.41928
 3.50    322.8517  18.1181     9392.183    697.1325 -67.45     1.711     1.657   0.0070         71     60.15438
 6.40    309.7060  21.1105     596.7592     85.4069 -81.45     1.983     0.885   0.1601         72     88.00211
 4.29    322.2261  20.7603     823.9301    641.0490 -74.76     2.205     1.229   0.0960         73     72.86604
 4.27    328.1181  19.9620     1718.673    595.2687 -49.81     1.622     1.556   0.0436         74     69.05338
 5.36    317.8036  22.8319     122.2526    226.3809 -71.76     0.752     0.447   0.2782         75     31.31658
 5.35    332.8581  21.4745     426.7582     93.4377  -7.83     1.068     0.836   0.1348         76      52.9803
 4.19    330.3325  22.0361     254.4257   1545.6162  -6.15     0.994     0.631   0.1426         77      33.4066
 3.50    350.8575  20.8600     751.6399     54.4747 -39.25     1.290     1.224   0.0645         78      44.6685
 5.14    348.6108  23.1519     91.03809     42.2829 -59.05     0.983     0.545   0.4705         79     39.44158
 3.50    368.9763  18.1071     9487.672    760.8814 -55.04     1.738     1.635   0.0069         80     59.87262
 3.50    362.0320  20.0383     1602.021   1500.1699  10.20     1.429     1.398   0.0341         81     50.36235
 3.50    396.0084  16.3489     47911.46    231.2756 -59.51     2.003     1.932   0.0016         82     70.02601
 3.50    361.5096  21.7003     346.6356   1033.6727 -46.62     1.047     0.903   0.1078         83     34.40403
 3.55    374.0851  21.6683     357.0242   1083.9071 -43.95     1.458     0.919   0.1288         84     42.33634
 6.13    369.9420  22.1811     222.6105    210.5096  87.58     0.786     0.499   0.1924         85     39.44158
 6.59    371.1455  21.7745     323.7435     71.4292 -16.36     1.204     0.716   0.2128         86     63.43791
 6.30    376.9420  20.7133     860.3275    753.8722  42.08     1.653     0.852   0.0974         87     77.14925
 3.50    397.8753  18.4937     6645.159   1461.0035 -57.52     1.678     1.607   0.0096         88     58.73209
 5.17    376.6144  22.8872     116.1819     86.3840  23.01     1.364     0.457   0.3920         89     41.93504
 3.50    398.9595  18.3671     7466.954    354.4040 -56.85     1.757     1.640   0.0090         90     61.81795
 5.97    380.9103  21.6973     347.5936    125.6369 -22.70     0.902     0.682   0.1520         91     48.65465
 3.50    394.4868  20.0773     1545.493   1088.6790 -16.48     1.485     1.357   0.0361         92     51.35972
 6.62    389.7516  22.3694     187.1799   1195.2408 -86.38     0.902     0.749   0.3271         93     56.38185
 6.59    390.2306  22.4785     169.2827    260.4030  71.18     0.744     0.452   0.2475         94     38.57462
 5.92    397.9349  21.0652     622.1948    626.5078  15.77     1.528     0.795   0.1179         95     67.56818
 7.14    415.6719  20.8515     757.5276      2.5615  28.95     1.141     0.754   0.0795         96     55.47484
 5.89    407.6978  22.1499     229.1067    281.6329 -82.40     1.007     0.467   0.2026         97     42.73387
 7.73    404.5130  21.5788      387.679    526.8869  -2.02     0.784     0.499   0.1401         98     50.02547
 3.50    461.8477  15.2042     137507.7    807.3699 -55.93     2.140     2.040   0.0006         99     75.59946
 7.26    413.7131  22.4958     166.5945   1562.2982 -60.78     1.155     0.451   0.3516        100     53.92928
 3.50    438.7642  17.5819     15390.29    251.9271 -54.88     1.813     1.728   0.0045        101     63.96878
 4.91    421.8596  20.6223     935.5372    158.7295  50.88     1.660     1.444   0.0908        102     78.23744
 0.00    412.6987  99.0000     -16.5282    199.3263  43.64     0.560     0.342  99.0000        103     25.34849
 6.30    419.4074  21.8209     310.2104   1203.2559   2.22     1.263     0.791   0.2276        104     65.01752
 9.11    415.3150  22.4823     168.6863    558.6299  42.87     0.584     0.328   0.2594        105     40.28988
 3.50    433.6354  20.4390     1107.611   1421.9039 -17.73     1.429     1.338   0.0490        106     50.02547
 6.72    427.7105  21.1863     556.5153   1179.3110  20.69     1.301     0.989   0.1527        107     78.23744
 5.64    420.6244  22.6192     148.7053   1579.7715  17.88     0.757     0.446   0.2476        108     33.90899
 6.59    424.9908  22.7396       133.09   1063.9623 -82.15     0.609     0.607   0.3288        109     40.28988
 6.86    431.8513  21.4067     454.2699    717.7710 -64.53     0.930     0.895   0.1554        110     65.01752
 5.00    434.9497  21.1293     586.5033    151.0015  25.47     1.154     0.980   0.1004        111     54.24191
 8.11    427.1310  21.5876      384.541    432.4409  -1.10     2.518     0.334   0.0815        112     28.86912
 7.74    427.6147  22.2824     202.7867    299.6916 -47.83     0.587     0.325   0.1869        113     34.89206
 4.33    468.5287  18.3605     7512.967    850.1567  22.24     7.405     1.888   0.0241        114     166.5261
 3.51    451.1122  18.8101     4965.527     21.1382 -39.37     1.703     1.572   0.0130        115      59.3051
 5.35    446.1109  20.6927     876.8668    122.1262 -32.70     1.653     1.204   0.0972        116     78.45327
 3.50    440.8153  21.1539     573.3552    305.5591 -50.73     1.189     1.082   0.0779        117     41.12069
 7.22    434.6680  23.0924     96.17285    353.3014  46.60     0.562     0.341   0.3597        118     31.85195
 3.50    458.6750  18.7361     5315.536     34.3958 -60.50     1.679     1.537   0.0119        119     58.15343
 5.39    444.1707  22.5608     156.9274    654.5854 -70.40     0.757     0.448   0.2277        120     32.89655
 7.52    444.6976  23.3044     79.11462    173.3044  44.88     0.551     0.345   0.4790        121     34.89206
 3.51    464.5992  19.9759     1696.862    468.4731 -73.90     1.596     1.441   0.0351        122     54.86184
 4.25    453.8175  22.2731     204.5363   1533.1399  37.40     0.789     0.678   0.1691        123     31.85195
 4.77    461.9124  21.0974      604.009   1096.1415  54.26     1.154     1.060   0.0986        124     54.86184
 3.50    472.0581  20.1761     1411.145    254.1115 -72.83     1.524     1.321   0.0393        125     51.02943
 5.24    462.3787  21.6434     365.2992    724.6503 -28.34     1.116     0.728   0.1415        126     47.60064
 7.33    457.6994  23.0617     98.92542   1223.6606 -43.04     0.565     0.339   0.3497        127     31.85195
 3.50    472.9619  19.7919     2010.277    734.7726 -38.59     1.496     1.347   0.0276        128     51.02943
 3.50    478.7603  19.4698     2704.482    922.8173 -35.32     1.542     1.446   0.0217        129     53.92928
 3.92    478.7928  20.4749     1071.607   1276.8333 -53.34     1.380     1.256   0.0537        130      52.9803
 4.35    476.5132  22.2841      202.464   1168.0372 -89.76     0.813     0.676   0.1765        131     32.89655
 3.50    484.9571  20.3777     1172.001   1070.4276 -66.11     1.365     1.226   0.0431        132     46.52275
 4.94    496.9649  19.4968     2637.936     82.5904  56.28     2.338     2.068   0.0462        133     112.1623
 5.47    489.7042  20.8758     740.7871    839.5638  81.89     1.979     0.873   0.1095        134     74.69944
 4.63    481.6934  22.5554     157.7031   1309.1306  71.28     0.894     0.694   0.2656        135     38.57462
 3.61    479.8593  22.5658     156.1986    682.6146  17.68     1.030     0.720   0.2177        136     31.31658
 3.88    496.4434  19.7556     2078.594   1186.7407 -14.15     2.923     1.792   0.0476        137     91.02452
 4.18    531.9177  17.9040     11439.04    519.0345  19.57     4.599     2.664   0.0123        138     129.1257
 5.97    481.6788  22.5057     165.0844   1520.4889  -0.10     0.921     0.467   0.2650        139     40.28988
 3.55    505.2574  20.5038     1043.453    763.0582  35.35     1.785     1.613   0.0652        140     62.63316
 3.50    516.2610  19.3159     3116.199   1461.0070  24.27     4.360     1.650   0.0337        141     96.78661
 3.50    502.7141  21.1376     582.0223    863.5473  86.71     1.246     1.113   0.0805        142     43.12774
 3.50    498.6335  22.0463     252.0544    366.2104 -49.90     1.014     0.951   0.1524        143     35.37335
 3.50    514.5807  20.9672     680.9673   1179.1083 -56.81     1.339     1.067   0.0669        144     41.93504
 5.57    510.5956  20.6680     896.9968    164.3583  -2.33     2.204     1.004   0.1032        145     85.26967
 4.31    520.2776  21.3276     488.6021    641.3948 -72.01     1.257     0.919   0.1066        146     47.95455
 8.43    511.4783  22.3070     198.2361    453.4845  44.06     0.503     0.496   0.2297        147     41.93504
 3.50    519.1761  22.3770     185.8701   1518.8835  43.19     0.828     0.669   0.1557        148     26.64925
 4.34    541.0017  20.0403     1599.084    999.7307 -58.22     1.570     1.410   0.0452        149     66.55965
 4.08    536.7367  21.8065     314.3445    404.4981  50.90     1.364     0.752   0.1463        150     42.33634
 6.50    545.6520  22.0907     241.9451    933.8276  70.97     1.235     0.753   0.2930        151     65.27707
 3.67    559.8237  19.6794     2229.619   1041.5420 -18.80     1.576     1.487   0.0287        152     59.01929
 4.48    597.4241  18.5511     6303.433    782.7071 -83.49     3.546     3.355   0.0275        153     159.4719
 4.22    571.6400  20.0154     1636.241     45.6350  59.09     1.992     1.404   0.0485        154     73.09773
 4.23    556.2178  22.7008     137.9426    778.7784  45.56     0.804     0.683   0.2508        155     31.85195
 3.50    581.4234  18.1479      9138.03    144.8262 -85.18     1.779     1.649   0.0072        156     60.99184
 3.50    572.2887  20.0828     1537.683   1448.0997  21.34     2.785     1.717   0.0559        157     79.09722
 3.95    565.5809  21.5432     400.6226    139.6900 -53.99     1.148     1.009   0.1169        158     43.12774
 3.50    582.9966  18.1537     9088.894    318.9901 -38.33     1.741     1.676   0.0073        159     60.99184
 6.39    563.6564  26.0569     6.269409    905.5596   5.49     1.049     0.627   9.3417        160     53.92928
 6.81    576.9733  21.2879     506.7882   1001.5247 -66.98     1.399     1.121   0.1898        161     88.57667
 3.50    585.4980  21.1092     597.5002     75.9934  34.12     1.282     1.160   0.0805        162     44.28833
 7.52    579.6700  22.7696     129.4629    740.6813 -45.55     0.569     0.338   0.2844        163     33.90899
 5.26   1004.8461  24.3421     30.41968   1237.8387  49.76     0.764     0.567   1.2798        164     35.84818
 4.64   1597.9813  20.8069     789.3198    655.1420 -30.36     1.787     1.341   0.0858        165     62.36261
 5.62   1595.9124  21.4195     448.9523    374.0342  41.13     1.272     1.258   0.1658        166     68.56189
 6.89   1594.0922  21.4107     452.5887   1384.9442 -19.49     1.473     0.518   0.1477        167     61.54381
 6.99   1592.8507  22.1451     230.1132    567.1038  41.77     0.836     0.671   0.2560        168     54.24191
 3.50   1586.8704  22.7950     126.4705   1069.2076 -26.32     0.977     0.733   0.2642        169      30.7719
 3.50   1564.5637  16.1771     56127.34    304.2770 -45.70     1.968     1.875   0.0013        170     69.29781
 3.51   1571.3456  20.1132     1495.298     92.7359 -46.28     1.463     1.342   0.0371        171     51.02943
 3.53   1542.6790  19.3083     3138.065    135.1462 -57.03     1.585     1.524   0.0195        172     56.38185
 4.21   1536.6472  21.6506     362.8705   1429.4083 -57.98     1.567     0.952   0.1595        173      53.2985
 5.99   1529.5508  22.2489     209.1387    733.3308  32.68     1.023     0.681   0.2701        174     52.01401
 5.85   1525.2084  22.0274     256.4712    378.9753  80.66     1.380     0.702   0.2523        175     59.58954
 3.50   1523.4841  23.4971     66.24866     14.4994  44.62     0.509     0.490   0.3302        176     20.14494
 3.50   1515.7332  18.3882     7323.695    392.7216 -44.48     1.718     1.630   0.0091        177     61.54381
 5.42   1516.1362  21.2576     521.1702   1547.0354  59.82     1.454     1.004   0.1418        178     68.06685
 5.15   1504.9113  20.7752     812.6541    723.3754 -14.58     1.267     1.119   0.0844        179      63.1708
 6.67   1504.6394  23.9329     44.34534   1312.1969 -60.47     1.233     0.361   1.1304        180     46.15786
 5.77    951.5790  20.9062     720.3297    654.1421  77.81     2.092     1.354   0.1508        181     100.0509
 0.00    952.6561  99.0000    -6.526733    886.7119 -47.96     0.561     0.340  99.0000        182     29.07672
 7.15    951.1804  21.2121     543.4287    268.5884 -71.55     0.761     0.452   0.0672        183     33.61575
 3.50    948.7699  21.7747     323.6852    445.2767  -8.37     1.064     0.909   0.1171        184     34.89206
 3.72    939.9116  20.0716     1553.697   1067.0671 -40.96     1.544     1.337   0.0388        185     55.47484
 7.57    942.2939  22.9522      109.429    725.6534  42.34     0.565     0.339   0.3265        186     32.89655
 7.34    939.1717  21.0878     609.3934    515.9602  26.89     1.277     0.921   0.1462        187     82.03551
 5.74    933.8319  23.3078     78.86292   1118.5710  12.09     0.875     0.614   0.6046        188     43.90488
 7.04    933.5328  24.1704     35.63354   1027.5371  45.25     0.516     0.481   1.0634        189     34.89206
 4.85    929.1008  20.5378     1011.334   1322.4062 -85.50     1.409     1.268   0.0712        190     66.30511
 6.25    926.4553  22.9564     109.0043    665.7037 -88.92     0.928     0.456   0.4297        191     43.12774
 8.62    926.6777  22.8157     124.0862    934.3347  44.43     0.573     0.336   0.3414        192     39.01051
 0.00    919.9985  99.0000    -8.660034   1027.5399  56.68     0.762     0.323  99.0000        193     32.89655
 4.47    913.5744  20.7970     796.5135    838.4932 -17.32     1.372     1.256   0.0832        194     60.99184
 3.79    913.2420  21.5714     390.3258   1000.9395 -20.76     1.238     1.013   0.1232        195     44.28833
 8.55    908.4130  22.4388     175.5848    658.8085 -20.20     0.749     0.447   0.3115        196     50.36235
 3.50    901.2190  18.6444      5784.07    302.8275 -74.14     1.692     1.590   0.0114        197     60.55898
 5.64    900.5178  25.6259     9.324951    379.4821 -45.01     0.511     0.488   3.3179        198     28.48925
 4.99    896.8900  20.1493      1446.39    538.8267  -4.29     2.156     1.581   0.0708        199     94.30902
 8.00    898.5093  22.4596     172.2545    987.5135  45.27     0.505     0.495   0.2644        200     41.93504
 4.34    894.8568  21.5722     390.0527   1425.8367 -39.55     1.211     1.023   0.1374        201     49.34483
 0.00    892.3138  99.0000    -25.55359   1453.3175 -44.80     0.562     0.341  99.0000        202     20.14494
 3.50    881.0701  15.4417       110487   1592.5050 -66.14     2.128     1.981   0.0007        203     74.69944
 8.06    889.4891  22.2353     211.7863    680.4580  50.40     0.503     0.495   0.2150        204     41.93504
 4.20    886.5468  20.8419     764.2931   1500.5457   3.01     1.461     1.296   0.0835        205     58.73209
 4.62    885.8091  21.8631     298.3652    339.2333 -50.56     1.331     0.893   0.1881        206      51.6879
 4.58    878.3823  21.6245     371.7083    960.6887  83.41     1.256     1.192   0.1682        207     57.56896
 7.23    879.8236  22.7245     134.9561    673.3714   4.42     0.996     0.374   0.3564        208     44.28833
 5.82    877.4668  22.0808     244.1736    541.7645 -59.48     1.012     0.778   0.2385        209     53.61481
 4.43    870.1768  19.5566     2496.738   1103.6156 -61.56     2.074     1.779   0.0382        210     87.80976
 5.29    868.6845  20.6586     904.8116    939.5432  25.12     1.995     1.411   0.1101        211     91.76457
 4.87    870.6060  22.2085     217.0643    643.5376 -54.41     1.036     0.812   0.2309        212     46.15786
 4.08    889.3619  20.7674      818.553    325.6336  17.18     1.631     1.281   0.0802        213     60.43482
 7.02    867.5193  22.3419     191.9752    454.4771 -45.32     0.506     0.493   0.1946        214     34.40403
 6.62    861.1949  22.5511     158.3251   1554.1703  42.07     0.759     0.567   0.3115        215     45.41928
 5.13    859.0752  20.9479     693.1765   1340.3101 -76.09     1.578     1.072   0.1120        216     71.48486
 6.05    856.3950  22.0808     244.1721    545.3506  53.02     1.033     0.880   0.2663        217     59.87262
 4.64    845.9663  21.2799     510.5543   1063.6743  89.16     1.197     1.105   0.1167        218     54.86184
 8.68    847.7302  21.8051     314.7456    358.9989  -0.07     0.672     0.444   0.1703        219     49.34483
 4.02    844.1765  20.5085     1038.938   1106.0085  18.02     1.649     1.396   0.0655        220     62.63316
 3.50    837.3778  20.3061     1251.869    298.7135 -30.30     1.402     1.248   0.0416        221     47.95455
 5.58    837.5710  22.4890     167.6527   1520.2875   7.21     0.957     0.484   0.2610        222     40.28988
 4.34    836.5140  22.0082     261.0526    819.0198  -0.57     1.082     0.929   0.1874        223     45.04546
 3.50    823.7400  18.5742     6170.424    654.3682 -47.01     1.694     1.608   0.0105        224     59.58954
 5.33    820.7417  23.5597     62.53259   1398.3711 -34.06     1.040     0.799   0.8629        225     49.68631
 6.27    819.5536  22.3167     196.4736    702.4224  75.69     0.930     0.815   0.3133        226     56.68095
 3.50    803.8591  18.6977     5507.301   1378.6097 -16.42     1.764     1.715   0.0124        227     62.63316
 3.50    799.2559  17.4856     16817.05    695.5489 -86.67     2.595     1.858   0.0051        228     78.88316
 3.50    801.5493  19.5415     2531.719     41.1095 -47.22     1.556     1.367   0.0227        229      52.9803
 3.50    786.3653  24.0026     41.58813   1348.2401  16.88     0.743     0.450   0.5475        230     20.96752
 4.64    774.9264  19.4903     2653.882   1427.4890 -80.02     2.968     2.202   0.0498        231     121.7061
 6.58    768.5202  21.6773     354.0631    140.3967 -56.00     1.096     0.753   0.1896        232     61.81795
 0.00    759.9717  99.0000    -32.02222   1020.4913  57.79     0.794     0.314  99.0000        233     41.93504
 8.03    758.7322  21.9777       268.48   1341.6172 -19.13     0.999     0.595   0.2577        234      63.7039
 7.70    755.4393  21.4729     427.4076    195.3307  50.93     1.281     0.507   0.1632        235     64.23257
 8.16    753.2500  23.2403     83.92358   1080.7515 -18.40     0.867     0.354   0.6067        236      46.8848
 4.09    743.5436  20.1929     1389.479    556.2997 -21.00     1.386     1.284   0.0436        237     55.77881
 6.46    740.3088  23.6059     59.92822   1272.3568 -42.92     0.576     0.333   0.5476        238     30.21741
 4.93    738.9075  21.2551     522.3489   1157.9510   1.73     1.221     1.143   0.1245        239     59.87262
 5.71    736.8117  21.0518     629.9062    649.5156 -57.46     1.284     1.212   0.1272        240     73.78844
 3.50    727.4288  16.0100     65464.68    848.3036 -43.51     2.122     2.007   0.0012        241     74.01723
 4.09    728.2400  20.5967     957.8577   1178.2639 -71.75     1.493     1.272   0.0659        242     58.15343
 5.98    722.0221  21.5303     405.3818   1394.6796  55.23     1.120     1.005   0.1756        243     65.53559
 4.03    716.7179  20.2191     1356.321    808.2800 -58.15     1.484     1.251   0.0454        244     56.68095
 4.96    709.6140  20.3312     1223.252   1163.7046  -6.42     1.385     1.344   0.0624        245     70.26706
 4.23    705.2289  20.2766     1286.406   1339.0270  -7.51     1.751     1.458   0.0505        246     59.80431
 0.00    707.8699  99.0000    -34.13135    794.7454 -47.11     0.787     0.662  99.0000        247     25.34849
 3.92    703.4935  19.6370     2318.551    952.2862 -18.86     1.625     1.545   0.0301        248     64.23257
 4.49    699.7202  21.1717     564.0773    582.8026   2.02     1.870     0.964   0.1206        249     62.63316
 4.59    692.6077  21.2236     537.7385   1213.5939  51.67     1.289     1.128   0.0991        250     49.07421
 5.45    687.6429  21.5353     403.5171   1213.6561 -60.27     1.349     0.880   0.1290        251      47.9335
 6.02    692.7369  22.4954     166.6583    316.0250   1.66     0.713     0.689   0.2070        252     31.76799
 3.59    686.2900  19.8491     1907.119    644.0510  42.51     1.532     1.436   0.0314        253     55.16919
 3.50    688.1400  22.3432     191.7358    130.8793  46.46     0.805     0.656   0.1436        254     25.34849
 5.25    673.8572  22.7857     127.5656    231.1585  61.85     1.162     0.421   0.3284        255     38.57462
 6.98    669.8129  22.0001     263.0015   1221.2018 -48.04     0.753     0.562   0.1921        256     46.52275
 4.62    667.3979  23.0538     99.65027   1180.1707  20.00     0.731     0.448   0.2973        257     27.27638
 3.50    649.1266  16.0219     64748.44   1464.2963 -59.01     2.074     1.939   0.0012        258     72.63361
 4.97    655.4445  21.2318     533.6622    870.9727   6.69     1.205     1.054   0.1160        259      56.9785
 4.19    646.8542  21.8757     294.9174    652.7485  27.68     0.962     0.824   0.1437        260     39.01051
 7.02    642.0137  22.6283     147.4611    276.5096 -87.93     0.787     0.499   0.3290        261      44.6685
 5.14    631.7795  21.0000     660.7015    805.9449 -67.46     1.254     1.123   0.1025        262     62.36261
 4.72    629.6339  23.6906     55.43274    941.6058 -21.03     1.042     0.326   0.5464        263     27.88941
 5.45    624.2539  20.5388     1010.339   1581.3297 -24.63     1.442     1.261   0.0820        264     76.26751
 6.88    619.2504  21.6772     354.1095   1151.0924  28.52     1.102     0.879   0.2148        265     70.02601
 7.54    610.1631  22.6637       142.73    944.9097  41.60     0.839     0.661   0.4335        266      56.9785
 3.50    608.4720  24.1342      36.8407   1011.9152   4.20     0.785     0.497   0.6857        267     23.26137
 3.50   1562.1376  20.7798     809.2754    861.4935   5.33     1.262     1.158   0.0573        268     42.73387
 3.76    589.0152  23.3931     72.90271   1139.4913  89.58     0.784     0.500   0.3465        269     23.26137
 4.95   1566.7649  20.0619     1567.602    784.6983 -84.12     1.821     1.377   0.0564        270     81.41481
 5.84   1581.9138  22.1027      239.277   1414.7047  68.45     1.253     0.472   0.2078        271     45.79006
 3.51   1553.5060  17.0939     24122.79    682.1395 -30.05     4.698     3.914   0.0070        272     154.5175
 3.50   1585.7133  20.5011     1046.021   1108.7926 -47.79     1.406     1.236   0.0494        273     47.60064
 7.41   1576.4824  22.2443     210.0212   1491.4977  44.73     0.516     0.483   0.1995        274     38.57462
 3.50   1558.8717  16.1892     55504.59    487.7102 -42.21     1.948     1.877   0.0013        275     68.56189
 3.59   1562.9105  23.0882     96.54639   1566.5850 -28.67     1.434     0.440   0.3205        276     28.48925
 8.49   1562.4872  22.7407     132.9557    385.4712  70.24     0.829     0.446   0.4353        277      53.2985
 3.50   1567.4845  19.8154     1967.215     22.0536 -35.09     1.501     1.336   0.0287        278     52.01401
 3.63   1551.7889  21.6782     353.7804   1221.5983 -69.22     1.018     0.924   0.1100        279     35.84818
 3.50   1546.9426  20.7874     803.6251    863.4279  79.12     1.442     1.277   0.0662        280     49.00095
 3.80   1543.5000  19.6858      2216.55    654.6492 -44.43     1.543     1.391   0.0283        281     57.86193
 4.68   1533.0137  21.8483     302.4625    415.7943 -28.03     1.657     1.117   0.2325        282     64.75692
 6.56   1489.0807  21.9313     280.1991     77.8819 -75.41     0.962     0.688   0.2162        283     55.77881
 4.87   1519.6189  22.4840     168.4291     84.3914  80.11     1.501     0.882   0.3674        284      56.9785
 7.56   1502.3057  22.9778     106.8771   1412.6653  43.54     0.566     0.339   0.3446        285     33.90899
 8.50   1539.5172  23.1486     91.31799    263.4748  45.53     0.509     0.490   0.5175        286     43.51804
 7.05   1527.5272  23.6234     58.97375    878.5313  49.73     0.500     0.498   0.6514        287     35.37335
 3.50   1508.0370  16.8645     29799.71    269.3830 -51.48     1.875     1.773   0.0024        288      65.7931
 6.76   1521.7549  21.8376     305.4564   1100.5942 -83.81     0.998     0.482   0.1692        289     47.60064
 4.14   1515.3909  21.7437     333.0464    483.6700 -45.90     1.145     1.021   0.1481        290     45.41928
 5.17   1499.3826  22.5173     163.3356    844.6345  23.01     1.288     0.825   0.3627        291     54.55276
 7.80   1497.3390  23.7243     53.73816    930.6785  45.78     0.575     0.335   0.7051        292     34.89206
 5.02   1483.2747  21.2389     530.1854    575.1030 -33.51     1.906     1.010   0.1473        293     71.93182
 5.79    977.4968  23.3477     76.01697   1280.5354  84.84     0.500     0.499   0.4236        294     29.65255
 3.50    965.8499  21.8227     309.6941    416.2972 -35.18     1.232     0.946   0.1368        295     39.01051
 7.03    982.7349  22.8032      125.522   1487.3997 -33.14     0.950     0.546   0.4556        296     52.66018
 7.76   1477.7635  22.9752     107.1355    198.9817  -0.83     0.693     0.425   0.4411        297     43.51804
 5.84    981.6761  20.6356      924.197    797.9858 -22.91     1.536     1.395   0.1027        298     87.42378
 7.72    972.4925  25.8655     7.478516   1499.4553 -53.16     0.502     0.495   6.0308        299     41.52986
 5.29   1476.3263  21.2961     502.9902    998.5921  -9.60     1.602     0.944   0.1437        300     66.55965
 4.33    987.5529  20.1604     1431.721    453.9749  88.63     1.760     1.477   0.0553        301     72.86604
 5.48    979.2098  21.6439     365.1295    452.6704  73.39     1.079     0.952   0.1695        302      56.9785
 0.00   1479.4890  99.0000    -2.952271    638.4839  46.80     0.501     0.499  99.0000        303     20.14494
 5.28   1439.3832  21.5645      392.829   1271.1968  84.54     1.095     0.913   0.1517        304     54.86184
 3.71   1067.5957  22.2785     203.5177    568.9399 -85.07     1.064     0.782   0.1862        305     34.89206
 3.50    985.6585  16.9412     27767.08    558.4474 -60.51     1.860     1.774   0.0025        306     65.01752
 3.88   1416.2999  20.0963     1518.721   1386.6492  19.74     1.424     1.377   0.0397        307     55.47484
 5.29   1072.8474  19.8977     1823.638   1219.1344 -71.81     2.171     1.586   0.0599        308     100.5567
 4.20   1066.6592  22.1726     224.3698   1597.1162  36.70     1.159     0.981   0.2144        309     44.28833
 5.21   1065.3551  22.3512     190.3408    292.5062  -0.68     0.931     0.478   0.2098        310     36.77946
 7.20   1079.6516  23.0341     101.4744    921.6904 -46.76     0.573     0.335   0.3409        311     31.85195
 5.67    993.0270  23.7100       54.448    500.0000  90.00     0.838     0.289   0.5563        312     27.88941
 0.00   1069.3281  99.0000    -36.44067   1182.6630  44.61     0.577     0.334  99.0000        313     30.21741
 5.82   1439.4316  22.6399        145.9    646.8270  47.40     1.087     0.718   0.3944        314      52.9803
 3.50   1440.6519  19.6631     2263.448    619.1653   9.04     1.445     1.337   0.0243        315     50.69699
 3.50   1394.2668  15.8408     76502.16    114.4738 -48.42     2.040     1.936   0.0010        316     71.93182
 8.23   1450.7783  23.4439     69.57227     88.3631 -73.90     0.748     0.452   0.7756        317     49.68631
 5.76   1453.8417  23.6925     55.33411    391.7621  21.98     1.190     0.813   1.1470        318     58.44348
 3.50   1436.1301  19.3269      3085.03    224.7948 -34.44     1.604     1.459   0.0196        319     55.77881
 4.26   1437.3093  22.9391     110.7552   1347.0367  73.01     1.028     0.724   0.3739        320     38.13375
 3.50   1219.7289  18.1700     8953.984   1195.0479  14.69     1.870     1.852   0.0081        321     67.06581
 3.50   1435.7036  15.3471     120551.1   1089.9775  43.89     1.901     1.615   0.0008        322     91.67516
 7.30   1432.6862  21.8331     306.7373    341.5507  -7.52     1.510     1.030   0.3320        323     93.76959
 3.50   1139.3179  16.8741     29537.17    148.0982 -49.63     1.915     1.847   0.0025        324     67.56818
 8.31   1094.4969  21.6972     347.6217    429.0226  -2.01     0.796     0.500   0.1704        325     54.55276
 4.56   1079.9408  21.7631     327.1709    330.0614 -62.66     1.125     0.943   0.1627        326     49.00095
 4.34   1130.0508  21.1258     588.4116    547.4393 -65.16     1.185     1.025   0.0879        327     47.60064
 3.50   1389.6022  18.4629     6836.366   1428.5128 -35.92     1.644     1.588   0.0092        328     58.15343
 5.12   1131.0320  21.0686     620.2666    219.3809 -20.51     1.568     1.132   0.1247        329     71.22312
 3.51   1386.6152  22.0695     246.7276   1274.3851 -80.87     1.295     0.447   0.1886        330     42.85572
 3.50   1409.1057  19.6876     2212.986    308.4276  -7.76     1.523     1.467   0.0265        331     53.92928
 3.85   1263.1622  22.6020     151.0724    215.8559 -41.55     0.728     0.565   0.1870        332     26.00701
 4.79   1407.2278  21.6502     362.9983    329.8878  77.17     1.283     1.109   0.1783        333     59.58954
 6.13   1388.2180  23.0066     104.0737   1384.9540   1.83     0.696     0.412   0.3590        334     34.40403
 5.62   1412.1393  21.0784     614.6649    350.1120  23.37     1.424     1.101   0.1283        335     72.63361
 6.74   1414.8446  21.9430     277.2168      1.3369  76.87     1.069     0.416   0.1459        336     37.23637
 6.02   1278.3990  22.8300     122.4633    343.4074  -1.19     0.918     0.658   0.4253        337     47.95455
 4.77   1294.3375  20.2353     1336.173    742.2962  73.62     1.413     1.260   0.0528        338     65.01752
 5.37   1292.0195  22.5909     152.6317    545.9750 -45.38     0.899     0.525   0.2517        339     35.37335
 6.24   1401.4606  20.5152     1032.528   1031.6093  31.56     1.437     1.248   0.0905        340     86.05922
 6.59   1389.5435  21.5232     408.0387    806.6453   0.75     0.950     0.943   0.1703        341     63.96878
 4.18   1391.2549  19.5810      2441.12    713.2370  26.81     1.499     1.457   0.0282        342     63.43791
 4.30   1393.0747  20.1713     1417.326   1038.7461  42.34     1.418     1.397   0.0474        343     61.81795
 5.41   1388.9937  24.5008     26.28247   1584.7758 -89.72     0.686     0.417   1.2486        344     30.21741
 5.53   1380.3506  23.0545     99.59045    318.5949  -4.36     1.034     0.628   0.5073        345     46.52275
 3.84   1278.8799  19.0555     3960.935   1331.4744 -56.45     1.646     1.542   0.0173        346      63.1708
 0.00   1371.3213  99.0000    -19.59033    705.8503 -32.11     1.213     0.407  99.0000        347     41.12069
 3.50   1320.9148  16.9218      28267.1    659.9897 -44.67     1.896     1.801   0.0026        348     66.81321
 7.56   1369.4689  22.6824     140.2908    149.4737  17.41     0.499     0.499   0.3053        349     39.44158
 3.51   1373.4688  18.2601     8240.544   1018.9661 -21.90     1.834     1.715   0.0085        350     64.75692
 5.31   1331.2352  21.8351      306.173    386.9082   1.03     1.306     0.996   0.2202        351     62.09088
 3.50   1293.9078  20.9672     680.9264    412.7370  23.44     1.287     1.129   0.0682        352     42.73387
 5.11   1346.4972  22.1873     221.3503    605.5799 -50.92     1.185     0.775   0.2487        353     50.69699
 7.57   1353.2751  21.2930     504.4403    152.0077  17.83     1.231     1.094   0.1960        354     91.02452
 5.12   1333.5925  20.8163     782.5244    107.4225 -28.91     1.327     1.156   0.0910        355     65.53559
 5.43   1320.0242  21.3827     464.4438    264.0417 -45.50     1.309     1.038   0.1526        356     65.27707
 3.83   1330.7550  19.2903     3190.753    655.8856  56.69     1.676     1.627   0.0195        357     57.33747
 4.14   1305.5653  20.9351     701.3743    892.8594 -79.27     1.297     1.158   0.0800        358      51.6879
 3.50   1299.2639  14.9043     181249.4    724.8691 -47.64     2.150     2.016   0.0005        359      75.8228
 3.70   1308.3883  19.5361     2544.152    669.6326 -17.93     1.494     1.487   0.0238        360     55.77881
 8.09   1307.6790  23.3207     77.92993    574.6573 -44.05     0.576     0.334   0.5252        361     37.68773
 3.59   1273.6150  17.7592     13071.25    609.9725 -58.64     4.087     2.422   0.0097        362     116.3069
 4.24   1300.2339  22.0158     259.2351     54.0051 -29.97     1.122     0.858   0.1823        363     43.51804
 3.50   1292.2128  18.5314     6418.578    762.0967 -25.34     2.106     1.659   0.0114        364     67.56818
 3.67   1262.9900  21.9748     269.2008    855.3809   0.12     1.015     0.766   0.1348        365      33.4066
 5.04   1274.2222  22.1442     230.3075    698.2037 -79.22     1.189     0.826   0.2453        366     52.01401
 7.35   1157.5980  22.4590     172.3499    567.8342  19.03     0.772     0.445   0.2838        367     45.04546
 3.50   1266.2606  19.3442      3036.15    807.8792 -38.08     1.534     1.430   0.0192        368     53.61481
 5.60   1213.6489  19.9719     1703.115   1429.3069  77.15     2.724     2.083   0.0879        369     137.8617
 5.82   1238.9614  22.4971     166.3995    857.0588 -45.63     0.897     0.539   0.2815        370     43.12774
 3.76   1235.1207  19.5612     2486.105    304.8844 -70.00     1.601     1.472   0.0259        371      59.3051
 4.35   1260.2809  20.3125     1244.487    432.4522 -61.87     1.924     1.810   0.0725        372     83.05972
 4.00   1238.4276  21.7356     335.5447     48.1247 -11.79     1.158     0.950   0.1408        373     43.51804
 6.11   1230.6050  20.7482     833.1222    599.0958  13.98     1.553     1.455   0.1239        374     95.02349
 3.50   1238.0283  20.1358     1464.439   1553.5206 -12.60     1.431     1.370   0.0378        375     51.02943
 3.50   1244.9319  22.9723     107.4181    614.1144  43.91     0.865     0.661   0.2758        376     27.27638
 4.38   1202.6338  20.1638     1427.121    339.0765 -83.96     1.516     1.396   0.0503        377     66.04961
 3.50   1215.4216  17.7178     13579.92    513.0119 -59.10     1.745     1.693   0.0049        378     61.26844
 3.50   1211.6077  17.6432      14545.7   1279.0597  80.67     5.688     3.491   0.0120        379     161.1595
 4.87   1229.3096  21.6540     361.7413   1153.9847  -3.74     1.189     0.976   0.1619        380     53.92928
 3.50   1208.4626  20.1979     1382.999    838.7981 -29.99     1.343     1.247   0.0360        381     45.79006
 5.21   1195.7804  20.0254     1621.174    124.2715  85.31     1.874     1.702   0.0641        382     95.73264
 4.53   1205.2776  22.5938     152.2228   1217.3695 -46.25     0.892     0.513   0.2195        383      30.7719
 3.89   1162.5885  21.6532     362.0166    887.7397 -48.69     1.405     1.171   0.1551        384      51.6879
 4.67   1154.6306  20.7417      838.118   1353.0854 -56.53     1.611     1.412   0.0929        385     71.69637
 4.88   1201.8149  20.5020     1045.216   1442.1520 -87.54     1.659     1.491   0.0824        386     79.31071
 5.64   1182.5487  22.2463     209.6403    176.5511   8.16     1.425     0.970   0.3526        387     68.06685
 3.50   1181.6399  21.4884     421.3285    549.2872 -17.64     1.167     0.943   0.0960        388     37.23637
 6.47   1185.6552  23.0205     102.7571    313.7022 -47.34     0.566     0.338   0.3194        389     30.21741
 3.64   1152.1667  20.2616     1304.277     99.4371  -5.03     1.310     1.209   0.0399        390     47.95455
 3.50   1165.9730  16.3504     47844.46   1299.8149 -73.70     1.991     1.895   0.0016        391     69.29781
 3.50   1130.7355  17.5832     15370.94    183.5708 -55.72     1.823     1.729   0.0045        392     63.96878
 6.43   1178.4944  24.1239      37.1925   1597.7561  72.38     1.154     0.262   1.0604        393     36.31681
 7.58   1167.6770  22.4832       168.54   1599.3630  46.34     0.885     0.518   0.2650        394     41.12069
 0.00   1169.6912  99.0000    -4.402466    385.3456  43.30     0.572     0.336  99.0000        395     30.21741
 3.61   1158.6713  18.7323     5334.161    236.4377 -45.44     1.659     1.639   0.0127        396     62.36261
 6.98   1131.8344  21.6942     348.5835    359.0297  34.12     1.138     1.043   0.2437        397     78.23744
 3.50   1080.7612  16.8175     31116.56    512.1377 -66.86     1.873     1.779   0.0023        398     65.53559
 5.41   1121.0597  19.5164     2590.831    329.8915  58.20     2.642     1.720   0.0498        399     118.7527
 4.68   1096.1305  20.7899     801.7833   1526.4138 -79.64     1.384     1.254   0.0874        400     64.49528
 3.50   1108.1862  18.5546     6283.098    427.9433 -54.08     1.692     1.627   0.0103        401      59.3051
 5.32   1111.4586  19.9774     1694.496    479.1580  -9.86     2.161     1.572   0.0648        402     101.0599
 3.50   1095.5962  16.9444     27683.86    778.2920  30.96     1.857     1.769   0.0030        403     76.48868
 5.17   1091.6052  20.8413     764.6576    468.4291 -68.10     1.906     0.987   0.1035        404     72.86604
 5.44   1095.1101  22.4956     166.6394   1136.4399 -85.67     1.091     0.933   0.3713        405      56.9785
 3.50   1082.6001  18.1908     8783.465   1148.1748 -75.09     1.756     1.712   0.0077        406     62.36261
 3.50   1030.9937  19.9543     1730.936    302.5811  71.37     2.462     1.757   0.0470        407     74.92546
 6.46   1085.8284  21.6705     356.2812   1452.5986  76.35     0.929     0.621   0.1545        408     50.69699
 6.13   1066.0032  20.4503     1096.203   1562.7290 -64.61     2.578     1.374   0.1179        409     119.0371
 3.50   1010.6152  17.5665     15609.73    813.6567 -57.58     1.843     1.779   0.0045        410     64.23257
 5.93   1020.8219  22.9678     107.8688   1154.6001  71.58     0.761     0.450   0.3749        411     37.23637
 7.72   1052.8062  23.4196     71.14722    238.2280  10.82     1.184     0.333   0.7636        412     50.02547
 0.00   1001.6425  99.0000     -30.1665   1025.6887 -46.97     0.578     0.332  99.0000        413     26.00701
 3.50    998.9927  22.1894     220.9192    233.2767 -18.35     1.046     0.719   0.1539        414     31.31658
 3.50   1039.5093  18.3063     7897.407    525.4048 -57.06     1.682     1.625   0.0083        415     60.71397
 5.58   1040.7959  22.3767     185.9187    467.1765  60.45     1.002     0.638   0.2653        416     45.41928
 8.77   1042.6610  22.4865     168.0286   1095.3132  46.21     0.571     0.337   0.2604        417     40.28988
 3.50   1041.0314  16.5240     40774.87    633.0394 -48.28     1.946     1.863   0.0018        418     69.05338
 7.81   1044.5298  23.3351     76.90845    809.4818 -44.15     0.509     0.490   0.5922        419     41.93504
 3.50   1026.5739  17.3957     18269.52   1379.9856 -68.53     1.930     1.815   0.0040        420     67.56818
 7.28   1038.3228  23.8402      48.2959    242.3530 -43.77     0.581     0.331   0.7162        421     31.85195
 5.54   1014.3884  22.4887      167.693    453.2855 -71.18     0.977     0.589   0.2793        422     43.12774
 0.00   1026.6539  99.0000    -51.38013   1028.6675 -45.54     0.582     0.330  99.0000        423     26.64925
 5.56   1028.6923  24.0379     40.25647    463.6869 -44.70     0.557     0.343   0.6838        424     25.34849
 3.50   1012.0173  19.7114     2164.866    344.6625 -58.15     1.552     1.359   0.0267        425      53.2985
 3.88   1011.5946  22.2822     202.8156    268.0587 -42.83     1.169     0.663   0.1868        426     34.89206
 4.09   1000.6547  20.8902     731.0348   1273.9342 -43.44     1.550     1.291   0.0885        427     59.58954
 3.72   1002.4813  19.5771     2449.932    542.4351  72.56     1.532     1.462   0.0251        428     56.68095
 6.18   1020.4149  22.4626     171.7683   1267.5466 -73.09     0.874     0.686   0.3120        429     49.34483
 4.02   1002.4446  20.4411     1105.535   1555.2887 -75.10     1.475     1.318   0.0568        430     57.86193
