#   1 KRON_RADIUS            Kron apertures in units of A or B                         
#   2 MAGERR_APER            RMS error vector for fixed aperture mag.                   [mag]
#   3 Y_IMAGE                Object position along y                                    [pixel]
#   4 X_IMAGE                Object position along x                                    [pixel]
#   5 THETA_IMAGE            Position angle (CCW/x)                                     [deg]
#   6 FLUX_APER              Flux vector within fixed circular aperture(s)              [count]
#   7 A_IMAGE                Profile RMS along major axis                               [pixel]
#   8 B_IMAGE                Profile RMS along minor axis                               [pixel]
#   9 FLUX_RADIUS            Fraction-of-light radii                                    [pixel]
#  10 FLUXERR_APER           RMS error vector for aperture flux(es)                     [count]
#  11 MAG_APER               Fixed aperture magnitude vector                            [mag]
#  12 NUMBER                 Running object number                                     
 4.76   0.0000     53.0736     63.6999   5.51     27923.51     3.988     3.644     11.099   0.00604941  16.9351          1
 4.66   0.0000     16.6918    984.9968 -88.02     4449.912     2.956     1.596      6.812  0.006052839  18.9291          2
 4.55   0.0000     17.7495     91.2424 -79.59     4215.994     1.576     1.521      1.325  0.006056265  18.9877          3
 3.71   0.0000     14.6941   1445.5286 -33.38     11056.42     1.861     1.820      1.296  0.006052153  17.9410          4
 6.47   0.0000     24.7442    367.1736  67.11     803.2924     1.088     0.513      1.120   0.00605695  20.7878          5
 3.50   0.0000     59.7851   1078.2341  63.34     39935.97     2.315     2.253      1.871  0.006056265  16.5466          6
 3.50   0.0000     80.1138    537.5025  22.52     35687.66     2.275     2.216      1.845  0.006048725  16.6687          7
 3.50   0.0000    182.1499   1107.1932 -21.30     656272.6     4.588     4.274      6.235   0.00605832  13.5073          8
 5.82   0.0000     74.8997    127.8917  41.44     1749.631     1.288     1.149      1.459  0.006048038  19.9426          9
 3.50   0.0000    121.7268    788.9882 -20.11     53124.27     2.363     2.344      1.817  0.006059005  16.2368         10
 5.06   0.0000     96.3947     55.8320 -19.57     2567.656     1.350     1.259      1.392   0.00605695  19.5262         11
 3.50   0.0000    193.4290    317.9678 -41.29       181231     2.705     2.621      2.163   0.00605695  14.9044         12
 3.50   0.0000    162.3457   1468.0752 -45.67     32927.45     2.232     2.175      1.755  0.006052839  16.7561         13
 3.57   0.0000    170.2823    877.1946 -21.20     9927.326     1.992     1.867      1.296   0.00605558  18.0579         14
 6.54   0.0000    170.8250    325.2957 -40.33     1204.552     0.965     0.838      1.628  0.006053524  20.3479         15
 5.02   0.0000    234.6016    403.6657 -33.42     24952.12     5.167     4.116     15.014  0.006059005  17.0572         16
 6.84   0.0000    192.4389   1350.2408 -25.96     1021.148     0.910     0.766      1.249  0.006057635  20.5273         17
 6.98   0.0000    210.5078    826.8778  -8.98     3045.682     2.130     1.475      8.857  0.006051468  19.3408         18
 5.91   0.0000    206.2398    548.8522 -12.23     1810.166     1.229     1.170      1.284  0.006056265  19.9057         19
 5.27   0.0000    212.1731   1305.9985  33.21     1704.878     1.288     1.084      1.153  0.006054895  19.9708         20
 8.84   0.0000    209.5003    348.5010  45.08     893.2887     0.500     0.500      2.904  0.006048038  20.6725         21
 4.19   0.0000    223.6748   1225.5409  21.43     2077.518     1.361     1.283      1.149  0.006053524  19.7561         22
 3.50   0.0000    259.5799    997.2325 -12.04     86268.47     2.518     2.449      1.986  0.006056265  15.7104         23
 7.91   0.0000    229.2366    561.4113  -5.39     2721.498     1.962     1.282      8.901   0.00605695  19.4630         24
 7.59   0.0000    222.3091    774.6770  44.27     667.9724     0.562     0.341      1.180  0.006051468  20.9881         25
 3.50   0.0000    265.5647     67.4432  10.39     65205.94     2.437     2.395      1.995   0.00605832  16.0143         26
 7.60   0.0000    243.6204    112.7716  16.62      1118.03     0.964     0.645      3.529  0.006056265  20.4289         27
 5.19   0.0000    255.0401    612.7058 -17.92     2889.732     2.021     1.620      5.078   0.00604941  19.3979         28
 3.50   0.0000    312.1774    439.1657 -13.83     219661.9     2.766     2.661      2.397  0.006056265  14.6956         29
 3.63   0.0000    287.4764   1486.1249 -43.80     19669.14     2.048     2.043      1.610  0.006052153  17.3155         30
 4.46   0.0000    281.9365   1522.0271  12.37     4815.267     1.606     1.534      1.383  0.006056265  18.8434         31
 3.50   0.0000    318.4750    905.3110 -23.49     45803.75     2.384     2.325      1.930  0.006050096  16.3977         32
 3.72   0.0000    302.8204    201.5913 -11.79     15669.88     2.036     1.963      1.656  0.006053524  17.5623         33
 6.43   0.0000    289.4337    514.9032  21.77     1515.831     1.280     1.109      1.924  0.006050782  20.0984         34
 4.69   0.0000    293.8911   1327.2559  -8.13     2018.055     1.331     1.133      1.193  0.006052153  19.7877         35
 3.50   0.0000    351.2150    890.6105 -20.64     196478.9     2.679     2.619      2.177   0.00605421  14.8167         36
 3.50   0.0000    351.3136   1345.6615 -16.35     187420.5     2.678     2.609      2.156  0.006052153  14.8680         37
 3.50   0.0000    321.7043    697.1205  -1.34      11341.9     1.980     1.792      1.598  0.006050096  17.9133         38
 6.73   0.0000    327.1209    595.3190  77.27     1476.039     1.190     1.017      1.751  0.006052153  20.1273         39
 4.94   0.0000    346.1332    866.8626  -2.58      6941.03     1.804     1.786      1.383  0.006052839  18.4464         40
 4.66   0.0000    355.4992    431.5913 -85.48     4986.549     1.980     1.746      1.678  0.006052839  18.8055         41
 3.92   0.0000    367.8107    760.9424 -23.24      11394.8     1.949     1.894      1.551   0.00605832  17.9082         42
 7.95   0.0000    349.6844     54.8306 -29.57     960.9188     0.861     0.613      1.465   0.00605558  20.5933         43
 4.89   0.0000    360.8478   1500.0731  49.68     1923.292     1.286     1.166      1.446  0.006052839  19.8399         44
 3.99   0.0000    367.0157    442.6554  -4.74     4100.853     1.629     1.481      1.465  0.006057635  19.0178         45
 3.50   0.0000    394.8368    231.2965  41.81     39785.48     2.343     2.277      1.918  0.006050096  16.5507         46
 3.90   0.0000    396.8571   1460.8850  14.04     7937.301     1.841     1.731      1.436  0.006051468  18.3008         47
 3.60   0.0000    397.8311    354.3651  44.80     8992.517     1.883     1.750      1.554  0.006056265  18.1653         48
 3.50   0.0000    419.2020    433.1641  22.31     37619.17     2.328     2.295      1.981  0.006054895  16.6115         49
 5.36   0.0000    393.6920   1088.5493  89.56     1861.407     1.201     1.013      1.027  0.006052839  19.8754         50
 3.50   0.0000    415.3564    837.2811   8.63     20949.71     2.140     2.089      1.728  0.006052839  17.2471         51
 4.35   0.0000    424.0066    926.2327 -43.07     4166.994     1.595     1.518      1.340  0.006056265  19.0004         52
 3.57   0.0000    437.5113    251.9212  10.66     17247.89     2.048     2.002      1.714  0.006051468  17.4582         53
 3.50   0.0000    460.6612    807.4064  -9.60     98701.37     2.537     2.441      2.056  0.006059689  15.5642         54
 7.43   0.0000    420.7388    160.2448 -19.02     693.5421     0.875     0.354      2.676   0.00605558  20.9473         55
 5.16   0.0000    432.4912   1422.0449  46.46     1218.952     1.374     1.035      1.027  0.006051468  20.3350         56
 4.26   0.0000    449.7295     21.2905 -30.46     5663.885     1.732     1.698      1.684  0.006051468  18.6672         57
 7.75   0.0000    440.0000    306.0034   0.00     614.4564     0.851     0.289      1.254   0.00605558  21.0788         58
 4.30   0.0000    457.3224     34.5136  41.77     6392.401     1.728     1.708      1.384  0.006050096  18.5358         59
 6.50   0.0000    444.0941    122.7514 -35.96     685.8262     1.097     0.521      2.411  0.006050782  20.9595         60
 6.49   0.0000    467.3463    850.1621  24.15     3619.548     4.170     1.534     14.753   0.00605558  19.1534         61
 6.06   0.0000    463.3726    468.1671  79.66     1865.425     1.361     1.210      1.390  0.006056265  19.8731         62
 5.00   0.0000    471.6059    735.0529 -58.33     2361.059     1.408     1.302      1.427  0.006061059  19.6172         63
 5.16   0.0000    470.9095    254.1994  49.02     1607.174     1.312     1.019      1.534  0.006053524  20.0348         64
 5.12   0.0000    477.5139    922.9161  -6.91     3003.952     1.588     1.406      1.270  0.006051468  19.3558         65
 6.22   0.0000    477.5089   1276.5143 -73.41     1035.286     1.022     0.733      1.440  0.006050096  20.5123         66
 6.30   0.0000    483.7006   1070.2640  14.36     1346.702     1.125     0.992      1.319  0.006052839  20.2268         67
 7.68   0.0000    495.1989     82.1739  72.36     1762.435     1.283     0.950      6.371  0.006054895  19.9347         68
 8.53   0.0000    494.4341   1189.1519  78.86     1534.256     0.889     0.613      4.490   0.00605695  20.0853         69
 3.77   0.0000    512.1891   1302.6895   2.77     13256.07     2.605     1.838      1.900  0.006054895  17.7440         70
 5.35   0.0000    532.4780    518.7072  42.64     13556.55     3.332     2.704     11.050  0.006052153  17.7196         71
 6.37   0.0000    501.2008    863.6277 -73.06     675.6626     0.729     0.454      1.435   0.00605421  20.9757         72
 6.88   0.0000    514.8291   1460.6050  23.71     2359.306     2.174     1.173      7.922  0.006056265  19.6180         73
 9.16   0.0000    513.5114   1178.5463 -51.67     754.2811     0.503     0.494      1.709  0.006052153  20.8562         74
 4.72   0.0000    539.8799    999.7950  63.00     1916.605     1.209     1.168      1.360  0.006054895  19.8437         75
 3.50   0.0000    587.6208   1315.8385  12.88     196380.4     2.657     2.602      2.188   0.00605695  14.8173         76
 5.39   0.0000    558.6192   1041.6226 -49.65     2540.283     1.473     1.301      1.093   0.00605695  19.5378         77
 4.09   0.0000    572.2031   1242.7196  38.49     7965.225     1.751     1.723      1.364  0.006056265  18.2970         78
 3.96   0.0000    580.0729    144.9288  70.17     11265.76     1.890     1.825      1.621  0.006050096  17.9206         79
 3.50   0.0000    630.7131    483.2363  13.54     317422.6     2.827     2.779      2.755  0.006054895  14.2959         80
 4.16   0.0000    581.5784    319.2341  61.20     11008.68     1.927     1.876      1.802   0.00605695  17.9457         81
 6.89   0.0000    570.7512     45.9504  48.62     1562.004     1.416     1.002      3.539   0.00605832  20.0658         82
 6.29   0.0000    573.8788   1337.0791 -66.01     1158.664     1.088     0.942      1.568  0.006052839  20.3901         83
 9.08   0.0000    570.5884   1447.2085 -20.04     1330.677     0.773     0.441      3.532  0.006052839  20.2398         84
 6.23   0.0000    596.4893    782.4854  81.04     4309.078     2.181     1.973      8.339  0.006051467  18.9640         85
 6.19   0.0000   1001.0735   1555.3445  15.77     1274.646     1.037     0.745      1.394  0.006052153  20.2865         86
 8.06   0.0000    928.0015   1322.3193 -89.58     1155.847     0.751     0.672      1.362  0.006056265  20.3927         87
 7.50   0.0000    912.4890    838.6716 -89.47     966.8614     0.940     0.470      1.164  0.006052153  20.5866         88
 4.02   0.0000    899.8826    302.7993  34.45      7138.75     1.810     1.755      1.602   0.00605558  18.4159         89
 3.50   0.0000    881.5768    183.9508 -13.91     404086.2     2.956     2.893      3.682   0.00605832  14.0338         90
 6.18   0.0000    896.3508    538.8231 -43.55     1389.258     1.212     0.849      3.621   0.00605832  20.1930         91
 3.50   0.0000    880.0118   1592.4092  59.51     58948.03     2.485     2.419      1.906  0.006052839  16.1238         92
 6.68   0.0000    879.3483    224.1944  85.96     3171.362     4.026     1.518     13.314  0.006059689  19.2969         93
 5.78   0.0000    869.0080   1103.1798 -34.02     2413.827     1.486     1.474      1.912   0.00605421  19.5932         94
 3.50   0.0000    858.9609   1224.4232  23.63     182597.5     2.690     2.654      2.127   0.00605695  14.8963         95
 8.57   0.0000    877.2705   1176.7744 -72.54     955.5112     0.835     0.351      2.646  0.006056265  20.5994         96
 7.91   0.0000    859.0000   1156.5350   0.00     930.1022     1.161     0.289      1.904  0.006059689  20.6287         97
 7.26   0.0000    843.1048   1106.8746 -75.24     1080.613     0.978     0.710      1.696  0.006051468  20.4658         98
 7.07   0.0000    837.5580   1247.4752   2.17     1542.152     1.388     1.075      1.845   0.00605421  20.0797         99
 6.16   0.0000    836.2336    298.4433 -87.05     1567.053     1.215     1.019      1.313   0.00605832  20.0623        100
 3.78   0.0000    822.4514    654.3923  62.24     7022.405     1.906     1.701      1.425  0.006059005  18.4338        101
 4.40   0.0000    802.7780   1378.5226 -60.86     6708.526     1.725     1.703      1.324  0.006056265  18.4834        102
 3.81   0.0000    798.0674    695.6057  88.39     18373.53     2.555     2.010      3.479  0.006059005  17.3895        103
 4.84   0.0000    799.9536     41.0705  76.53     3114.362     1.478     1.354      1.517   0.00605421  19.3166        104
 6.63   0.0000    774.1362   1427.0630 -85.17     2157.434     1.892     1.255      6.101  0.006053524  19.7152        105
 5.64   0.0000    766.1399    391.8227  50.41     1359.998     1.264     1.061      1.307  0.006057635  20.2162        106
 5.48   0.0000    742.3915    556.7040  78.10     1629.338     1.277     1.149      1.294   0.00605421  20.0200        107
 3.50   0.0000    723.6109    404.8487  -7.98     218489.8     2.737     2.702      2.490   0.00605832  14.7014        108
 3.50   0.0000    726.2004    848.3845   5.24      50990.5     2.389     2.348      1.985   0.00605421  16.2813        109
 5.99   0.0000    726.7936   1178.3159  -8.79     1110.194     0.905     0.765      1.579  0.006054895  20.4365        110
 5.37   0.0000    715.3687    808.1308 -14.17     1416.461     1.204     0.957      1.318   0.00605558  20.1720        111
 5.12   0.0000    708.2617   1163.7617  76.32     1455.913     1.319     1.038      1.317   0.00605558  20.1422        112
 7.48   0.0000    703.4436   1338.5859  50.36     1411.509     1.193     0.802      2.122  0.006056265  20.1758        113
 4.41   0.0000    702.1777    952.2957 -57.06     2590.456     1.516     1.368      1.376   0.00605421  19.5166        114
 5.73   0.0000    685.3104    644.2101 -60.68     2104.694     1.360     1.290      1.251  0.006054895  19.7420        115
 7.44   0.0000    680.8766    543.4276 -43.60     1480.553     1.427     0.901      4.431  0.006054895  20.1239        116
 3.50   0.0000    648.0181   1464.2283  13.82     50111.18     2.374     2.349      1.885   0.00605558  16.3002        117
 5.22   0.0000   1569.9100     92.4346 -54.30     2280.563     1.158     1.035      1.562  0.006052839  19.6549        118
 4.14   0.0000    639.2830    536.7927  -3.16     11707.12     1.966     1.893      1.581  0.006054895  17.8789        119
 5.14   0.0000    623.0889   1581.3657 -33.27     1154.515     1.048     0.838      1.310   0.00605421  20.3940        120
 6.30   0.0000    604.9369    586.3323 -13.78     1198.362     1.013     0.756      1.501  0.006052839  20.3535        121
 4.60   0.0000   1584.5095   1108.9586   4.37     2085.767     1.145     0.966      1.120  0.006052839  19.7518        122
 5.20   0.0000   1542.0271    654.5812 -83.10     3142.005     1.471     1.249      1.470  0.006056265  19.3070        123
 3.50   0.0000   1563.1943    304.0779  33.95     47509.36     2.267     2.215      2.106   0.00605558  16.3581        124
 4.98   0.0000   1565.9387     21.8800  79.20     2726.094     1.343     1.153      1.495  0.006051468  19.4611        125
 5.93   0.0000   1560.3761    861.1697 -67.44      1645.06     0.918     0.685      1.888   0.00605421  20.0095        126
 3.50   0.0000   1557.4879    487.5964 -65.71     46122.95     2.294     2.287      2.021   0.00605421  16.3902        127
 7.68   0.0000   1565.7225    784.5153 -18.36     1684.629     1.194     0.861      1.910  0.006051468  19.9837        128
 3.59   0.0000    929.3309   1178.3392  65.57     16425.71     2.089     2.039      1.543  0.006052839  17.5112        129
 4.54   0.0000   1552.2527    682.1414 -13.12     18192.99     3.556     3.280     10.801   0.00605421  17.4002        130
 4.19   0.0000   1541.2693    135.0337  18.48     4340.241     1.541     1.467      1.379  0.006056265  18.9562        131
 6.05   0.0000   1503.8435    723.1686 -42.66     1210.298     0.761     0.566      1.365   0.00605832  20.3428        132
 3.50   0.0000   1506.6525    269.2638   7.18     30202.41     2.182     2.111      1.886  0.006053524  16.8499        133
 8.47   0.0000    986.5678    453.7992  -8.77     1235.636     1.032     0.475      1.894   0.00605558  20.3203        134
 4.00   0.0000   1514.2882    392.6559 -58.37     9011.441     1.812     1.777      1.648  0.006052153  18.1630        135
 5.03   0.0000    938.8495   1066.8735 -33.34      2049.62     1.334     1.209      1.492  0.006051468  19.7708        136
 7.70   0.0000    999.8006   1273.5909  70.88     982.7742     0.762     0.448      1.036  0.006052839  20.5689        137
 3.61   0.0000    984.3760    558.4080  38.30     26667.92     2.251     2.207      1.922   0.00605558  16.9850        138
 7.90   0.0000   1029.7847    302.2120  10.78     1799.796     1.134     1.000      4.856  0.006054895  19.9119        139
 3.58   0.0000   1094.6384    778.1648  69.19     26804.69     2.275     2.184      1.764   0.00605695  16.9795        140
 3.53   0.0000   1079.4926    512.2214  54.14     29895.36     2.274     2.244      1.880  0.006053524  16.8610        141
 4.19   0.0000   1107.0248    428.0919  60.25       7869.1     1.941     1.743      1.465  0.006053524  18.3102        142
 3.80   0.0000   1104.1162    751.8383  -5.00     12246.83     2.060     1.964      1.503  0.006054895  17.8299        143
 6.96   0.0000   1119.7220    329.5727  63.96     2352.876     1.765     1.199      5.653  0.006054895  19.6210        144
 5.06   0.0000   1407.5315    308.2361 -44.22     3197.996     1.439     1.279      1.712  0.006056265  19.2878        145
 8.97   0.0000   1109.7917    478.5934  71.14     1652.819     0.771     0.447      3.252   0.00605421  20.0044        146
 4.15   0.0000   1434.7892    224.7439  46.04     4355.458     1.583     1.494      1.557   0.00605832  18.9524        147
 3.50   0.0000   1433.9342   1090.2458  30.52     98382.61     2.488     2.469      2.171  0.006054895  15.5677        148
 6.44   0.0000   1356.6797   1135.6938  36.20     6660.833     3.580     2.833     12.008  0.006050782  18.4912        149
 3.71   0.0000   1418.8335   1126.1434  84.99     19833.88     2.156     2.041      1.722   0.00605695  17.3065        150
 4.17   0.0000   1439.2010    619.2320   9.88     3338.371     1.402     1.321      1.328  0.006054895  19.2412        151
 3.92   0.0000   1372.0837   1018.8958  -9.03     9819.077     1.852     1.822      1.529  0.006048038  18.0698        152
 5.32   0.0000   1414.9160   1386.2550  60.07      2230.13     1.344     1.047      1.517  0.006052153  19.6792        153
 4.03   0.0000   1391.7971   1038.7439  67.47     2467.103     1.304     1.098      1.504  0.006060374  19.5695        154
 3.50   0.0000   1392.8529    114.4571  71.21     61270.44     2.415     2.367      2.130   0.00605421  16.0819        155
 8.52   0.0000   1399.6058   1031.2242 -17.40     1317.106     0.766     0.452      2.003  0.006056265  20.2509        156
 7.13   0.0000   1365.9126   1134.3555  45.43     3321.862     1.911     1.722     11.239  0.006052839  19.2465        157
 5.01   0.0000   1389.8397    713.2199  22.47     3299.154     1.507     1.263      1.611  0.006057635  19.2540        158
 3.50   0.0000   1365.8357   1159.0712   2.32     387147.4     2.848     2.781      3.308  0.006056265  14.0803        159
 4.01   0.0000   1388.3790   1428.3553  73.36     8964.029     1.895     1.769      1.291   0.00605695  18.1687        160
 6.78   0.0000   1332.1637    107.1231 -44.81     1260.826     0.822     0.689      1.471   0.00605421  20.2984        161
 7.61   0.0000   1292.9835    412.4896 -88.70     1407.712     0.796     0.500      1.006  0.006056265  20.1787        162
 6.76   0.0000   1293.0438    742.0370 -32.95     1488.544     1.201     1.102      1.466   0.00605832  20.1181        163
 6.59   0.0000   1307.5371   1035.8656 -22.46     2388.617     1.860     1.418      3.417  0.006052153  19.6046        164
 8.86   0.0000   1304.5039    892.5345  49.53     1014.431     0.503     0.496      1.105  0.006053524  20.5344        165
 3.61   0.0000   1319.6693    659.9656 -32.93     27268.29     2.227     2.193      1.778  0.006056265  16.9609        166
 3.50   0.0000   1298.0555    724.8812   8.01     121942.7     2.619     2.570      2.198  0.006052153  15.3346        167
 4.75   0.0000   1329.2986    656.0548 -75.48     3511.292     1.896     1.538      1.554  0.006050096  19.1863        168
 8.95   0.0000   1318.5270    264.4885  41.74     1111.357     0.502     0.497      1.786  0.006050782  20.4354        169
 4.80   0.0000   1272.3201    610.1558 -47.01     11009.87     3.322     2.306      8.976  0.006052839  17.9455        170
 5.32   0.0000   1307.1979    669.4045 -23.51     3150.611     1.607     1.459      1.311   0.00605421  19.3040        171
 9.25   0.0000   1259.4890    431.9816  32.19     1856.539     0.794     0.314      3.128  0.006054895  19.8782        172
 6.29   0.0000   1150.6633     99.5792  44.92       1599.8     1.036     0.885      1.600  0.006057635  20.0398        173
 4.38   0.0000   1291.0667    761.9180 -41.16     7481.566     1.919     1.769      1.580  0.006051468  18.3650        174
 4.25   0.0000   1264.9709    807.7477  59.90     3785.942     1.599     1.494      1.459  0.006057635  19.1046        175
 3.53   0.0000   1138.0643    148.1477  46.91      28956.6     2.327     2.282      1.870  0.006053524  16.8956        176
 4.22   0.0000   1277.7104   1331.2352  22.97     4871.497     1.680     1.563      1.358  0.006052839  18.8308        177
 4.36   0.0000   1233.8513    304.6225  36.17      3188.52     1.449     1.298      1.552   0.00605832  19.2910        178
 4.43   0.0000   1209.7117   1278.6561 -85.99     9879.322     4.261     2.740     11.607  0.006052153  18.0632        179
 3.50   0.0000   1151.3195    693.8876 -36.88     367586.7     2.880     2.833      2.891  0.006051468  14.1366        180
 8.61   0.0000   1242.6707    672.6620 -44.63     1138.521     0.578     0.333      1.080  0.006052839  20.4091        181
 3.50   0.0000   1221.1533    995.1743 -17.12     744809.7     4.964     4.589      6.953   0.00605832  13.3699        182
 3.54   0.0000   1214.2229    513.0850 -16.99      16928.6     2.066     1.985      1.573  0.006054895  17.4784        183
 4.34   0.0000   1218.5485   1194.7737  -3.77     11139.71     1.975     1.919      1.410  0.006057635  17.9328        184
 5.37   0.0000   1172.4696    758.3431 -47.89     6426.824     2.674     2.414      7.156  0.006052839  18.5300        185
 5.51   0.0000   1201.3074    339.3050  -1.91     2036.296     1.244     1.068      1.282   0.00604941  19.7779        186
 6.13   0.0000   1206.9932    838.8481   0.27     2098.265     1.198     1.079      1.431   0.00605832  19.7453        187
 5.88   0.0000   1236.7904   1553.1959  35.68     2021.942     1.209     1.061      1.298  0.006053524  19.7856        188
 6.70   0.0000   1071.7524   1219.0967  83.74     1870.526     1.523     1.196      5.954  0.006048038  19.8701        189
 7.04   0.0000   1203.0830   1076.0216 -22.86     1554.669     1.241     1.145      1.844  0.006056265  20.0709        190
 3.60   0.0000   1129.5677    183.6499  83.13      17705.3     2.121     2.085      1.763  0.006057635  17.4297        191
 7.03   0.0000   1193.9590    124.2465  -9.73     1780.465     1.215     1.051      3.484  0.006057635  19.9237        192
 4.46   0.0000   1157.3230    236.5551  70.05     6413.355     1.814     1.725      1.469  0.006053524  18.5323        193
 3.50   0.0000   1164.8165   1299.7317  53.73     41902.49     2.368     2.291      1.771  0.006057635  16.4944        194
 8.19   0.0000   1129.4969    219.9676  32.24      743.781     0.794     0.314      1.794  0.006050782  20.8714        195
 4.99   0.0000   1088.8848    642.5204  47.95     3414.912     1.595     1.454      1.524  0.006051468  19.2166        196
 4.10   0.0000   1081.3861   1148.1320  76.39     10950.18     1.998     1.870      1.454  0.006059005  17.9514        197
 3.50   0.0000   1039.8916    633.0511  39.10     35323.25     2.365     2.271      1.773  0.006053524  16.6798        198
 4.43   0.0000   1038.2446    525.3903  64.29     9297.209     1.943     1.864      1.398   0.00605695  18.1291        199
 3.50   0.0000   1022.9890     50.2034 -11.81     265163.1     2.772     2.735      2.549  0.006053524  14.4912        200
 3.76   0.0000   1009.4022    813.7109 -80.04        18152     2.081     2.026      1.676   0.00605421  17.4027        201
 3.72   0.0000   1025.4417   1379.8547  69.55     19784.11     2.148     2.070      1.607  0.006054895  17.3092        202
 5.41   0.0000   1010.7049    344.8102  -2.32     2740.443     1.423     1.369      1.657  0.006053524  19.4554        203
 5.80   0.0000   1000.9542    542.7289 -56.96     2904.879     1.450     1.365      1.549   0.00605421  19.3922        204
