#   1 KRON_RADIUS            Kron apertures in units of A or B                         
#   2 MAGERR_APER            RMS error vector for fixed aperture mag.                   [mag]
#   3 Y_IMAGE                Object position along y                                    [pixel]
#   4 X_IMAGE                Object position along x                                    [pixel]
#   5 THETA_IMAGE            Position angle (CCW/x)                                     [deg]
#   6 FLUX_APER              Flux vector within fixed circular aperture(s)              [count]
#   7 A_IMAGE                Profile RMS along major axis                               [pixel]
#   8 B_IMAGE                Profile RMS along minor axis                               [pixel]
#   9 FLUX_RADIUS            Fraction-of-light radii                                    [pixel]
#  10 FLUXERR_APER           RMS error vector for aperture flux(es)                     [count]
#  11 MAG_APER               Fixed aperture magnitude vector                            [mag]
#  12 NUMBER                 Running object number                                     
 4.66   0.0006     53.3701     63.9065   0.33     147595.8     5.346     4.847     16.199     83.74603  15.1273          1
 4.79   0.0038     16.7161    985.4154 -86.84     24149.42     3.984     2.201      8.764     83.80292  17.0927          2
 5.07   0.0045     18.1894     91.5415  86.21     20265.75     2.215     2.110      5.685     83.83134  17.2831          3
 3.50   0.0017     14.9013   1446.0841 -41.38     52672.67     2.448     2.348      4.695     83.68911  16.2460          4
 3.50   0.0004     60.0040   1078.7539 -68.39     238701.5     2.944     2.936      5.042     83.83134  14.6054          5
 7.01   0.0208     25.0118    367.4980 -87.68      4373.47     1.484     1.238      5.204     83.73655  18.9479          6
 3.50   0.0000    182.2392   1107.8169 -37.57      2372452     4.759     4.425      9.601     83.81239  12.1120          7
 8.46   0.0348     34.7508   1109.7596  72.02     2611.556     0.859     0.352      4.560     83.80292  19.5078          8
 3.50   0.0004     80.3017    537.8538 -63.57     229553.9     2.884     2.811      5.053     83.69859  14.6478          9
 5.64   0.0107     75.2082    128.0785   7.55     8476.551     1.848     1.579      4.895     83.80292  18.2295         10
 3.50   0.0003    122.0068    789.4358 -48.27     341518.2     3.024     2.920      5.006     83.79344  14.2165         11
 5.48   0.0072     96.8864     56.4073 -71.89     12654.12     1.997     1.926      5.896     83.77448  17.7944         12
 7.78   0.0196     90.1377    376.6794 -84.05      4647.96     1.663     0.811      5.791     83.72706  18.8818         13
 3.50   0.0001    193.6548    318.2545 -64.86      1461984     3.604     3.206      5.089     83.78396  12.6376         14
 8.31   0.0322     98.4899    452.9708   1.55     2821.153     0.801     0.500      4.803     83.75552  19.4239         15
 3.50   0.0005    162.6065   1468.6003 -48.91     194007.8     2.857     2.740      4.887     83.74603  14.8305         16
 4.30   0.0021    170.5437    877.6212 -24.83     43435.01     2.450     2.384      5.201     83.81239  16.4554         17
 4.81   0.0007    234.9494    403.9689 -40.42     134824.6     6.462     5.517     20.859     83.81239  15.2256         18
 7.66   0.0325    166.7667    104.6338 -51.15     2803.821     1.190     0.814      4.196     83.82187  19.4306         19
 7.78   0.0208    165.0963   1446.3479 -19.74     4364.472     0.931     0.682      4.843     83.70808  18.9502         20
 7.36   0.0159    192.8807   1350.2953 -39.52     5710.286     1.495     1.122      8.417     83.70808  18.6584         21
 5.87   0.0050    211.0185    828.4678  -4.65     18249.65     3.453     2.315     11.627     83.81239  17.3969         22
 5.29   0.0100    206.7520    549.3409 -45.49     9110.672     1.916     1.730      4.684       83.765  18.1511         23
 4.92   0.0099    212.4464   1306.3748 -86.34     9183.175     1.854     1.649      4.621     83.82187  18.1425         24
 6.31   0.0057    230.1041    562.0859 -34.65     16077.72     3.211     2.625     12.464     83.68911  17.5344         25
 7.04   0.0150    209.0439    349.7184   5.59     6045.271     2.056     1.260      9.084     83.74603  18.5965         26
 3.50   0.0002    260.0271    997.7144 -32.96     592471.9     3.108     3.027      5.009     83.77448  13.6183         27
 4.71   0.0087    224.0652   1226.2837 -20.72     10429.35     1.857     1.718      4.334     83.72706  18.0044         28
 9.06   0.0342    210.5037    683.9939 -32.35     2659.806     0.790     0.316      3.191       83.765  19.4879         29
 8.20   0.0196    221.4668    346.4656  46.51     4628.914     1.425     1.262      8.548     83.72706  18.8863         30
 3.50   0.0002    266.0551     67.7294 -46.53     437369.2     3.069     2.956      5.028     83.74603  13.9479         31
 6.58   0.0256    223.0545    774.9872  32.06     3556.741     1.233     1.218      4.293     83.82187  19.1724         32
 7.21   0.0134    243.5259    113.3848 -72.38      6810.02     2.132     1.609     10.166     83.84082  18.4671         33
 5.38   0.0052    255.5203    613.4874 -34.80     17375.58     2.722     2.229      8.656     83.71758  17.4502         34
 3.50   0.0001    312.5810    439.6433 -46.91      1721138     3.341     3.242      5.242     83.79344  12.4605         35
 8.45   0.0306    239.0145    838.5069  88.39     2968.255     0.800     0.500      4.092       83.765  19.3687         36
 3.55   0.0009    287.8746   1486.6700 -37.53     103786.1     2.729     2.624      4.837     83.71758  15.5097         37
 3.54   0.0039    282.1709   1522.5713 -57.11     23212.48     2.237     2.131      4.607     83.79344  17.1357         38
 3.67   0.0012    303.2971    201.9391 -62.46      75578.2     2.638     2.559      5.007     83.72706  15.8540         39
 3.50   0.0003    318.9419    905.7490 -50.05     298765.6     2.960     2.898      5.038       83.765  14.3617         40
 5.86   0.0103    290.0642    515.4205 -43.74     8818.427     1.859     1.703      5.676     83.81239  18.1865         41
 3.50   0.0001    351.6704    891.0421 -42.49      1571821     3.363     3.241      5.109     83.77448  12.5590         42
 5.18   0.0092    294.2253   1327.8463 -64.99     9922.999     1.811     1.691      4.821     83.82187  18.0584         43
 3.50   0.0001    351.7484   1346.0500 -36.39      1492528     3.313     3.171      5.029     83.82187  12.6152         44
 8.32   0.0188    297.8438   1414.4490 -85.07     4851.067     1.301     0.486      5.079     83.80292  18.8354         45
 3.71   0.0018    322.2881    697.4871 -25.38     50328.32     2.435     2.390      4.758     83.71758  16.2955         46
 6.51   0.0214    303.0039    563.4498  87.15     4256.991     1.162     0.981      4.949     83.84082  18.9772         47
 6.06   0.0095    327.7697    595.6106 -71.53     9534.239     1.974     1.918      7.672     83.81239  18.1018         48
 4.92   0.0026    346.6015    867.2303  18.69     34785.64     2.861     2.381      8.174     83.75552  16.6965         49
 8.53   0.0232    323.2297    640.0140  -0.59     3917.963     0.698     0.421      3.834     83.82187  19.0673         50
 4.76   0.0033    356.0260    432.0794  87.11     27971.06     2.496     2.332      6.981     83.78396  16.9332         51
 4.17   0.0018    368.3613    761.2231 -35.81     51865.52     2.615     2.420      5.179     83.80292  16.2628         52
 6.36   0.0186    350.1034     54.6538 -21.73     4878.664     1.382     1.164      4.637     83.72706  18.8292         53
 4.87   0.0046    367.4929    442.9348 -35.45     19845.45     2.199     2.160      5.426     83.75552  17.3058         54
 4.78   0.0096    361.4933   1500.6189 -39.83     9428.659     1.812     1.670      5.013     83.77448  18.1139         55
 3.50   0.0004    395.3764    231.6054 -61.83       254045     2.946     2.880      5.041     83.78396  14.5377         56
 7.80   0.0373    361.1692   1034.1797  42.65     2437.736     0.767     0.572      4.133     83.77448  19.5825         57
 5.65   0.0694    381.0497      1.7524  88.80     1020.561     2.135     0.727      5.963     65.24786  20.5279         58
 8.06   0.0301    372.7130    992.8636 -66.61     3019.447     0.965     0.672      4.191     83.73655  19.3502         59
 4.12   0.0022    398.3277    354.7166   5.68      41290.4     2.419     2.381      4.907     83.71758  16.5104         60
 3.64   0.0025    397.4610   1461.3257 -23.83     36427.97     2.404     2.266      4.682     83.75552  16.6464         61
 3.50   0.0004    419.8367    433.5835 -58.69     232054.3     2.834     2.817      5.022     83.81239  14.6360         62
 3.51   0.0008    415.8958    837.5114 -48.18     112145.6     2.714     2.631      4.835     83.68911  15.4255         63
 3.84   0.0105    393.8893   1088.9030 -24.19     8695.972     1.829     1.746      4.336     83.68911  18.2017         64
 5.52   0.0541    412.5150      2.1003  89.26     1339.208     3.144     1.055      8.364     66.66882  20.2329         65
 8.72   0.0253    398.0094    626.0000  90.00     3595.091     0.853     0.289      4.010     83.74603  19.1607         66
 3.50   0.0001    461.3327    807.6813 -41.80     719819.8     3.125     3.024      4.868     83.72706  13.4069         67
 3.93   0.0045    424.4247    926.5838 -73.49     20120.61     2.218     2.075      4.785     83.77448  17.2909         68
 3.54   0.0011    438.2094    252.3092 -22.94     82639.62     2.667     2.585      5.034     83.75552  15.7570         69
 7.96   0.0191    421.4103    159.0942  66.35     4767.673     1.299     1.123      6.416     83.75552  18.8542         70
 4.92   0.0136    433.2141   1422.2384  75.75     6699.734     1.587     1.455      4.664     83.81239  18.4849         71
 4.58   0.0035    450.5570     21.3708 -80.62     26343.15     2.283     2.197      5.639     83.82187  16.9983         72
 4.48   0.0031    457.9465     34.5625 -25.31     29582.91     2.433     2.277      5.039     83.79344  16.8724         73
 5.57   0.0042    467.9408    850.8246  23.70      21714.6     6.481     2.304     19.282     83.82187  17.2081         74
 9.10   0.0349    434.5980    150.8039  18.87     2608.206     0.771     0.446      4.059       83.765  19.5091         75
 6.79   0.0328    440.1227    306.1780 -32.48     2773.733     1.137     0.800      4.063     83.79344  19.4423         76
 7.63   0.0213    445.2960    122.4233  33.99      4261.13     1.291     0.942      5.786       83.765  18.9762         77
 8.37   0.0216    447.9803    885.2001  17.76     4213.603     1.345     0.552      6.725     83.78396  18.9884         78
 4.64   0.0097    463.8789    468.8594  55.78     9355.027     1.963     1.724      5.171     83.75552  18.1224         79
 4.62   0.0077    472.3755    735.0891  25.44     11742.89     1.930     1.809      4.769       83.765  17.8756         80
 5.75   0.0109    471.6077    254.6995  85.35      8356.59     1.743     1.651      5.331     83.74603  18.2449         81
 7.46   0.0290    461.1063   1097.1104  75.57     3136.514     0.975     0.702      4.961     83.70808  19.3089         82
 3.93   0.0060    478.1623    923.1752 -38.12      15123.2     2.130     1.850      4.550     83.80292  17.6009         83
 5.27   0.0157    478.3757   1277.2144 -76.28      5794.25     1.623     1.316      4.819     83.77448  18.6425         84
 4.68   0.0143    484.0925   1070.7201 -63.60      6375.31     1.691     1.476      4.301     83.73655  18.5387         85
 6.81   0.0083    495.7200     82.9163 -84.39     10918.43     2.354     1.996      8.757     83.73655  17.9546         86
 5.93   0.0083    495.9522   1186.4457  -9.05     10974.26     2.797     1.785      8.940     83.82187  17.9491         87
 4.76   0.0012    533.2038    519.0621  37.98     75178.16     4.396     3.915     14.656     83.84082  15.8598         88
 3.71   0.0014    512.7703   1302.9841   1.53     64877.26     3.214     2.410      6.121     83.81239  16.0198         89
 7.82   0.0139    504.2839    762.8732 -18.39     6562.504     1.322     1.098      6.836     83.72706  18.5073         90
 6.13   0.0226    502.7135    863.6923  -7.41     4028.383     1.318     0.852      4.246     83.70808  19.0372         91
 4.70   0.0068    515.7469   1461.2188  20.18     13361.45     3.707     1.729     10.119     83.81239  17.7354         92
 7.98   0.0258    509.8079    166.5956  70.58      3523.96     0.763     0.446      4.001     83.77448  19.1824         93
 8.01   0.0709    509.5138    454.4899 -44.65     1282.174     0.503     0.496      3.021     83.71758  20.2801         94
 8.05   0.0232    513.6719   1179.6215  13.08     3928.917     1.164     0.603      4.537     83.83134  19.0643         95
 3.50   0.0001    588.1991   1315.9669 -38.53      1608212     3.254     3.137      4.932     83.77448  12.5341         96
 8.59   0.0319    518.5825    643.1854 -19.40     2848.531     0.773     0.446      4.635     83.78396  19.4134         97
 3.93   0.0100    540.4721   1000.0886 -46.92     9089.998     1.999     1.628      4.586     83.72706  18.1536         98
 4.56   0.0073    559.1486   1041.7238 -49.55     12396.45     1.905     1.756      4.762     83.72706  17.8168         99
 3.87   0.0025    572.9556   1242.8220 -28.33     36845.95     2.382     2.281      4.967     83.80292  16.6340        100
 3.50   0.0000    631.4180    483.3808 -44.31      2481747     3.471     3.329      5.415     83.78396  12.0631        101
 4.00   0.0018    580.9852    144.9868 -62.85     49633.03     2.482     2.376      4.942     83.78396  16.3106        102
 5.98   0.0108    571.3608     45.9273  64.65     8407.461     2.063     1.660      6.424     83.77448  18.2383        103
 3.88   0.0018    582.3660    319.3436 -29.95     49546.95     2.531     2.405      4.975     83.80292  16.3125        104
 6.00   0.0106    571.9494   1447.6144  45.99     8602.615     1.879     1.528      6.979     83.81239  18.2134        105
 4.89   0.0039    596.9901    782.7942  84.19     23522.88     3.294     3.137     10.315     83.75552  17.1213        106
 7.19   0.0129    575.0060   1336.7366 -69.33     7058.197     1.694     1.614     10.161     83.83134  18.4283        107
 6.96   0.0272    584.8660     75.8078  79.67     3353.124     1.095     0.859      4.093     83.84082  19.2364        108
 4.47   0.0157   1001.7277   1555.5181 -34.07      5804.11     1.504     1.278      4.033     83.71758  18.6407        109
 8.60   0.0151   1598.7208    655.0220  -1.97     4862.104     0.741     0.679      4.445     67.54467  18.8329        110
 5.55   0.0123   1565.9288    784.8401  77.23     7392.934     1.810     1.476      5.764     83.78396  18.3780        111
 3.50   0.0003   1558.1409    487.7713 -79.67     297903.2     2.884     2.853      4.927     83.81239  14.3648        112
 5.16   0.0204    886.1887   1500.2479 -31.93     4459.008     1.475     1.194      4.310     83.81239  18.9269        113
 6.66   0.0148    877.9839   1177.5114 -16.81     6141.672     1.390     1.207      7.055     83.77448  18.5793        114
 3.50   0.0001    859.6315   1224.5569 -40.22      1485232     3.278     3.133      4.916     83.82187  12.6205        115
 6.45   0.0179    868.6469    939.6868  10.70     5093.279     1.646     0.960      6.084     83.75552  18.7825        116
 6.52   0.0204    860.1113   1157.0590  81.66     4463.938     1.303     0.900      4.375     83.73655  18.9257        117
 8.81   0.0236    859.0093   1339.4808 -89.34     3862.127     0.801     0.500      4.304     83.77448  19.0829        118
 4.62   0.0066    869.8472   1103.8760 -38.57     13702.49     2.090     1.909      6.171     83.74603  17.7080        119
 6.04   0.0151    843.8174   1106.2993  23.41     6014.278     1.522     1.174      5.375     83.75552  18.6020        120
 7.61   0.0331    845.0912   1064.6450  19.49     2749.857     0.955     0.682      4.589     83.72706  19.4517        121
 5.90   0.0089    838.1814   1246.9702 -20.17     10219.29     1.978     1.742      8.811     83.79344  18.0264        122
 5.51   0.0122    836.7602    298.9550 -65.05     7459.391     1.834     1.556      5.073     83.79344  18.3682        123
 3.69   0.0027    823.2612    654.5356 -35.60     33590.36     2.359     2.282      4.811     83.74603  16.7345        124
 3.67   0.0029    803.4128   1378.7422 -54.00        30865     2.300     2.183      4.689     83.81239  16.8263        125
 3.50   0.0010    798.7738    695.8101 -84.75     88379.27     3.076     2.543      5.994     83.78396  15.6841        126
 5.04   0.0063    800.9283     41.3083 -29.45     14321.22     2.080     1.919      5.235     83.73655  17.6600        127
 5.20   0.0071    774.6801   1427.5056 -73.06     12879.64     2.432     2.040      8.383     83.72706  17.7752        128
 6.16   0.0132    766.9759    392.1918  19.80     6916.869     1.712     1.448      5.660     83.78396  18.4502        129
 4.96   0.0117    742.9076    556.5101 -23.97     7775.705     1.705     1.658      4.773     83.70808  18.3232        130
 3.50   0.0000    724.3961    405.0894 -41.01      1932010     3.434     3.279      5.208     83.75552  12.3350        131
 7.44   0.0288    738.0159   1157.9910 -44.70     3156.333     0.909     0.532      3.491     83.74603  19.3020        132
 6.06   0.0291    736.1520    649.9449 -39.82     3127.879     1.234     0.944      4.289     83.78396  19.3119        133
 3.50   0.0003    726.8686    848.5687 -57.32     344734.1     2.984     2.915      4.951     83.79344  14.2063        134
 5.12   0.0160    727.7788   1178.4082 -13.06     5669.814     1.537     1.448      4.558     83.77448  18.6661        135
 4.33   0.0128    716.0901    808.4656 -15.44     7103.935     1.606     1.513      4.503     83.75552  18.4213        136
 4.84   0.0127    709.1076   1164.1731 -23.00      7174.17     1.652     1.382      4.524     83.75552  18.4106        137
 5.30   0.0107    704.4922   1339.0616 -15.57     8490.589     1.766     1.733      6.641     83.75552  18.2277        138
 3.59   0.0070    703.0034    952.5806  46.55     12920.43     1.868     1.843      4.399     83.77448  17.7718        139
 8.49   0.0170    691.0121   1214.2306  71.87     5366.021     1.013     0.760      6.078     83.81239  18.7259        140
 4.37   0.0085    685.7341    644.3630  89.09     10649.66     2.081     1.796      5.143     83.79344  17.9817        141
 7.36   0.0092    683.1537    472.2704 -85.37     9866.483     2.308     2.158     12.596       83.765  18.0646        142
 6.11   0.0094    681.5815    543.7034 -69.59     9712.484     2.273     1.857      9.107       83.765  18.0817        143
 3.50   0.0003    648.6836   1464.4570 -40.95     339737.6     2.942     2.859      4.813     83.74603  14.2221        144
 7.64   0.0269    654.4812    871.4532   0.21     3382.058     1.120     0.500      4.386     83.72706  19.2270        145
 4.29   0.0070   1542.6431    654.8121 -45.38     12909.06     2.035     1.962      5.187     83.79344  17.7728        146
 3.84   0.0017    639.9423    536.9742 -83.24     53241.75     2.556     2.431      5.033     83.81239  16.2344        147
 6.89   0.0269    630.9633    806.3074   1.12     3385.609     1.247     0.766      4.398     83.73655  19.2259        148
 4.40   0.0157    623.5655   1581.1472 -50.13     5783.646     1.500     1.436      3.988     83.81239  18.6445        149
 4.98   0.0152    605.5164    586.4456  53.86     5993.659     1.543     1.389      4.341     83.75552  18.6058        150
 3.50   0.0003   1563.8098    304.2241 -45.62     300292.2     2.923     2.836      4.898     83.78396  14.3561        151
 6.05   0.0121    896.0804    538.6010  44.70     7493.615     1.940     1.683      6.658     83.80292  18.3633        152
 6.31   0.0171   1561.8214    861.9495 -23.36     5333.158     1.254     1.102      4.768     83.80292  18.7325        153
 7.94   0.0206    888.6888    325.7478 -26.08      4417.76     1.100     0.556      4.720     83.73655  18.9370        154
 4.17   0.0131   1585.0242   1108.9159 -36.40      6948.41     1.570     1.469      4.449     83.78396  18.4453        155
 3.90   0.0051   1541.9293    134.9480 -79.12     17795.43     2.113     2.001      4.563     83.75552  17.4242        156
 4.35   0.0107   1570.5538     92.6839 -82.82     8523.156     1.675     1.601      4.627     83.75552  18.2235        157
 3.90   0.0083   1566.7479     22.0650  46.46     10966.31     1.904     1.724      4.639     83.75552  17.9498        158
 3.65   0.0010   1552.8644    682.3029 -26.94     89067.19     4.577     4.079     11.204     83.75552  15.6757        159
 4.79   0.0173   1546.1251    863.1489   0.94     5247.119     1.559     1.136      4.960     83.72706  18.7502        160
 5.99   0.0043    879.3414    224.6320  89.38     21009.47     6.321     2.205     17.347     83.80292  17.2440        161
 3.50   0.0012    930.0131   1178.5142 -35.58     77391.43     2.638     2.492      4.714     83.78396  15.8283        162
 4.34   0.0028    900.7332    303.0154 -33.42     32801.59     2.396     2.249      5.068     83.82187  16.7603        163
 4.78   0.0156    928.9879   1322.4180  -2.86     5824.145     1.448     1.229      4.656       83.765  18.6369        164
 3.50   0.0002    880.6500   1592.4626 -67.28     579549.7     3.022     2.865      4.753     83.77448  13.6423        165
 3.50   0.0000    882.3133    184.0869 -36.96      2476330     3.661     3.466      6.654     83.71758  12.0655        166
 3.50   0.0006   1507.2863    269.3642 -55.26       162691     2.776     2.727      4.836     83.77448  15.0216        167
 3.50   0.0023   1514.9552    392.6727 -40.13     39998.99     2.408     2.298      4.593     83.74603  16.5449        168
 6.84   0.0221   1504.2517    723.3992   3.72     4114.812     1.245     1.100      4.641     83.84082  19.0141        169
 3.81   0.0221    913.3832    838.5964 -70.89     4107.768     1.416     1.182      3.849     83.75552  19.0160        170
 8.38   0.0247    937.4312    515.9896 -41.76      3678.77     1.719     0.336      3.697     83.80292  19.1357        171
 4.66   0.0094    939.6102   1067.3234  62.99      9684.43     1.767     1.675      4.661     83.83134  18.0848        172
 8.40   0.0229    951.9966    655.0145  45.79       3976.7     0.916     0.532      5.494     83.75552  19.0512        173
 7.40   0.0135    986.9854    454.1955 -72.89     6724.734     1.665     1.351      9.992     83.74603  18.4808        174
 7.21   0.0171    981.2272    797.9749 -40.12      5318.56     1.370     1.138      6.405     83.79344  18.7355        175
 4.04   0.0051   1435.4056    224.8692  69.60     17927.39     2.071     2.012      4.801     83.83134  17.4162        176
 3.50   0.0004   1040.5176    633.2557 -56.50     216257.3     2.915     2.790      4.978     83.73655  14.7126        177
 8.83   0.0258   1036.6763    122.0085  28.11     3526.506     0.911     0.211      2.728     83.82187  19.1816        178
 8.07   0.0243   1410.2239    350.8887 -55.08     3746.699     1.111     0.518      4.388     83.77448  19.1159        179
 7.12   0.0163   1059.8051    727.0422  22.86     5578.464     1.446     1.211      7.020     83.81239  18.6837        180
 4.89   0.0101   1030.0771    302.9827  62.68     8968.051     2.455     1.806      7.026     83.81239  18.1683        181
 3.52   0.0069   1439.8595    619.2115 -53.38      13189.9     2.028     1.867      4.343     83.82187  17.7494        182
 7.53   0.0196   1400.9907   1031.1080  62.47     4645.149     1.218     0.964      5.510       83.765  18.8825        183
 4.32   0.0070   1390.6733    713.2567 -25.84     13073.36     2.024     1.816      4.686     83.73655  17.7590        184
 3.50   0.0024   1389.0052   1428.4016 -75.58     38230.86     2.345     2.261      4.407       83.765  16.5940        185
 6.59   0.1703   1412.4006      1.4424 -87.09     407.1451     1.521     0.491      4.503     63.85749  21.5256        186
 3.50   0.0001   1434.5811   1090.4209 -56.50     730588.7     3.109     3.046      4.769     83.78396  13.3908        187
 3.50   0.0010   1419.4752   1126.3267 -53.69     92919.44     2.719     2.604      4.894     83.73655  15.6297        188
 5.42   0.0101   1392.6332   1038.8308 -54.91     9000.643     1.710     1.553      5.487     83.81239  18.1643        189
 3.79   0.0071   1408.4124    308.4418 -34.70     12864.57     1.921     1.833      4.513     83.79344  17.7765        190
 3.50   0.0000   1366.4841   1159.1648  14.36      2972856     4.364     3.465      5.144     83.78396  11.8671        191
 5.44   0.0091   1072.7351   1218.8517 -80.91      10030.3     2.020     1.714      7.554     83.75552  18.0467        192
 4.59   0.0106   1415.5695   1386.4916 -27.54     8553.598     1.759     1.629      4.602     83.74603  18.2196        193
 7.97   0.0297   1063.3893      7.1556 -33.15     3027.475     1.033     0.828      6.201     82.84972  19.3473        194
 4.38   0.0057   1089.7240    642.5345 -53.67     15945.27     2.080     1.922      4.960     83.70808  17.5434        195
 3.96   0.0031   1158.1172    236.4313 -18.82      29487.4     2.336     2.288      4.891     83.77448  16.8759        196
 3.50   0.0017   1104.7473    751.8883 -60.16     54228.48     2.538     2.428      4.766     83.71758  16.2144        197
 3.50   0.0002   1393.5439    114.3784 -51.80       407202     2.979     2.903      4.891     83.82187  14.0255        198
 8.46   0.0171   1066.1111   1562.2987 -38.50     5321.745     1.290     0.612      5.871     83.69859  18.7349        199
 7.88   0.0126   1110.6405    479.4750 -75.35     7247.694     1.692     1.063      7.842     83.77448  18.3995        200
 4.91   0.0061   1307.7799    669.7328 -45.25     15013.86     2.149     1.879      5.422     83.80292  17.6088        201
 3.57   0.0020   1372.7421   1019.0563 -12.05     44814.18     2.446     2.385      4.947     83.74603  16.4215        202
 6.34   0.0153   1330.9302   1139.6189 -53.82     5966.524     1.784     1.272      7.820     83.82187  18.6107        203
 6.28   0.0258   1130.1913    547.1422  46.62     3527.437     1.265     0.755      4.693      83.8503  19.1814        204
 3.50   0.0006   1138.7388    148.0359 -47.60     158918.8     2.822     2.723      4.901     83.78396  15.0471        205
 4.39   0.0068   1307.7767   1036.2616 -38.97     13421.29     2.412     2.012      7.104     83.81239  17.7305        206
 8.98   0.0294   1130.7733    220.6080  71.73     3090.686     0.760     0.449      4.339     83.78396  19.3249        207
 3.82   0.0026   1107.6841    428.1483  85.15     35186.09     2.403     2.317      4.958     83.72706  16.6841        208
 3.50   0.0006   1321.1366    659.6424 -65.46     154158.7     4.111     2.738      8.405       83.765  15.0801        209
 6.21   0.0202   1333.1331    107.2922 -26.48     4492.211     1.317     1.072      4.468     83.74603  18.9188        210
 7.21   0.0288   1319.3269    264.1315 -65.56     3158.594     0.953     0.683      3.839     83.71758  19.3013        211
 3.54   0.0042   1278.3237   1331.2803   7.28     21824.44     2.141     2.047      4.460     83.75552  17.2026        212
 4.35   0.0199   1293.0660    413.0294 -70.67     4580.169     1.479     1.346      4.450     83.78396  18.8978        213
 6.28   0.0192   1242.6903    672.8441 -59.51      4738.86     1.494     1.059      4.261     83.74603  18.8608        214
 3.50   0.0001   1298.5955    724.9852 -24.19     957861.1     3.357     3.086      5.014     83.75552  13.0967        215
 3.50   0.0000   1221.6570    995.2193 -30.89      2695087     5.188     4.768     10.317     83.79344  11.9736        216
 5.86   0.0228   1304.7373    892.9993 -78.67     3998.925     1.329     1.123      4.373     83.84082  19.0451        217
 3.93   0.0025   1291.6128    762.0432 -29.50     35910.74     2.553     2.273      5.537     83.79344  16.6619        218
 3.50   0.0011   1130.1974    183.5348 -42.49     82791.18     2.670     2.529      4.858     83.83134  15.7550        219
 6.54   0.0132   1259.3177    432.5393 -13.36     6876.506     1.656     1.453      6.614     83.72706  18.4566        220
 3.77   0.0016   1273.0594    609.8814 -54.76     56105.46     4.249     2.895      9.515     83.74603  16.1775        221
 3.76   0.0054   1265.7656    807.8748 -45.06     16876.15     2.118     1.967      4.522       83.765  17.4818        222
 3.50   0.0019   1210.8607   1278.8812  85.27     47968.68     5.420     3.530     11.796     83.72706  16.3476        223
 6.74   0.0120   1212.9182   1430.0757  76.86     7554.557     1.633     1.380      8.349     83.73655  18.3545        224
 4.91   0.0105   1237.1328   1553.4299  19.95     8636.003     1.759     1.565      4.682     83.79344  18.2092        225
 5.41   0.0126   1151.2628     99.6046 -12.84     7230.699     1.811     1.490      5.078     83.84082  18.4020        226
 7.31   0.0189   1231.0635    598.3688  16.53      4816.32     1.097     0.742      5.538     83.79344  18.8432        227
 4.50   0.0065   1234.5651    305.0172 -77.93     13923.07     1.983     1.904      4.676     83.79344  17.6907        228
 4.70   0.0104   1208.0999    839.1505  -7.95     8737.226     1.782     1.613      5.018     83.66063  18.1966        229
 4.77   0.0110   1202.1235    339.2855 -51.45     8263.991     1.778     1.628      4.842     83.70808  18.2570        230
 3.53   0.0018   1219.1207   1194.8530  28.80     49324.65     2.470     2.397      5.034     83.73655  16.3173        231
 5.48   0.0161   1201.2926   1441.9923  70.14     5638.708     1.382     1.265      5.063       83.765  18.6721        232
 4.26   0.0031   1172.8992    757.9268 -62.15     29410.14     3.505     3.444     10.029     83.70808  16.8788        233
 6.29   0.0099   1195.2961    124.1752 -65.46     9209.427     1.948     1.606      7.953       83.765  18.1394        234
 3.50   0.0009   1026.0765   1380.0057 -50.02     98815.63     2.669     2.563      4.634     83.80292  15.5629        235
 4.94   0.0200   1096.1345   1526.9423   4.26     4540.047     1.286     1.229      4.313     83.74603  18.9073        236
 3.50   0.0004   1165.4862   1299.7622 -46.94     255357.9     2.874     2.794      4.772     83.77448  14.5321        237
 3.50   0.0012   1214.8379    513.1538 -61.10     75094.69     2.667     2.560      4.846     83.80292  15.8610        238
 6.38   0.0183   1153.6172   1352.6188   9.39     4961.359     1.278     0.992      5.211     83.78396  18.8110        239
 5.96   0.0083   1120.4965    330.1535  52.06     10953.83     2.393     1.893      7.997     83.68911  17.9511        240
 3.50   0.0000   1151.9579    693.9688 -40.83      3025684     3.473     3.326      5.395     83.82187  11.8479        241
 6.55   0.0258   1161.9502    887.8767 -18.24     3519.309     1.108     0.852      4.767     83.72706  19.1839        242
 5.80   0.0104   1203.5452   1075.3683  82.62     8719.179     1.833     1.518      6.708     83.80292  18.1988        243
 6.28   0.0307   1181.4033    549.7607 -87.22     2962.928     1.505     0.718      4.538     83.78396  19.3707        244
 9.54   0.0346   1080.4822    330.5127 -44.64     2629.106     0.506     0.494      3.035     83.73655  19.5005        245
 3.50   0.0005   1080.1893    512.2960 -62.36     168452.8     2.827     2.748      4.901     83.75552  14.9838        246
 3.50   0.0006   1095.2242    778.2455 -43.44     153006.3     2.824     2.731      4.980     83.82187  15.0882        247
 3.50   0.0019   1082.0486   1148.2305 -27.05     49141.39     2.480     2.396      4.665     83.81239  16.3214        248
 3.50   0.0021   1038.8699    525.6148 -68.20        44080     2.465     2.373      4.835     83.84082  16.4394        249
 7.76   0.0279   1073.1113      6.8627  41.02     3207.079     0.834     0.672      4.027     82.26283  19.2847        250
 4.47   0.0204   1000.2449   1273.9552 -45.55     4467.503     1.259     1.126      3.988     83.80292  18.9248        251
 3.50   0.0011   1010.0789    813.8175 -76.17     84697.38     2.620     2.592      4.805     83.81239  15.7303        252
 3.50   0.0000   1023.8043     50.3221 -46.35      2221867     3.465     3.295      5.085     83.79344  12.1832        253
 3.50   0.0006    985.1698    558.6539 -50.76     150338.9     2.812     2.722      4.908     83.80292  15.1073        254
 4.16   0.0070   1011.7323    344.9422 -57.72     12950.01     2.070     1.908      4.798     83.74603  17.7693        255
 4.46   0.0064   1002.0021    542.7068 -48.16      14174.3     2.015     1.939      5.034     83.74603  17.6712        256
