#   1 KRON_RADIUS            Kron apertures in units of A or B                         
#   2 Y_IMAGE                Object position along y                                    [pixel]
#   3 MAG_BEST               Best of MAG_AUTO and MAG_ISOCOR                            [mag]
#   4 FLUX_BEST              Best of FLUX_AUTO and FLUX_ISOCOR                          [count]
#   5 X_IMAGE                Object position along x                                    [pixel]
#   6 THETA_IMAGE            Position angle (CCW/x)                                     [deg]
#   7 A_IMAGE                Profile RMS along major axis                               [pixel]
#   8 B_IMAGE                Profile RMS along minor axis                               [pixel]
#   9 MAGERR_BEST            RMS error for MAG_BEST                                     [mag]
#  10 NUMBER                 Running object number                                     
#  11 FLUXERR_BEST           RMS error for BEST flux                                    [count]
 3.87     54.0659  16.4653     43039.33     63.4899  10.31     5.081     4.648   0.0049          1     193.5732
 3.50     17.6085  18.6403     5805.802    984.8859 -88.11     4.180     1.842   0.0188          2     100.5567
 3.50     18.7843  19.0752     3889.878     91.0677 -71.47     1.673     1.595   0.0165          3     59.01929
 3.50     15.4372  18.0445     10050.34   1445.5699 -58.56     1.765     1.663   0.0067          4     62.36261
 8.71      7.7679  21.9630     272.1436   1469.4524 -68.75     0.745     0.449   0.2050          5     51.35972
 5.07      4.5796  21.5627     393.4686    145.2529  45.23     1.230     0.964   0.1514          6     54.86184
 7.04     10.4945  22.4727     170.1913   1183.4982  44.89     0.503     0.497   0.2164          7     33.90899
 3.50     60.5844  16.3526     47747.46   1078.2451  78.79     2.095     1.992   0.0017          8     73.32869
 7.80     14.3363  22.8391     121.4445    839.6812  45.80     0.572     0.336   0.3206          9     35.84818
 3.74     25.5083  20.7690     817.3215    367.0248 -44.59     1.386     1.224   0.0656         10     49.34483
 4.02     17.9750  21.8074     314.0653    384.0877  -6.22     1.065     0.750   0.1288         11     37.23637
 7.96     24.5876  21.5050     414.9653    383.1619  87.84     1.000     0.715   0.1807         12     69.05338
 7.77     35.5276  21.5167     410.5007   1110.5074  83.69     1.018     0.640   0.1713         13     64.75692
 6.92     34.3290  21.3265     489.1188    326.4467 -55.25     1.064     0.824   0.1489         14     67.06581
 5.72     38.8936  21.7550     329.6219   1521.2977  57.82     1.154     0.680   0.1714         15     52.01401
 3.50     40.2370  22.9502      109.632   1226.1660 -45.15     0.973     0.347   0.1996         16     20.14494
 5.89     39.8462  21.8727      295.733   1170.4801  -0.96     0.941     0.732   0.1862         17     50.69699
 5.61     45.8528  21.6096     376.8439    440.1219 -39.18     1.403     1.002   0.1969         18     68.31482
 3.50     43.2798  21.9858     266.4944    915.3459 -44.82     1.174     0.700   0.1298         19     31.85195
 3.50     80.9599  16.4075     45394.93    537.4124 -67.89     2.020     1.918   0.0017         20     71.22312
 6.55     51.1657  22.3406      192.203    265.9853  36.65     0.939     0.465   0.2566         21     45.41928
 6.43     51.0299  22.4866     168.0188   1435.2108 -33.32     0.788     0.497   0.2604         22     40.28988
 6.81     49.3377  23.0578     99.28271   1233.6754  45.58     0.575     0.334   0.3305         23     30.21741
 3.50     75.9613  20.1522     1442.472    127.6706  65.45     1.364     1.260   0.0350         24     46.52275
 5.74     82.8388  21.5232     408.0624    421.4473 -51.35     1.212     0.808   0.1563         25     58.73209
 4.96     91.5984  20.6381     922.0233    376.7576 -72.96     1.865     1.539   0.1018         26     86.45129
 3.50    122.5939  15.9763     67528.06    788.9185 -58.39     2.100     1.956   0.0012         27     72.86604
 3.56     97.3459  19.6475     2296.112     56.0111  -6.65     1.519     1.385   0.0254         28     53.61481
 6.17     92.9185  21.7454     332.5327    495.8493  75.14     1.341     0.684   0.1974         29     60.43482
 6.08     98.7694  21.0094     654.9955    452.5779 -24.86     1.703     0.981   0.1346         30     81.20685
 8.03    114.3488  22.5341     160.8278    270.3333 -45.61     0.584     0.329   0.2545         31     37.68773
 7.06    117.8673  22.5215     162.7122     66.8318  46.85     0.748     0.562   0.3153         32     47.24407
 6.06    118.7044  23.0265     102.1876    990.6282 -41.71     0.576     0.332   0.2964         33     27.88941
 8.26    118.5058  22.6923     139.0233    154.4909  45.33     0.502     0.498   0.3276         34     41.93504
 3.50    163.1394  16.5986     38067.15   1468.1359 -60.49     1.999     1.918   0.0020         35     70.02601
 5.15    132.4923  22.4044     181.2296    418.0414   0.53     0.805     0.500   0.2120         36     35.37335
 3.50    171.1355  18.2278     8489.137    877.1223 -68.19     1.765     1.708   0.0080         37     62.36261
 6.86    152.5081  22.5264     161.9705   1279.9960  -1.46     0.803     0.500   0.2918         38     43.51804
 3.58    165.8672  20.9348     701.5527   1445.5352  -0.27     1.320     1.134   0.0697         39     45.04546
 4.17    167.5935  21.2447      527.382    104.3066 -28.86     1.173     1.010   0.0943         40     45.79006
 5.08    170.4301  22.1859     221.6414   1368.2188 -47.27     1.080     0.717   0.2262         41     46.15786
 5.71    169.4399  22.9379      110.875    651.5150 -35.83     0.503     0.493   0.2904         42     29.65255
 4.38    181.2359  21.9611      272.624    574.8821  23.27     1.275     0.773   0.1794         43     45.04546
 4.34    193.3881  20.6534     909.1212   1350.3932 -35.34     1.357     1.131   0.0663         44     55.47484
 8.45    186.9875  21.4974     417.8652   1354.0367 -74.12     0.796     0.783   0.1775         45     68.31482
 3.65    211.5628  18.9734         4272    827.4517  -6.95     3.903     1.922   0.0262         46     103.0481
 3.50    207.5028  19.9467     1743.152    548.9205 -81.19     1.547     1.367   0.0320         47     51.35972
 3.50    211.4505  21.3033     499.6577    684.4575 -82.33     1.680     1.042   0.1065         48     49.00095
 3.50    212.9739  20.0113     1642.415   1305.9010  53.86     1.403     1.346   0.0319         49     48.30587
 4.26    231.0617  19.0221      4084.75    562.2328  -9.15     3.351     2.841   0.0359         50     135.1364
 3.50    204.4279  23.0602     99.06311   1498.4841 -36.26     0.505     0.489   0.2208         51     20.14494
 8.15    205.6816  22.9023     114.5742    937.0054 -28.40     0.896     0.214   0.3572         52     37.68773
 3.61    224.5214  19.7313     2125.636   1225.8654 -53.91     1.549     1.417   0.0282         53     55.16919
 3.50    260.5747  15.5221     102607.6    997.2193 -61.30     2.158     2.026   0.0008         54     74.47273
 3.50    266.7132  15.7061     86609.22     67.3777 -78.85     2.116     1.998   0.0009         55     73.55892
 3.50    223.2263  21.2248     537.1362    774.7523 -19.32     1.202     1.068   0.0831         56     41.12069
 7.24    219.2476  22.2998     199.5547    740.7269 -18.84     0.845     0.353   0.2215         57     40.70741
 4.29    244.2685  20.1714     1417.187    112.8207  77.16     2.123     1.544   0.0609         58     79.52362
 4.43    256.2211  19.1358     3678.694    612.7919 -37.89     2.500     1.801   0.0286         59     96.78661
 5.85    239.8068  21.3655     471.8412    838.5142 -15.30     1.259     0.961   0.1514         60      65.7931
 4.86    240.0475  22.6228     148.2046   1478.8186 -53.94     0.940     0.464   0.2411         61     32.89655
 6.94    251.4614  21.2595     520.2554    107.4959 -45.23     1.084     0.836   0.1426         62     68.31482
 6.35    252.5684  21.6712     356.0705   1372.6412 -34.52     1.181     0.845   0.1380         63     45.24087
 3.50    288.3401  17.2920     20099.77   1486.2775 -54.62     1.867     1.775   0.0036         64      65.7931
 4.01    254.0000  22.6105     149.9038   1352.5071   0.00     1.051     0.289   0.1685         65     23.26137
 3.50    282.7326  18.9893     4209.976   1522.1934 -43.51     1.560     1.487   0.0143         66     55.47484
 6.90    271.2608  21.3161     493.8074   1273.5475 -11.09     1.161     0.926   0.1618         67     73.55892
 3.50    303.9948  17.6247     14794.71    201.5974 -73.98     1.829     1.713   0.0047         68     64.49528
 6.05    294.2973  21.0856     610.6133   1475.4902 -66.12     1.169     0.976   0.1188         69     66.81321
 3.50    302.8704  20.9567     687.5792    563.5295  64.72     1.317     1.259   0.0717         70     45.41928
 3.50    322.8517  18.0951     9592.962    697.1325 -67.45     1.711     1.657   0.0068         71     60.15438
 6.40    309.7060  21.1136     595.0498     85.4069 -81.45     1.983     0.885   0.1606         72     88.00211
 4.29    322.2261  20.8696     744.9862    641.0490 -74.76     2.205     1.229   0.1062         73     72.86604
 4.27    328.1181  19.9874     1678.923    595.2687 -49.81     1.622     1.556   0.0447         74     69.05338
 5.36    317.8036  22.7051     137.3962    226.3809 -71.76     0.752     0.447   0.2475         75     31.31658
 5.35    332.8581  21.4647     430.6526     93.4377  -7.83     1.068     0.836   0.1336         76      52.9803
 4.19    330.3325  22.1613     226.7234   1545.6162  -6.15     0.994     0.631   0.1600         77      33.4066
 3.50    350.8575  20.7319     845.7343     54.4747 -39.25     1.290     1.224   0.0574         78      44.6685
 5.14    348.6108  22.4368     175.9066     42.2829 -59.05     0.983     0.545   0.2435         79     39.44158
 3.50    368.9763  18.0604      9904.65    760.8814 -55.04     1.738     1.635   0.0066         80     59.87262
 3.50    362.0320  19.9851     1682.575   1500.1699  10.20     1.429     1.398   0.0325         81     50.36235
 3.50    396.0084  16.3053     49872.54    231.2756 -59.51     2.003     1.932   0.0015         82     70.02601
 3.50    361.5096  21.6989     347.0721   1033.6727 -46.62     1.047     0.903   0.1077         83     34.40403
 3.55    374.0851  21.6336     368.5887   1083.9071 -43.95     1.458     0.919   0.1247         84     42.33634
 6.13    369.9420  22.4047     181.1879    210.5096  87.58     0.786     0.499   0.2364         85     39.44158
 6.59    371.1455  21.5942     382.2365     71.4292 -16.36     1.204     0.716   0.1802         86     63.43791
 6.30    376.9420  21.1244     589.1725    753.8722  42.08     1.653     0.852   0.1422         87     77.14925
 3.50    397.8753  18.4890     6674.511   1461.0035 -57.52     1.678     1.607   0.0096         88     58.73209
 5.17    376.6144  22.0463     252.0508     86.3840  23.01     1.364     0.457   0.1807         89     41.93504
 3.50    398.9595  18.2934      7991.57    354.4040 -56.85     1.757     1.640   0.0084         90     61.81795
 5.97    380.9103  22.1785     223.1604    125.6369 -22.70     0.902     0.682   0.2368         91     48.65465
 3.50    394.4868  20.0335     1609.176   1088.6790 -16.48     1.485     1.357   0.0347         92     51.35972
 6.62    389.7516  21.8912     290.7516   1195.2408 -86.38     0.902     0.749   0.2106         93     56.38185
 6.59    390.2306  22.5656     156.2275    260.4030  71.18     0.744     0.452   0.2681         94     38.57462
 5.92    397.9349  21.4392     440.8743    626.5078  15.77     1.528     0.795   0.1664         95     67.56818
 7.14    415.6719  21.8479     302.5782      2.5615  28.95     1.141     0.754   0.1991         96     55.47484
 5.89    407.6978  22.3310     193.9131    281.6329 -82.40     1.007     0.467   0.2393         97     42.73387
 7.73    404.5130  21.7901     319.1281    526.8869  -2.02     0.784     0.499   0.1702         98     50.02547
 3.50    461.8477  15.1650     142566.7    807.3699 -55.93     2.140     2.040   0.0006         99     75.59946
 7.26    413.7131  22.1283     233.7153   1562.2982 -60.78     1.155     0.451   0.2506        100     53.92928
 3.50    438.7642  17.5347     16073.58    251.9271 -54.88     1.813     1.728   0.0043        101     63.96878
 4.91    421.8596  20.6916     877.7332    158.7295  50.88     1.660     1.444   0.0968        102     78.23744
 5.46    412.6987  23.2300     84.72412    199.3263  43.64     0.560     0.342   0.3249        103     25.34849
 6.30    419.4074  21.5592     394.7413   1203.2559   2.22     1.263     0.791   0.1789        104     65.01752
 9.11    415.3150  22.4091     180.4459    558.6299  42.87     0.584     0.328   0.2425        105     40.28988
 3.50    433.6354  20.3202     1235.747   1421.9039 -17.73     1.429     1.338   0.0440        106     50.02547
 6.72    427.7105  21.0467     632.8556   1179.3110  20.69     1.301     0.989   0.1343        107     78.23744
 5.64    420.6244  22.7097     136.8142   1579.7715  17.88     0.757     0.446   0.2692        108     33.90899
 6.59    424.9908  22.5050     165.1893   1063.9623 -82.15     0.609     0.607   0.2649        109     40.28988
 6.86    431.8513  21.4861     422.2352    717.7710 -64.53     0.930     0.895   0.1672        110     65.01752
 5.00    434.9497  21.2526     523.5544    151.0015  25.47     1.154     0.980   0.1125        111     54.24191
 8.11    427.1310  21.8346     306.2981    432.4409  -1.10     2.518     0.334   0.1661        112     46.84857
 7.74    427.6147  22.6899     139.3334    299.6916 -47.83     0.587     0.325   0.2720        113     34.89206
 4.33    468.5287  18.4080      7191.45    850.1567  22.24     7.405     1.888   0.0251        114     166.5261
 3.51    451.1122  18.7778     5115.387     21.1382 -39.37     1.703     1.572   0.0126        115      59.3051
 5.35    446.1109  20.6788     888.1101    122.1262 -32.70     1.653     1.204   0.0959        116     78.45327
 3.50    440.8153  21.2389      530.219    305.5591 -50.73     1.189     1.082   0.0842        117     41.12069
 7.22    434.6680  22.6674      142.246    353.3014  46.60     0.562     0.341   0.2432        118     31.85195
 3.50    458.6750  18.6701     5648.762     34.3958 -60.50     1.679     1.537   0.0112        119     58.15343
 5.39    444.1707  22.9095     113.8104    654.5854 -70.40     0.757     0.448   0.3139        120     32.89655
 7.52    444.6976  22.6030     150.9371    173.3044  44.88     0.551     0.345   0.2511        121     34.89206
 3.51    464.5992  19.9137     1796.897    468.4731 -73.90     1.596     1.441   0.0332        122     54.86184
 4.25    453.8175  22.2698     205.1628   1533.1399  37.40     0.789     0.678   0.1686        123     31.85195
 4.77    461.9124  21.2923     504.7633   1096.1415  54.26     1.154     1.060   0.1180        124     54.86184
 3.50    472.0581  20.1378     1461.774    254.1115 -72.83     1.524     1.321   0.0379        125     51.02943
 5.24    462.3787  21.8518     301.4846    724.6503 -28.34     1.116     0.728   0.1715        126     47.60064
 7.33    457.6994  22.5996     151.4144   1223.6606 -43.04     0.565     0.339   0.2285        127     31.85195
 3.50    472.9619  19.7191     2149.643    734.7726 -38.59     1.496     1.347   0.0258        128     51.02943
 3.50    478.7603  19.4257     2816.613    922.8173 -35.32     1.542     1.446   0.0208        129     53.92928
 3.92    478.7928  20.6074     948.4937   1276.8333 -53.34     1.380     1.256   0.0607        130      52.9803
 4.35    476.5132  22.5735     155.0928   1168.0372 -89.76     0.813     0.676   0.2304        131     32.89655
 3.50    484.9571  20.3345      1219.55   1070.4276 -66.11     1.365     1.226   0.0414        132     46.52275
 4.94    496.9649  19.6005     2397.825     82.5904  56.28     2.338     2.068   0.0508        133     112.1623
 5.47    489.7042  21.1388     581.4086    839.5638  81.89     1.979     0.873   0.1395        134     74.69944
 4.63    481.6934  22.1191      235.704   1309.1306  71.28     0.894     0.694   0.1777        135     38.57462
 3.61    479.8593  22.1466     229.8014    682.6146  17.68     1.030     0.720   0.1480        136     31.31658
 3.88    496.4434  19.7268      2134.38   1186.7407 -14.15     2.923     1.792   0.0463        137     91.02452
 4.18    531.9177  17.7395     13310.33    519.0345  19.57     4.599     2.664   0.0101        138      123.559
 5.97    481.6788  22.5541     157.8937   1520.4889  -0.10     0.921     0.467   0.2771        139     40.28988
 3.55    505.2574  20.4549     1091.504    763.0582  35.35     1.785     1.613   0.0623        140     62.63316
 3.50    516.2610  19.3191     3107.059   1461.0070  24.27     4.360     1.650   0.0338        141     96.78661
 3.50    502.7141  20.9906     666.4196    863.5473  86.71     1.246     1.113   0.0703        142     43.12774
 3.50    498.6335  21.7850     320.6306    366.2104 -49.90     1.014     0.951   0.1198        143     35.37335
 3.50    514.5807  20.9958     663.2795   1179.1083 -56.81     1.339     1.067   0.0687        144     41.93504
 5.57    510.5956  20.7817     807.8334    164.3583  -2.33     2.204     1.004   0.1146        145     85.26967
 4.31    520.2776  21.3199     492.0739    641.3948 -72.01     1.257     0.919   0.1058        146     47.95455
 8.43    511.4783  22.1947     219.8479    453.4845  44.06     0.503     0.496   0.2071        147     41.93504
 3.50    519.1761  22.3072     198.2073   1518.8835  43.19     0.828     0.669   0.1460        148     26.64925
 4.34    541.0017  19.8872     1841.339    999.7307 -58.22     1.570     1.410   0.0393        149     66.55965
 4.08    536.7367  21.8374     305.5133    404.4981  50.90     1.364     0.752   0.1505        150     42.33634
 6.50    545.6520  21.5852     385.3944    933.8276  70.97     1.235     0.753   0.1839        151     65.27707
 3.67    559.8237  19.6219     2350.838   1041.5420 -18.80     1.576     1.487   0.0273        152     59.01929
 4.48    597.4241  18.4684     6801.758    782.7071 -83.49     3.546     3.355   0.0255        153     159.4719
 4.22    571.6400  20.0598     1570.654     45.6350  59.09     1.992     1.404   0.0505        154     73.09773
 4.23    556.2178  22.4741     169.9584    778.7784  45.56     0.804     0.683   0.2035        155     31.85195
 3.50    581.4234  18.1114     9450.481    144.8262 -85.18     1.779     1.649   0.0070        156     60.99184
 3.50    572.2887  20.0112     1642.518   1448.0997  21.34     2.785     1.717   0.0523        157     79.09722
 3.95    565.5809  21.5139     411.5603    139.6900 -53.99     1.148     1.009   0.1138        158     43.12774
 3.50    582.9966  18.1047     9508.807    318.9901 -38.33     1.741     1.676   0.0070        159     60.99184
 6.39    563.6564  21.8286     308.0074    905.5596   5.49     1.049     0.627   0.1901        160     53.92928
 6.81    576.9733  20.7102     862.8112   1001.5247 -66.98     1.399     1.121   0.1115        161     88.57667
 3.50    585.4980  20.9189     711.9323     75.9934  34.12     1.282     1.160   0.0676        162     44.28833
 7.52    579.6700  22.7670     129.7817    740.6813 -45.55     0.569     0.338   0.2837        163     33.90899
 5.26   1004.8461  22.7922     126.7944   1237.8387  49.76     0.764     0.567   0.3070        164     35.84818
 4.64   1597.9813  20.7752     812.7035    655.1420 -30.36     1.787     1.341   0.0833        165     62.36261
 5.62   1595.9124  20.9124     716.1766    374.0342  41.13     1.272     1.258   0.1040        166     68.56189
 6.89   1594.0922  21.5402     401.7303   1384.9442 -19.49     1.473     0.518   0.1664        167     61.54381
 6.99   1592.8507  22.0035     262.1897    567.1038  41.77     0.836     0.671   0.2247        168     54.24191
 3.50   1586.8704  22.3003     199.4762   1069.2076 -26.32     0.977     0.733   0.1675        169      30.7719
 3.50   1564.5637  16.1102     59691.32    304.2770 -45.70     1.968     1.875   0.0013        170     69.29781
 3.51   1571.3456  19.9965     1664.983     92.7359 -46.28     1.463     1.342   0.0333        171     51.02943
 3.53   1542.6790  19.1751      3547.78    135.1462 -57.03     1.585     1.524   0.0173        172     56.38185
 4.21   1536.6472  21.4797     424.7466   1429.4083 -57.98     1.567     0.952   0.1363        173      53.2985
 5.99   1529.5508  22.0961     240.7483    733.3308  32.68     1.023     0.681   0.2346        174     52.01401
 5.85   1525.2084  21.8010     315.9497    378.9753  80.66     1.380     0.702   0.2048        175     59.58954
 3.50   1523.4841  23.0765     97.58838     14.4994  44.62     0.509     0.490   0.2242        176     20.14494
 3.50   1515.7332  18.2858      8048.07    392.7216 -44.48     1.718     1.630   0.0083        177     61.54381
 5.42   1516.1362  21.3578     475.1909   1547.0354  59.82     1.454     1.004   0.1556        178     68.06685
 5.15   1504.9113  20.5820     970.9846    723.3754 -14.58     1.267     1.119   0.0707        179      63.1708
 6.67   1504.6394  22.3785     185.6157   1312.1969 -60.47     1.233     0.361   0.2701        180     46.15786
 5.77    951.5790  20.4693     1077.169    654.1421  77.81     2.092     1.354   0.1009        181     100.0509
 6.40    952.6561  23.0575     99.31592    886.7119 -47.96     0.561     0.340   0.3179        182     29.07672
 7.15    951.1804  22.7733     129.0297    268.5884 -71.55     0.761     0.452   0.2571        183     30.54709
 3.50    948.7699  21.7936     318.0992    445.2767  -8.37     1.064     0.909   0.1191        184     34.89206
 3.72    939.9116  19.8694     1871.661   1067.0671 -40.96     1.544     1.337   0.0322        185     55.47484
 7.57    942.2939  22.5276     161.7897    725.6534  42.34     0.565     0.339   0.2208        186     32.89655
 7.34    939.1717  20.9493     692.2938    515.9602  26.89     1.277     0.921   0.1287        187     82.03551
 5.74    933.8319  22.1144     236.7247   1118.5710  12.09     0.875     0.614   0.2014        188     43.90488
 7.04    933.5328  23.0106     103.6956   1027.5371  45.25     0.516     0.481   0.3654        189     34.89206
 4.85    929.1008  20.3645     1186.265   1322.4062 -85.50     1.409     1.268   0.0607        190     66.30511
 6.25    926.4553  22.3377      192.725    665.7037 -88.92     0.928     0.456   0.2430        191     43.12774
 8.62    926.6777  22.5903     152.7112    934.3347  44.43     0.573     0.336   0.2774        192     39.01051
 6.33    919.9985  22.7567     131.0116   1027.5399  56.68     0.762     0.323   0.2727        193     32.89655
 4.47    913.5744  20.5314     1017.303    838.4932 -17.32     1.372     1.256   0.0651        194     60.99184
 3.79    913.2420  21.3870     462.5826   1000.9395 -20.76     1.238     1.013   0.1040        195     44.28833
 8.55    908.4130  21.7580     328.7065    658.8085 -20.20     0.749     0.447   0.1664        196     50.36235
 3.50    901.2190  18.5178     6499.577    302.8275 -74.14     1.692     1.590   0.0100        197     59.69742
 5.64    900.5178  23.1324     92.68872    379.4821 -45.01     0.511     0.488   0.3338        198     28.48925
 4.99    896.8900  20.0246     1622.375    538.8267  -4.29     2.156     1.581   0.0631        199     94.30902
 8.00    898.5093  22.2859     202.1373    987.5135  45.27     0.505     0.495   0.2253        200     41.93504
 4.34    894.8568  21.4025     456.0499   1425.8367 -39.55     1.211     1.023   0.1175        201     49.34483
 4.33    892.3138  23.2114     86.18738   1453.3175 -44.80     0.562     0.341   0.2538        202     20.14494
 3.50    881.0701  15.4027     114530.3   1592.5050 -66.14     2.128     1.981   0.0007        203     74.69944
 8.06    889.4891  22.1755     223.7625    680.4580  50.40     0.503     0.495   0.2035        204     41.93504
 4.20    886.5468  20.5972     957.4797   1500.5457   3.01     1.461     1.296   0.0666        205     58.73209
 4.62    885.8091  21.5948     382.0242    339.2333 -50.56     1.331     0.893   0.1469        206      51.6879
 4.58    878.3823  20.9947     663.9291    960.6887  83.41     1.256     1.192   0.0942        207     57.56896
 7.23    879.8236  22.2121     216.3423    673.3714   4.42     0.996     0.374   0.2223        208     44.28833
 5.82    877.4668  21.6840     351.8937    541.7645 -59.48     1.012     0.778   0.1655        209     53.61481
 4.43    870.1768  19.3556      3004.53   1103.6156 -61.56     2.074     1.779   0.0317        210     87.80976
 5.29    868.6845  20.3462     1206.451    939.5432  25.12     1.995     1.411   0.0826        211     91.76457
 4.87    870.6060  21.8521     301.4022    643.5376 -54.41     1.036     0.812   0.1663        212     46.15786
 4.08    889.3619  21.0297     642.8896    325.6336  17.18     1.631     1.281   0.1021        213     60.43482
 7.02    867.5193  22.6669     142.3073    454.4771 -45.32     0.506     0.493   0.2626        214     34.40403
 6.62    861.1949  22.4875     167.8839   1554.1703  42.07     0.759     0.567   0.2938        215     45.41928
 5.13    859.0752  20.9969     662.5746   1340.3101 -76.09     1.578     1.072   0.0824        216     50.27528
 6.05    856.3950  21.6844     351.7433    545.3506  53.02     1.033     0.880   0.1849        217     59.87262
 4.64    845.9663  21.0338     640.4452   1063.6743  89.16     1.197     1.105   0.0930        218     54.86184
 8.68    847.7302  21.7932     318.2097    358.9989  -0.07     0.672     0.444   0.1684        219     49.34483
 4.02    844.1765  20.2813     1280.838   1106.0085  18.02     1.649     1.396   0.0531        220     62.63316
 3.50    837.3778  20.3430     1210.066    298.7135 -30.30     1.402     1.248   0.0430        221     47.95455
 5.58    837.5710  22.1919     220.4167   1520.2875   7.21     0.957     0.484   0.1985        222     40.28988
 4.34    836.5140  21.6140     375.3265    819.0198  -0.57     1.082     0.929   0.1303        223     45.04546
 3.50    823.7400  18.5165      6507.34    654.3682 -47.01     1.694     1.608   0.0099        224     59.58954
 5.33    820.7417  21.7642     326.8319   1398.3711 -34.06     1.040     0.799   0.1651        225     49.68631
 6.27    819.5536  21.8400     304.8021    702.4224  75.69     0.930     0.815   0.2020        226     56.68095
 3.50    803.8591  18.5776     6151.317   1378.6097 -16.42     1.764     1.715   0.0111        227     62.63316
 3.50    799.2559  17.4302     17698.63    695.5489 -86.67     2.595     1.858   0.0048        228     78.88316
 3.50    801.5493  19.4785      2682.93     41.1095 -47.22     1.556     1.367   0.0214        229      52.9803
 3.50    786.3653  22.7438     132.5768   1348.2401  16.88     0.743     0.450   0.1718        230     20.96752
 4.64    774.9264  19.3485     3024.222   1427.4890 -80.02     2.968     2.202   0.0437        231     121.7061
 6.58    768.5202  21.6352     368.0729    140.3967 -56.00     1.096     0.753   0.1824        232     61.81795
 8.07    759.9717  22.2934     200.7429   1020.4913  57.79     0.794     0.314   0.2269        233     41.93504
 8.03    758.7322  21.5228     408.2192   1341.6172 -19.13     0.999     0.595   0.1695        234      63.7039
 7.70    755.4393  21.6228     372.3052    195.3307  50.93     1.281     0.507   0.1874        235     64.23257
 8.16    753.2500  22.1629     226.3828   1080.7515 -18.40     0.867     0.354   0.2249        236      46.8848
 4.09    743.5436  20.1563     1437.042    556.2997 -21.00     1.386     1.284   0.0422        237     55.77881
 6.46    740.3088  22.6939     138.8212   1272.3568 -42.92     0.576     0.333   0.2364        238     30.21741
 4.93    738.9075  21.0422     635.4944   1157.9510   1.73     1.221     1.143   0.1023        239     59.87262
 5.71    736.8117  20.6831     884.6309    649.5156 -57.46     1.284     1.212   0.0906        240     73.78844
 3.50    727.4288  15.9595     68578.84    848.3036 -43.51     2.122     2.007   0.0012        241     74.01723
 4.09    728.2400  20.3617     1189.386   1178.2639 -71.75     1.493     1.272   0.0531        242     58.15343
 5.98    722.0221  21.2516     524.0477   1394.6796  55.23     1.120     1.005   0.1358        243     65.53559
 4.03    716.7179  20.2306     1342.015    808.2800 -58.15     1.484     1.251   0.0459        244     56.68095
 4.96    709.6140  20.0915     1525.442   1163.7046  -6.42     1.385     1.344   0.0500        245     70.26706
 4.23    705.2289  20.1425     1455.394   1339.0270  -7.51     1.751     1.458   0.0415        246     55.64568
 3.50    707.8699  22.4752     169.8007    794.7454 -47.11     0.787     0.662   0.1621        247     25.34849
 3.92    703.4935  19.4963     2639.207    952.2862 -18.86     1.625     1.545   0.0264        248     64.23257
 4.49    699.7202  21.2007      549.193    582.8026   2.02     1.870     0.964   0.1239        249     62.63316
 4.59    692.6077  21.2025     548.2753   1213.5939  51.67     1.289     1.128   0.0943        250     47.58371
 5.45    687.6429  21.4492     436.8263   1213.6561 -60.27     1.349     0.880   0.1001        251     40.27295
 6.02    692.7369  22.4903     167.4482    316.0250   1.66     0.713     0.689   0.1890        252     29.14414
 3.59    686.2900  19.8145     1968.775    644.0510  42.51     1.532     1.436   0.0304        253     55.16919
 3.50    688.1400  22.4648     171.4323    130.8793  46.46     0.805     0.656   0.1606        254     25.34849
 5.25    673.8572  22.5449     159.2374    231.1585  61.85     1.162     0.421   0.2631        255     38.57462
 6.98    669.8129  21.9152     284.4047   1221.2018 -48.04     0.753     0.562   0.1776        256     46.52275
 4.62    667.3979  22.7936     126.6312   1180.1707  20.00     0.731     0.448   0.2339        257     27.27638
 3.50    649.1266  15.9868     66877.79   1464.2963 -59.01     2.074     1.939   0.0012        258     72.63361
 4.97    655.4445  21.1606     569.8478    870.9727   6.69     1.205     1.054   0.1086        259      56.9785
 4.19    646.8542  21.7838     320.9847    652.7485  27.68     0.962     0.824   0.1320        260     39.01051
 7.02    642.0137  22.3699      187.094    276.5096 -87.93     0.787     0.499   0.2593        261      44.6685
 5.14    631.7795  20.8372     767.5848    805.9449 -67.46     1.254     1.123   0.0882        262     62.36261
 4.72    629.6339  22.8218      123.391    941.6058 -21.03     1.042     0.326   0.2455        263     27.88941
 5.45    624.2539  20.1559     1437.651   1581.3297 -24.63     1.442     1.261   0.0576        264     76.26751
 6.88    619.2504  21.3195     492.2803   1151.0924  28.52     1.102     0.879   0.1545        265     70.02601
 7.54    610.1631  21.8522     301.3949    944.9097  41.60     0.839     0.661   0.2053        266      56.9785
 3.50    608.4720  22.7162      135.996   1011.9152   4.20     0.785     0.497   0.1858        267     23.26137
 3.50   1562.1376  20.5703     981.5162    861.4935   5.33     1.262     1.158   0.0473        268     42.73387
 3.76    589.0152  22.7456     132.3569   1139.4913  89.58     0.784     0.500   0.1909        269     23.26137
 4.95   1566.7649  20.0478     1588.049    784.6983 -84.12     1.821     1.377   0.0557        270     81.41481
 5.84   1581.9138  22.0347      254.746   1414.7047  68.45     1.253     0.472   0.1952        271     45.79006
 3.51   1553.5060  17.0623     24835.11    682.1395 -30.05     4.698     3.914   0.0068        272     154.5175
 3.50   1585.7133  20.3218     1233.847   1108.7926 -47.79     1.406     1.236   0.0419        273     47.60064
 7.41   1576.4824  22.5952     152.0233   1491.4977  44.73     0.516     0.483   0.2756        274     38.57462
 3.50   1558.8717  16.1199     59164.02    487.7102 -42.21     1.948     1.877   0.0013        275     68.56189
 3.59   1562.9105  22.3989     182.1582   1566.5850 -28.67     1.434     0.440   0.1698        276     28.48925
 8.49   1562.4872  21.9879     265.9843    385.4712  70.24     0.829     0.446   0.2176        277      53.2985
 3.50   1567.4845  19.7757     2040.485     22.0536 -35.09     1.501     1.336   0.0277        278     52.01401
 3.63   1551.7889  21.7158     341.7349   1221.5983 -69.22     1.018     0.924   0.1139        279     35.84818
 3.50   1546.9426  20.8021     792.8275    863.4279  79.12     1.442     1.277   0.0671        280     49.00095
 3.80   1543.5000  19.5860     2429.909    654.6492 -44.43     1.543     1.391   0.0259        281     57.86193
 4.68   1533.0137  21.1429     579.2338    415.7943 -28.03     1.657     1.117   0.1214        282     64.75692
 6.56   1489.0807  22.0320     255.3826     77.8819 -75.41     0.962     0.688   0.2372        283     55.77881
 4.87   1519.6189  21.3539     476.9346     84.3914  80.11     1.501     0.882   0.1297        284      56.9785
 7.56   1502.3057  22.6820     140.3517   1412.6653  43.54     0.566     0.339   0.2624        285     33.90899
 8.50   1539.5172  22.3748     186.2504    263.4748  45.53     0.509     0.490   0.2537        286     43.51804
 7.05   1527.5272  22.8803     116.9176    878.5313  49.73     0.500     0.498   0.3286        287     35.37335
 3.50   1508.0370  16.7830      32121.6    269.3830 -51.48     1.875     1.773   0.0022        288      65.7931
 6.76   1521.7549  22.1762     223.6278   1100.5942 -83.81     0.998     0.482   0.2312        289     47.60064
 4.14   1515.3909  21.3669     471.2269    483.6700 -45.90     1.145     1.021   0.1047        290     45.41928
 5.17   1499.3826  21.6752     354.7437    844.6345  23.01     1.288     0.825   0.1670        291     54.55276
 7.80   1497.3390  22.4046      181.202    930.6785  45.78     0.575     0.335   0.2091        292     34.89206
 5.02   1483.2747  21.0026     659.1067    575.1030 -33.51     1.906     1.010   0.1185        293     71.93182
 5.79    977.4968  22.6754     141.1976   1280.5354  84.84     0.500     0.499   0.2281        294     29.65255
 3.50    965.8499  21.5970     381.2288    416.2972 -35.18     1.232     0.946   0.1111        295     39.01051
 7.03    982.7349  22.0852     243.1852   1487.3997 -33.14     0.950     0.546   0.2352        296     52.66018
 7.76   1477.7635  22.3776     185.7673    198.9817  -0.83     0.693     0.425   0.2544        297     43.51804
 5.84    981.6761  20.3949     1153.536    797.9858 -22.91     1.536     1.395   0.0823        298     87.42378
 7.72    972.4925  22.6657     142.4709   1499.4553 -53.16     0.502     0.495   0.3166        299     41.52986
 5.29   1476.3263  21.4355     442.3929    998.5921  -9.60     1.602     0.944   0.1634        300     66.55965
 4.33    987.5529  20.2370     1334.119    453.9749  88.63     1.760     1.477   0.0593        301     72.86604
 5.48    979.2098  21.3853      463.311    452.6704  73.39     1.079     0.952   0.1336        302      56.9785
 4.17   1479.4890  23.6359     58.29712    638.4839  46.80     0.501     0.499   0.3753        303     20.14494
 5.28   1439.3832  21.6719     355.8242   1271.1968  84.54     1.095     0.913   0.1674        304     54.86184
 3.71   1067.5957  21.9430     277.2009    568.9399 -85.07     1.064     0.782   0.1367        305     34.89206
 3.50    985.6585  16.8851      29238.1    558.4474 -60.51     1.860     1.774   0.0024        306     65.01752
 3.88   1416.2999  20.0117     1641.862   1386.6492  19.74     1.424     1.377   0.0367        307     55.47484
 5.29   1072.8474  19.7195     2148.751   1219.1344 -71.81     2.171     1.586   0.0508        308     100.5567
 4.20   1066.6592  21.5124     412.1396   1597.1162  36.70     1.159     0.981   0.1167        309     44.28833
 5.21   1065.3551  22.3055     198.5143    292.5062  -0.68     0.931     0.478   0.2012        310     36.77946
 7.20   1079.6516  22.6604     143.1705    921.6904 -46.76     0.573     0.335   0.2416        311     31.85195
 5.67    993.0270  22.7181     135.7598    500.0000  90.00     0.838     0.289   0.2231        312     27.88941
 6.66   1069.3281  23.1917     87.76245   1182.6630  44.61     0.577     0.334   0.3739        313     30.21741
 5.82   1439.4316  21.8816     293.3447    646.8270  47.40     1.087     0.718   0.1961        314      52.9803
 3.50   1440.6519  19.5850     2432.168    619.1653   9.04     1.445     1.337   0.0226        315     50.69699
 3.50   1394.2668  15.7800     80908.41    114.4738 -48.42     2.040     1.936   0.0010        316     71.93182
 8.23   1450.7783  21.9980     263.5162     88.3631 -73.90     0.748     0.452   0.2048        317     49.68631
 5.76   1453.8417  21.6992     346.9991    391.7621  21.98     1.190     0.813   0.1829        318     58.44348
 3.50   1436.1301  19.1792     3534.413    224.7948 -34.44     1.604     1.459   0.0171        319     55.77881
 4.26   1437.3093  22.1951     219.7706   1347.0367  73.01     1.028     0.724   0.1884        320     38.13375
 3.50   1219.7289  18.0994      9555.48   1195.0479  14.69     1.870     1.852   0.0076        321     67.06581
 3.50   1435.7036  15.2975     126180.4   1089.9775  43.89     1.901     1.615   0.0008        322     91.63036
 7.30   1432.6862  20.9226     709.5222    341.5507  -7.52     1.510     1.030   0.1435        323     93.76959
 3.50   1139.3179  16.8136     31228.98    148.0982 -49.63     1.915     1.847   0.0023        324     67.56818
 8.31   1094.4969  21.7624     327.3796    429.0226  -2.01     0.796     0.500   0.1810        325     54.55276
 4.56   1079.9408  21.3877     462.2924    330.0614 -62.66     1.125     0.943   0.1151        326     49.00095
 4.34   1130.0508  21.1544     573.0974    547.4393 -65.16     1.185     1.025   0.0902        327     47.60064
 3.50   1389.6022  18.4010     7237.674   1428.5128 -35.92     1.644     1.588   0.0087        328     58.15343
 5.12   1131.0320  20.8234     777.4077    219.3809 -20.51     1.568     1.132   0.0995        329     71.22312
 3.51   1386.6152  22.2365     211.5396   1274.3851 -80.87     1.295     0.447   0.2023        330     39.41356
 3.50   1409.1057  19.5371     2542.014    308.4276  -7.76     1.523     1.467   0.0230        331     53.92928
 3.85   1263.1622  22.7347     133.6963    215.8559 -41.55     0.728     0.565   0.2113        332     26.00701
 4.79   1407.2278  21.1529      573.923    329.8878  77.17     1.283     1.109   0.1128        333     59.58954
 6.13   1388.2180  22.6783     140.8301   1384.9540   1.83     0.696     0.412   0.2653        334     34.40403
 5.62   1412.1393  20.9589     686.1914    350.1120  23.37     1.424     1.101   0.1150        335     72.63361
 6.74   1414.8446  22.2988     199.7551      1.3369  76.87     1.069     0.416   0.2024        336     37.23637
 6.02   1278.3990  22.1329     232.7177    343.4074  -1.19     0.918     0.658   0.2238        337     47.95455
 4.77   1294.3375  20.2605     1305.559    742.2962  73.62     1.413     1.260   0.0541        338     65.01752
 5.37   1292.0195  22.3151     196.7787    545.9750 -45.38     0.899     0.525   0.1952        339     35.37335
 6.24   1401.4606  20.4288     1118.135   1031.6093  31.56     1.437     1.248   0.0836        340     86.05922
 6.59   1389.5435  21.3064     498.2363    806.6453   0.75     0.950     0.943   0.1394        341     63.96878
 4.18   1391.2549  19.5062     2615.212    713.2370  26.81     1.499     1.457   0.0263        342     63.43791
 4.30   1393.0747  19.9289     1771.918   1038.7461  42.34     1.418     1.397   0.0379        343     61.81795
 5.41   1388.9937  22.9091     113.8569   1584.7758 -89.72     0.686     0.417   0.2882        344     30.21741
 5.53   1380.3506  22.0328     255.2073    318.5949  -4.36     1.034     0.628   0.1980        345     46.52275
 3.84   1278.8799  18.9665      4299.13   1331.4744 -56.45     1.646     1.542   0.0160        346      63.1708
 5.77   1371.3213  22.4705     170.5356    705.8503 -32.11     1.213     0.407   0.2619        347     41.12069
 3.50   1320.9148  16.8576     29989.83    659.9897 -44.67     1.896     1.801   0.0024        348     66.81321
 7.56   1369.4689  22.2829     202.6885    149.4737  17.41     0.499     0.499   0.2113        349     39.44158
 3.51   1373.4688  18.1659     8987.408   1018.9661 -21.90     1.834     1.715   0.0078        350     64.75692
 5.31   1331.2352  21.0365     638.8459    386.9082   1.03     1.306     0.996   0.1056        351     62.09088
 3.50   1293.9078  20.7674     818.5699    412.7370  23.44     1.287     1.129   0.0567        352     42.73387
 5.11   1346.4972  21.7992     316.4473    605.5799 -50.92     1.185     0.775   0.1740        353     50.69699
 7.57   1353.2751  20.7763     811.8578    152.0077  17.83     1.231     1.094   0.1218        354     91.02452
 5.12   1333.5925  20.5131      1034.55    107.4225 -28.91     1.327     1.156   0.0688        355     65.53559
 5.43   1320.0242  20.8304     772.3966    264.0417 -45.50     1.309     1.038   0.0918        356     65.27707
 3.83   1330.7550  19.1352     3680.531    655.8856  56.69     1.676     1.627   0.0164        357     55.68725
 4.14   1305.5653  20.7109       862.23    892.8594 -79.27     1.297     1.158   0.0651        358      51.6879
 3.50   1299.2639  14.8495     190626.9    724.8691 -47.64     2.150     2.016   0.0004        359      75.8228
 3.70   1308.3883  19.4487     2757.517    669.6326 -17.93     1.494     1.487   0.0220        360     55.77881
 8.09   1307.6790  22.5820     153.8833    574.6573 -44.05     0.576     0.334   0.2660        361     37.68773
 3.59   1273.6150  17.7450     13243.33    609.9725 -58.64     4.087     2.422   0.0095        362     116.3069
 4.24   1300.2339  21.8735     295.5375     54.0051 -29.97     1.122     0.858   0.1599        363     43.51804
 3.50   1292.2128  18.4314     7037.677    762.0967 -25.34     2.106     1.659   0.0104        364     67.56818
 3.67   1262.9900  22.0976     240.4053    855.3809   0.12     1.015     0.766   0.1509        365      33.4066
 5.04   1274.2222  21.7892     319.3867    698.2037 -79.22     1.189     0.826   0.1769        366     52.01401
 7.35   1157.5980  22.3755     186.1287    567.8342  19.03     0.772     0.445   0.2628        367     45.04546
 3.50   1266.2606  19.3048     3148.353    807.8792 -38.08     1.534     1.430   0.0185        368     53.61481
 5.60   1213.6489  19.6962     2195.518   1429.3069  77.15     2.724     2.083   0.0682        369     137.8617
 5.82   1238.9614  22.4152      179.447    857.0588 -45.63     0.897     0.539   0.2610        370     43.12774
 3.76   1235.1207  19.4086     2861.143    304.8844 -70.00     1.601     1.472   0.0225        371      59.3051
 4.35   1260.2809  20.1491     1446.607    432.4522 -61.87     1.924     1.810   0.0624        372     83.05972
 4.00   1238.4276  21.4932     419.4752     48.1247 -11.79     1.158     0.950   0.1127        373     43.51804
 6.11   1230.6050  20.5438      1005.74    599.0958  13.98     1.553     1.455   0.1026        374     95.02349
 3.50   1238.0283  20.0478     1588.148   1553.5206 -12.60     1.431     1.370   0.0349        375     51.02943
 3.50   1244.9319  22.2825     202.7701    614.1144  43.91     0.865     0.661   0.1461        376     27.27638
 4.38   1202.6338  19.9763     1696.133    339.0765 -83.96     1.516     1.396   0.0423        377     66.04961
 3.50   1215.4216  17.6349     14656.65    513.0119 -59.10     1.745     1.693   0.0045        378     61.26844
 3.50   1211.6077  17.6202     14857.01   1279.0597  80.67     5.688     3.491   0.0118        379     161.1595
 4.87   1229.3096  21.3999     457.1198   1153.9847  -3.74     1.189     0.976   0.1281        380     53.92928
 3.50   1208.4626  20.1707     1418.096    838.7981 -29.99     1.343     1.247   0.0351        381     45.79006
 5.21   1195.7804  19.8162      1965.71    124.2715  85.31     1.874     1.702   0.0529        382     95.73264
 4.53   1205.2776  22.4963     166.5308   1217.3695 -46.25     0.892     0.513   0.2007        383      30.7719
 3.89   1162.5885  21.1655     567.2959    887.7397 -48.69     1.405     1.171   0.0989        384      51.6879
 4.67   1154.6306  20.4423     1104.293   1353.0854 -56.53     1.611     1.412   0.0705        385     71.69637
 4.88   1201.8149  20.3476     1204.932   1442.1520 -87.54     1.659     1.491   0.0715        386     79.31071
 5.64   1182.5487  21.1593     570.5234    176.5511   8.16     1.425     0.970   0.1296        387     68.06685
 3.50   1181.6399  21.4262     446.1703    549.2872 -17.64     1.167     0.943   0.0906        388     37.23637
 6.47   1185.6552  22.8419     121.1296    313.7022 -47.34     0.566     0.338   0.2709        389     30.21741
 3.64   1152.1667  20.3396     1213.826     99.4371  -5.03     1.310     1.209   0.0429        390     47.95455
 3.50   1165.9730  16.2917     50504.03   1299.8149 -73.70     1.991     1.895   0.0015        391     69.29781
 3.50   1130.7355  17.5146     16374.66    183.5708 -55.72     1.823     1.729   0.0042        392     63.96878
 6.43   1178.4944  22.5575     157.3953   1597.7561  72.38     1.154     0.262   0.2506        393     36.31681
 7.58   1167.6770  21.9662     271.3379   1599.3630  46.34     0.885     0.518   0.1646        394     41.12069
 6.77   1169.6912  23.1598     90.38086    385.3456  43.30     0.572     0.336   0.3631        395     30.21741
 3.61   1158.6713  18.6249     5889.033    236.4377 -45.44     1.659     1.639   0.0115        396     62.36261
 6.98   1131.8344  21.2068     546.0895    359.0297  34.12     1.138     1.043   0.1556        397     78.23744
 3.50   1080.7612  16.7479     33176.88    512.1377 -66.86     1.873     1.779   0.0021        398     65.53559
 5.41   1121.0597  19.3897     2911.409    329.8915  58.20     2.642     1.720   0.0443        399     118.7527
 4.68   1096.1305  20.5152     1032.546   1526.4138 -79.64     1.384     1.254   0.0678        400     64.49528
 3.50   1108.1862  18.4569     6874.279    427.9433 -54.08     1.692     1.627   0.0094        401      59.3051
 5.32   1111.4586  20.0712     1554.232    479.1580  -9.86     2.161     1.572   0.0706        402     101.0599
 3.50   1095.5962  16.8481     30253.28    778.2920  30.96     1.857     1.769   0.0027        403     76.24709
 5.17   1091.6052  20.9757     675.6653    468.4291 -68.10     1.906     0.987   0.1171        404     72.86604
 5.44   1095.1101  21.4722     427.6982   1136.4399 -85.67     1.091     0.933   0.1447        405      56.9785
 3.50   1082.6001  18.0903     9635.705   1148.1748 -75.09     1.756     1.712   0.0070        406     62.36261
 3.50   1030.9937  20.0311     1612.686    302.5811  71.37     2.462     1.757   0.0505        407     74.92546
 6.46   1085.8284  21.9705     270.2753   1452.5986  76.35     0.929     0.621   0.2037        408     50.69699
 6.13   1066.0032  20.0471     1589.158   1562.7290 -64.61     2.578     1.374   0.0813        409     119.0371
 3.50   1010.6152  17.4855     16818.92    813.6567 -57.58     1.843     1.779   0.0041        410     64.23257
 5.93   1020.8219  22.6507     144.4485   1154.6001  71.58     0.761     0.450   0.2800        411     37.23637
 7.72   1052.8062  22.2882     201.7147    238.2280  10.82     1.184     0.333   0.2693        412     50.02547
 5.75   1001.6425  23.2256      85.0686   1025.6887 -46.97     0.578     0.332   0.3320        413     26.00701
 3.50    998.9927  22.2024     218.3014    233.2767 -18.35     1.046     0.719   0.1558        414     31.31658
 3.50   1039.5093  18.2571     8263.702    525.4048 -57.06     1.682     1.625   0.0080        415     60.71397
 5.58   1040.7959  22.1664     225.6615    467.1765  60.45     1.002     0.638   0.2186        416     45.41928
 8.77   1042.6610  22.4510     173.6171   1095.3132  46.21     0.571     0.337   0.2520        417     40.28988
 3.50   1041.0314  16.4747     42670.26    633.0394 -48.28     1.946     1.863   0.0018        418     69.05338
 7.81   1044.5298  22.3403     192.2561    809.4818 -44.15     0.509     0.490   0.2369        419     41.93504
 3.50   1026.5739  17.3289     19427.77   1379.9856 -68.53     1.930     1.815   0.0038        420     67.56818
 7.28   1038.3228  22.9748     107.1742    242.3530 -43.77     0.581     0.331   0.3228        421     31.85195
 5.54   1014.3884  22.4928     167.0587    453.2855 -71.18     0.977     0.589   0.2804        422     43.12774
 5.78   1026.6539  23.2715     81.54309   1028.6675 -45.54     0.582     0.330   0.3549        423     26.64925
 5.56   1028.6923  23.0572     99.33472    463.6869 -44.70     0.557     0.343   0.2771        424     25.34849
 3.50   1012.0173  19.6346     2323.508    344.6625 -58.15     1.552     1.359   0.0249        425      53.2985
 3.88   1011.5946  22.1310     233.1316    268.0587 -42.83     1.169     0.663   0.1625        426     34.89206
 4.09   1000.6547  20.6116     944.8855   1273.9342 -43.44     1.550     1.291   0.0685        427     59.58954
 3.72   1002.4813  19.4725     2697.685    542.4351  72.56     1.532     1.462   0.0228        428     56.68095
 6.18   1020.4149  21.9344     279.4143   1267.5466 -73.09     0.874     0.686   0.1918        429     49.34483
 4.02   1002.4446  20.2492     1319.261   1555.2887 -75.10     1.475     1.318   0.0476        430     57.86193
