#   1 KRON_RADIUS            Kron apertures in units of A or B                         
#   2 Y_IMAGE                Object position along y                                    [pixel]
#   3 MAG_BEST               Best of MAG_AUTO and MAG_ISOCOR                            [mag]
#   4 FLUX_BEST              Best of FLUX_AUTO and FLUX_ISOCOR                          [count]
#   5 X_IMAGE                Object position along x                                    [pixel]
#   6 THETA_IMAGE            Position angle (CCW/x)                                     [deg]
#   7 A_IMAGE                Profile RMS along major axis                               [pixel]
#   8 B_IMAGE                Profile RMS along minor axis                               [pixel]
#   9 MAGERR_BEST            RMS error for MAG_BEST                                     [mag]
#  10 NUMBER                 Running object number                                     
#  11 FLUXERR_BEST           RMS error for BEST flux                                    [count]
 3.87     54.0606  21.1261     588.2468     63.4906  10.24     5.079     4.642   0.5992          1     324.5414
 0.00     17.6089  99.0000     -326.494    984.8857 -88.11     4.179     1.842  99.0000          2     168.3854
 3.50     18.7909  25.4404     11.06189     91.0583 -77.68     1.665     1.590   9.7189          3     98.99538
 3.50     15.4372  23.0053     104.2024   1445.5699 -58.56     1.765     1.663   1.0902          4     104.6033
 8.71      7.7679  23.2099     86.30432   1469.4524 -68.75     0.745     0.449   1.0840          5     86.14769
 0.00      4.5160  99.0000     -228.819    145.3089  44.41     1.257     0.896  99.0000          6      90.9821
 7.14     10.4944  24.5289     25.61133   1183.4982  44.88     0.503     0.497   2.7436          7     64.70274
 3.50     60.5870  22.6670     142.3037   1078.2454  78.89     2.101     1.994   0.9416          8     123.3833
 0.00     14.3362  99.0000     -51.1344    839.6812  45.80     0.572     0.336  99.0000          9     60.12957
 3.71     25.5086  24.5609     24.86694    367.0246 -44.58     1.386     1.224   3.6147         10     82.76802
 3.96     17.9751  23.1367     92.32593    384.0876  -6.21     1.065     0.750   0.6884         11     58.52583
 0.00    182.7325  99.0000    -1441.943   1107.3342 -33.02     5.842     5.048  99.0000         12     328.9096
 7.95     24.5880  21.9740     269.3915    383.1618  87.82     1.000     0.715   0.4669         13      115.826
 0.00     35.5278  99.0000    -72.19116   1110.5074  83.69     1.018     0.640  99.0000         14     108.6193
 6.92     34.3293  22.1009     239.6766    326.4466 -55.26     1.064     0.824   0.5097         15     112.4921
 5.72     38.8936  23.0850     96.82605   1521.2977  57.82     1.154     0.680   0.9785         16     87.24516
 0.00     39.8461  99.0000    -2.401123   1170.4801  -0.97     0.941     0.732  99.0000         17     83.34081
 5.61     45.8528  23.6206     59.12268    440.1219 -39.18     1.403     1.002   2.1048         18     114.5871
 0.00     43.2799  99.0000    -40.90723    915.3459 -44.82     1.174     0.700  99.0000         19     53.42653
 0.00     80.9598  99.0000    -90.53003    537.4124 -67.89     2.020     1.918  99.0000         20     119.4653
 6.79     40.5038  23.3521     75.71045   1225.9862 -32.64     0.782     0.319   0.7915         21     55.17868
 6.55     51.1657  23.7988     50.17505    265.9854  36.65     0.939     0.465   1.6489         22     76.18356
 6.43     51.0299  29.3261    0.3087158   1435.2108 -33.32     0.788     0.497 237.7321         23      67.5798
 6.80     49.3377  23.8058     49.84998   1233.6754  45.58     0.575     0.334   1.1042         24     50.68485
 3.50     75.9613  23.5160     65.10461    127.6706  65.46     1.365     1.260   1.3017         25     78.03444
 5.75     82.8388  22.6134     149.4949    421.4473 -51.35     1.212     0.808   0.7156         26     98.51365
 5.12     91.5345  21.9294     280.6946    376.7948 -74.03     1.886     1.573   0.5883         27     152.0546
 3.50    122.5929  24.0812     38.68396    788.9210 -57.93     2.107     1.961   3.4421         28     122.6097
 3.64     97.3432  23.1655     89.90747     55.9943  -9.78     1.501     1.385   1.0990         29      90.9821
 0.00     92.9185  99.0000    -44.59277    495.8493  75.14     1.341     0.684  99.0000         30     101.3697
 0.00     98.7693  99.0000    -87.43945    452.5781 -24.86     1.703     0.981  99.0000         31     135.8617
 0.00     96.5883  99.0000    -52.11523   1075.8324  21.36     0.766     0.435  99.0000         32     44.69984
 8.01    114.3489  23.2766     81.16284    270.3333 -45.61     0.584     0.329   0.8357         33     62.45803
 7.06    117.8673  21.9794     268.0734     66.8318  46.85     0.748     0.562   0.3210         34     79.24435
 6.06    118.7044  23.4698     67.93591    990.6282 -41.71     0.576     0.332   0.7314         35     45.75174
 8.28    118.5058  23.0783     97.43005    154.4909  45.33     0.502     0.498   0.7840         36     70.33929
 4.24    235.9001  20.5034     1043.821    403.1562 -56.45     6.429     5.300   0.4450         37      427.746
 3.50    194.4204  23.6511     57.48718    317.8754 -62.51     2.391     2.159   2.5864         38     136.9082
 3.50    163.1395  22.0290     256.0839   1468.1359 -60.49     1.999     1.918   0.4981         39     117.4574
 0.00    132.4922  99.0000    -3.304932    418.0420   0.54     0.804     0.500  99.0000         40     55.17868
 3.50    171.1363  22.9076     114.0178    877.1224 -68.32     1.766     1.710   0.9963         41     104.6033
 0.00    147.2958  99.0000     -14.5575    353.1507 -30.05     0.879     0.605  99.0000         42      67.5798
 0.00    152.5081  99.0000    -53.10059   1279.9960  -1.46     0.803     0.500  99.0000         43     72.99453
 4.82    172.3745  24.9928     16.70605    325.0115 -64.12     1.467     1.346   7.6355         44     117.4574
 0.00    165.8674  99.0000    -82.04736   1445.5350  -0.27     1.320     1.134  99.0000         45     76.18356
 0.00    167.5935  99.0000    -50.64771    104.3067 -28.86     1.173     1.010  99.0000         46     76.80547
 0.00    170.4302  99.0000    -64.29492   1368.2188 -47.27     1.080     0.717  99.0000         47     77.42239
 5.71    169.4399  24.8924     18.32422    651.5150 -35.83     0.503     0.493   2.9477         48     49.73739
 4.46    181.2359  24.5241     25.72583    574.8821  23.27     1.275     0.773   3.2423         49     76.80547
 0.00    193.3881  99.0000    -86.67688   1350.3933 -35.33     1.357     1.132  99.0000         50     93.05014
 8.45    186.9876  23.2932     79.92969   1354.0366 -74.11     0.796     0.783   1.5625         51     115.0016
 3.72    211.5532  21.9146     284.5385    827.4822  -7.29     3.936     1.949   0.6753         52     176.9271
 3.50    207.5034  23.1115     94.49585    548.9205 -81.30     1.549     1.369   0.9901         53     86.14769
 0.00    196.0324  99.0000     -29.4729    267.5382  56.83     0.765     0.324  99.0000         54      67.5798
 0.00    229.8139  20.5483     1001.557    414.8996 -19.48     1.967     1.652   0.1552         55     143.0953
 3.50    211.4506  23.1970     87.33972    684.4574 -82.33     1.680     1.042   1.0220         56     82.19123
 4.07    209.4233  24.1461     36.43823    349.7025  43.13     1.598     1.217   2.9931         57     100.4267
 3.50    204.3587  26.0688     6.201416    250.6058 -42.34     0.981     0.848   9.8128         58     56.03421
 0.00    212.9739  99.0000    -61.91284   1305.9009  53.84     1.403     1.346  99.0000         59     81.02534
 4.51    231.0750  21.2944     503.7965    562.2184  -9.41     3.381     2.852   0.5210         60     241.7021
 0.00    204.4280  99.0000    -4.179199   1498.4841 -36.27     0.505     0.489  99.0000         61      33.7899
 0.00    205.7527  99.0000    -21.95166    937.2287 -19.28     0.855     0.346  99.0000         62     66.15691
 0.00    224.5217  99.0000    -170.8075   1225.8657 -53.97     1.548     1.416  99.0000         63     91.50349
 3.50    260.5782  22.6204     148.5349    997.2145 -60.88     2.174     2.033   0.9244         64     126.4302
 3.50    266.7132  23.4764     67.52136     67.3777 -78.85     2.116     1.998   1.9845         65     123.3833
 5.20    223.1785  23.2680     81.81055    345.6050 -22.38     1.579     1.463   1.7989         66     135.5111
 3.50    223.2261  23.5993     60.29602    774.7524 -19.32     1.202     1.068   1.2423         67     68.97335
 7.24    219.2476  28.0756    0.9766846    740.7268 -18.84     0.845     0.353  75.9224         68     68.28014
 4.32    244.2684  22.2028     218.2035    112.8208  77.16     2.123     1.544   0.6692         69     134.4538
 0.00    256.2215  99.0000    -187.5085    612.7909 -37.89     2.503     1.802  99.0000         70     165.2484
 6.09    239.9036  21.3931     460.0148    838.4949 -37.93     1.369     1.007   0.2931         71      124.152
 0.00    240.0472  99.0000    -68.25269   1478.8186 -53.93     0.940     0.464  99.0000         72     56.87688
 3.50    313.2080  22.6052     150.6281    439.2092 -58.52     2.401     2.209   1.0045         73     139.3193
 6.70    252.6677  22.2247      213.849   1372.6152 -44.30     1.226     0.877   0.6087         74     119.8629
 0.00    251.4614  99.0000    -78.13293    107.4959 -45.23     1.084     0.836  99.0000         75     114.5871
 5.43    254.3471  24.4728     26.97083   1352.5072   0.00     0.868     0.476   2.4841         76     61.69164
 0.00    288.3375  99.0000    -78.88989   1486.2755 -55.67     1.869     1.782  99.0000         77     110.7876
 0.00    282.7324  99.0000    -188.1851   1522.1934 -43.42     1.561     1.489  99.0000         78     93.05014
 0.00    271.2609  99.0000     -41.8999   1273.5472 -11.08     1.161     0.926  99.0000         79     124.9161
 0.00    290.6129  99.0000    -231.8876    514.7311 -61.03     1.859     1.552  99.0000         80     105.5089
 0.00    319.4862  99.0000    -354.2749    905.2509 -61.70     2.069     1.942  99.0000         81     121.0477
 0.00    303.9936  99.0000    -165.5234    201.5941 -73.78     1.829     1.708  99.0000         82     108.1805
 5.16    297.8686  21.9324      279.915   1413.5083 -39.26     2.150     1.549   0.6310         83     162.6368
 3.56    294.7549  21.8096      313.452   1327.3584 -23.02     1.400     1.322   0.2927         84     84.47475
 3.50    352.2489  23.7594     52.02991   1345.7200 -52.96     2.313     2.158   2.8064         85     134.4538
 0.00    352.2323  99.0000     -187.384    890.5778 -52.57     2.350     2.174  99.0000         86     136.9082
 0.00    294.2966  99.0000    -54.70898   1475.4912 -66.12     1.171     0.977  99.0000         87     113.7538
 0.00    302.8696  99.0000    -192.1943    563.5292  64.37     1.321     1.261  99.0000         88     76.18356
 3.50    322.8518  22.7780     128.4713    697.1324 -67.39     1.711     1.657   0.8529         89     100.8993
 6.40    309.7060  23.3235     77.72852     85.4069 -81.45     1.983     0.885   2.0624         90     147.6094
 5.00    322.1810  22.1003     239.8251    641.0074 -76.22     2.195     1.269   0.6507         91     143.6899
 4.49    328.1170  22.9983      104.875    595.2689 -50.18     1.627     1.559   1.2975         92     125.2963
 5.36    317.8036  24.3242     30.92578    226.3809 -71.76     0.752     0.447   1.8446         93     52.52854
 0.00    347.0935  99.0000    -146.6569    866.9109 -38.15     1.821     1.669  99.0000         94     111.2162
 5.35    332.8581  24.6089     23.79272     93.4377  -7.83     1.068     0.836   4.0562         95     88.86594
 0.00    330.3324  99.0000    -90.68689   1545.6162  -6.15     0.994     0.631  99.0000         96     57.70724
 0.00    335.7877  99.0000    -145.8422   1440.3218 -48.97     0.986     0.855  99.0000         97     71.01241
 0.00    356.5633  99.0000    -32.93237    431.6613 -76.63     1.957     1.739  99.0000         98     120.2591
 0.00    350.8575  99.0000    -41.02576     54.4747 -39.25     1.290     1.224  99.0000         99     74.92424
 5.14    348.6108  23.5141     65.21887     42.2829 -59.05     0.983     0.545   1.1016        100     66.15691
 3.50    368.9762  22.7846     127.6908    760.8817 -55.02     1.739     1.636   0.8541        101     100.4267
 0.00    351.1112  99.0000    -214.0204    920.2661 -17.72     0.939     0.676  99.0000        102     97.05411
 0.00    362.0320  99.0000    -186.7596   1500.1698  10.15     1.428     1.398  99.0000        103     84.47475
 0.00    368.2886  99.0000    -10.92261    442.6443 -44.79     1.606     1.455  99.0000        104     95.57228
 6.16    353.6877  23.5462     63.31909    350.3493  43.36     0.575     0.334   0.8196        105     47.78614
 0.00    396.0084  99.0000    -87.23865    231.2756 -59.51     2.003     1.932  99.0000        106     117.4574
 6.26    360.5867  21.8237     309.4006    533.2850  21.62     1.031     0.915   0.3719        107     105.9589
 3.53    361.4968  24.9116     18.00317   1033.7421 -34.22     1.094     0.910   3.5791        108     59.33312
 0.00    363.8832  99.0000    -24.66382   1415.6968 -78.20     1.038     0.416  99.0000        109      67.5798
 3.50    373.7502  24.1811     35.28149    992.1270 -58.62     1.191     1.021   2.0141        110     65.43387
 4.95    373.9765  28.2009    0.8702393   1083.8434 -45.30     1.443     1.000 127.6685        111      102.304
 0.00    369.9420  99.0000     -21.4303    210.5096  87.58     0.786     0.499  99.0000        112     66.15691
 6.59    371.1455  25.2547     13.12585     71.4292 -16.36     1.204     0.716   8.8038        113     106.4069
 6.58    376.9810  21.9842       266.89    753.9877  38.43     1.723     0.867   0.5683        114     139.6604
 0.00    397.8752  99.0000    -58.67517   1461.0035 -57.54     1.678     1.607  99.0000        115     98.51365
 0.00    376.6144  99.0000    -22.13562     86.3840  23.01     1.364     0.457  99.0000        116     70.33929
 0.00    398.9585  99.0000    -60.08337    354.4046 -56.82     1.759     1.641  99.0000        117     103.6897
 0.00    380.9103  99.0000    -52.07031    125.6369 -22.70     0.902     0.682  99.0000        118     81.61037
 3.64    394.5150  23.4432     69.61829   1088.6681 -16.65     1.553     1.372   1.4274        119     91.50349
 0.00    420.3994  99.0000    -36.46558    433.1460 -57.35     1.997     1.878  99.0000        120     117.0517
 3.50    416.4439  25.2889     12.71814    837.1794 -67.30     1.895     1.794   9.5695        121     112.0684
 5.36    390.0044  22.8895     115.9294   1195.2917  85.80     0.739     0.674   0.5992        122     63.96325
 0.00    390.2305  99.0000    -15.04712    260.4030  71.18     0.744     0.452  99.0000        123     65.43387
 4.81    397.2771  22.9336     111.3158    977.5050 -21.24     1.103     0.780   0.7553        124     77.42239
 0.00    397.9344  99.0000    -94.91077    626.5070  15.77     1.528     0.795  99.0000        125      115.826
 0.00    440.8153  99.0000    -42.51025    305.5588 -50.74     1.189     1.082  99.0000        126     68.97335
 0.00    407.6977  99.0000    -82.96985    281.6329 -82.40     1.007     0.467  99.0000        127     72.99453
 7.28    415.6719  22.5991     151.4808      2.5615  28.95     1.141     0.754   0.6816        128      95.0732
 7.80    404.5128  23.3062     78.97754    526.8889  -1.99     0.784     0.499   1.1616        129     84.47475
 0.00    425.0124  99.0000    -76.36169    926.1458 -46.76     1.635     1.521  99.0000        130     95.57228
 0.00    461.8470  99.0000     -345.366    807.3679 -54.81     2.148     2.048  99.0000        131      126.806
 0.00    413.7131  99.0000    -11.27148   1562.2982 -60.78     1.155     0.451  99.0000        132      90.4577
 3.50    438.7642  23.4342     70.19934    251.9271 -54.88     1.813     1.728   1.6599        133     107.2974
 0.00    421.8596  99.0000     -148.749    158.7295  50.88     1.660     1.444  99.0000        134     131.2307
 5.46    412.6987  23.1519     91.04358    199.3263  43.64     0.560     0.342   0.5072        135     42.51803
 9.12    415.3152  27.8322     1.222168    558.6304  42.89     0.584     0.328  60.0504        136      67.5798
 0.00    419.5396  99.0000     -144.573   1203.5216  13.28     1.222     0.608  99.0000        137     92.02193
 3.50    433.6358  24.2863     32.02405   1421.9036 -17.73     1.428     1.337   2.8455        138     83.90971
 0.00    427.7109  99.0000    -7.663208   1179.3110  20.69     1.296     0.986  99.0000        139     118.2647
 0.00    420.6244  99.0000    -31.45239   1579.7715  17.88     0.757     0.446  99.0000        140     56.87688
 0.00    424.8950  99.0000    -128.7947   1063.8502 -46.61     0.815     0.670  99.0000        141     92.02193
 6.86    431.8513  23.3536     75.60425    717.7710 -64.55     0.930     0.895   1.5665        142     109.0564
 5.00    434.9498  25.0401     15.99451    151.0015  25.47     1.154     0.980   6.1775        143      90.9821
 0.00    468.5386  99.0000    -629.8197    850.1890  22.22     7.442     1.903  99.0000        144     290.3442
 0.00    451.1122  99.0000    -52.97742     21.1382 -39.37     1.703     1.572  99.0000        145     99.47478
 0.00    446.1109  99.0000    -94.21045    122.1262 -32.70     1.653     1.204  99.0000        146     131.9538
 0.00    434.6680  99.0000    -8.590454    353.3013  46.61     0.562     0.341  99.0000        147     52.52854
 0.00    448.0235  99.0000    -177.9531    884.3464  -1.26     2.252     1.419  99.0000        148     110.3574
 3.50    458.6750  23.8004     50.09949     34.3958 -60.50     1.679     1.537   2.1144        149     97.54305
 0.00    444.1706  99.0000    -107.2897    654.5854 -70.39     0.757     0.448  99.0000        150     54.30967
 3.53    464.5988  22.8339     122.0222    468.4730 -73.92     1.596     1.441   0.8190        151     92.02193
 0.00    453.8176  99.0000     -59.3269   1533.1399  37.42     0.790     0.678  99.0000        152     55.17868
 5.10    461.9113  24.4699     27.04297   1096.1396  54.35     1.156     1.063   3.9367        153     98.02955
 3.50    472.0582  22.9164     113.0916    254.1115 -72.83     1.524     1.321   0.8219        154     85.59367
 5.22    462.3787  22.8654     118.5377    724.6503 -28.34     1.116     0.728   0.7315        155     79.84242
 7.22    457.7005  23.5814     61.29834   1223.6603 -42.96     0.565     0.339   0.9465        156     53.42653
 0.00    472.9619  99.0000    -14.87537    734.7728 -38.58     1.496     1.347  99.0000        157     85.59367
 0.00    478.7596  99.0000    -231.9927    922.8173 -35.41     1.544     1.447  99.0000        158      90.4577
 0.00    478.7934  99.0000    -10.30457   1276.8331 -53.38     1.380     1.256  99.0000        159     88.86594
 0.00    476.5136  99.0000    -7.057739   1168.0371 -89.76     0.813     0.676  99.0000        160     56.87688
 0.00    533.7934  99.0000    -67.66968    518.6295  28.40     4.107     3.566  99.0000        161      281.864
 0.00    484.9557  99.0000    -123.5688   1070.4277 -66.11     1.365     1.226  99.0000        162     78.03444
 0.00    473.4778  99.0000    -124.3606    781.5225  45.02     0.505     0.494  99.0000        163     70.33929
 0.00    496.9649  99.0000    -37.58997     82.5904  56.28     2.338     2.068  99.0000        164     188.1342
 0.00    489.7222  99.0000    -249.8516    839.5610  85.43     1.974     0.945  99.0000        165     122.6097
 4.09    496.5237  24.6315     23.30127   1186.6776 -15.91     2.961     1.842   7.7017        166     165.2484
 0.00    481.6935  99.0000    -90.27783   1309.1306  71.28     0.894     0.694  99.0000        167     63.96325
 3.62    479.8593  23.1589     90.45789    682.6145  17.68     1.030     0.720   0.6414        168     53.42653
 5.99    481.6788  23.9685     42.91516   1520.4889  -0.10     0.921     0.467   1.7102        169      67.5798
 0.00    513.2880  99.0000    -50.30359   1302.2382 -66.23     1.839     1.727  99.0000        170     103.2299
 3.73    505.2572  22.5289     161.6052    763.0609  35.25     1.787     1.614   0.7358        171     109.4918
 3.50    516.2645  21.3776     466.6328   1460.9927  24.44     4.349     1.624   0.3751        172     161.1676
 0.00    502.7133  99.0000    -92.83228    863.5478  86.67     1.248     1.114  99.0000        173     72.33986
 3.50    498.6334  24.5442     25.25342    366.2104 -49.91     1.014     0.951   2.5516        174     59.33312
 0.00    502.3745  99.0000    -75.54602   1310.0952 -19.71     1.173     0.897  99.0000        175     68.97335
 4.28    514.1793  20.1790     1407.394   1310.0308  82.91     1.494     1.427   0.0939        176     121.7488
 3.50    514.5804  23.1437     91.72852   1179.1089 -56.89     1.341     1.068   0.8328        177     70.33929
 5.57    510.5956  22.2738     204.3947    164.3583  -2.33     2.204     1.004   0.7599        178     143.0262
 4.19    520.3478  26.0255     6.453491    641.4071 -66.00     1.226     0.908  12.8202        179     76.18356
 0.00    511.4778  99.0000    -36.47827    453.4842  44.04     0.503     0.496  99.0000        180     70.33929
 3.50    519.1760  23.6687     56.55969   1518.8837  43.20     0.828     0.669   0.8583        181     44.69984
 0.00    588.6913  99.0000    -27.91931   1315.8531 -46.59     2.329     2.162  99.0000        182     136.5603
 0.00    521.5092  99.0000    -57.14221    854.4668 -59.60     0.500     0.498  99.0000        183     70.33929
 4.34    541.0020  21.7622     327.4186    999.7307 -58.21     1.569     1.410   0.3703        184     111.6431
 0.00    536.8311  99.0000    -63.09387    404.4706  47.38     1.380     0.681  99.0000        185     74.92424
 6.50    545.6520  23.6485     57.62134    933.8276  70.97     1.235     0.753   2.0636        186     109.4918
 0.00    631.9619  99.0000    -75.14331    483.1478 -47.23     2.858     2.668  99.0000        187     166.9668
 3.70    559.8239  22.1846     221.8951   1041.5421 -18.76     1.577     1.488   0.4845        188     98.99538
 0.00    573.4060  99.0000    -170.4908   1242.7255 -48.70     1.761     1.644  99.0000        189     103.2299
 0.00    597.4254  99.0000    -836.7469    782.7070 -83.48     3.545     3.355  99.0000        190     267.4886
 4.22    571.6400  21.9792     268.1042     45.6350  59.09     1.992     1.404   0.4967        191     122.6097
 4.18    556.2180  24.5990     24.00952    778.7782  45.57     0.804     0.683   2.4166        192     53.42653
 0.00    581.4234  99.0000    -29.09155    144.8262 -85.18     1.779     1.649  99.0000        193      102.304
 3.50    572.2832  23.6764     56.16138   1448.0365  21.10     2.736     1.688   2.5236        194     130.5037
 3.95    565.5809  23.2640      82.1084    139.6900 -53.99     1.148     1.009   0.9568        195     72.33986
 0.00    582.9928  99.0000    -99.99817    318.9863 -39.14     1.741     1.667  99.0000        196     101.8379
 6.38    563.6564  23.9260     44.62744    905.5596   5.49     1.049     0.627   2.1755        197     89.39968
 0.00    575.7251  99.0000    -78.04431   1336.6144 -63.76     1.448     1.293  99.0000        198     131.2307
 6.82    576.9731  22.2274     213.3218   1001.5249 -66.98     1.399     1.121   0.7564        199     148.5732
 0.00    585.4980  99.0000    -67.57336     75.9934  34.12     1.282     1.160  99.0000        200     74.28658
 5.61    576.2507  23.6499     57.55017    549.0676  -3.84     0.664     0.432   0.9912        201     52.52854
 0.00    579.6700  99.0000    -121.5271    740.6813 -45.54     0.569     0.338  99.0000        202     56.87688
 4.02   1002.4446  23.3792     73.84692   1555.2887 -75.10     1.475     1.318   1.4273        203     97.05411
 4.61   1597.9525  22.7847     127.6814    655.1014 -32.85     1.793     1.294   0.8858        204     104.1475
 0.00   1595.9124  99.0000    -271.4535    374.0342  41.13     1.272     1.258  99.0000        205     115.0016
 0.00   1594.0922  99.0000    -101.7837   1384.9441 -19.49     1.473     0.518  99.0000        206     103.2299
 0.00   1592.8507  99.0000    -77.14478    567.1038  41.77     0.836     0.671  99.0000        207      90.9821
 0.00   1571.3456  99.0000    -153.6184     92.7359 -46.28     1.463     1.342  99.0000        208     85.59367
 0.00   1523.4841  99.0000   -0.1920166     14.4994  44.62     0.509     0.490  99.0000        209      33.7899
 3.50   1515.7332  24.0329     40.44287    392.7216 -44.48     1.718     1.630   2.7720        210     103.2299
 5.42   1516.1362  23.9752     42.64929   1547.0354  59.82     1.454     1.004   2.9072        211     114.1712
 0.00    952.6561  99.0000    -1.753418    886.7118 -47.95     0.561     0.340  99.0000        212     48.77152
 0.00    950.6980  99.0000    -5.521118    267.9047  28.11     0.947     0.863  99.0000        213     55.17868
 0.00    948.7698  99.0000    -32.64026    445.2767  -8.36     1.064     0.910  99.0000        214     58.52583
 0.00    947.9496  99.0000    -33.35791    133.2829  89.95     0.730     0.666  99.0000        215     42.51803
 3.72    939.9116  24.2471       33.203   1067.0671 -40.96     1.543     1.337   3.0098        216     92.02193
 0.00    942.2944  99.0000    -40.39722    725.6536  42.39     0.565     0.339  99.0000        217     56.87688
 7.42    939.1722  22.0758     245.2849    515.9601  26.90     1.278     0.921   0.6138        218     138.6347
 0.00    930.5093  99.0000    -170.7523   1178.4397 -63.94     1.809     1.764  99.0000        219     107.2974
 5.70    933.8318  23.8945     45.94238   1118.5709  12.09     0.875     0.614   1.6944        220     71.67921
 0.00    933.5328  99.0000    -13.03601   1027.5371  45.25     0.516     0.481  99.0000        221     58.52583
 4.76    929.1013  24.5512     25.09119   1322.4060 -85.48     1.407     1.267   4.7578        222     109.9254
 0.00    926.4553  99.0000      -6.3396    665.7037 -88.92     0.928     0.456  99.0000        223     72.33986
 0.00    926.6777  99.0000    -72.94287    934.3347  44.43     0.573     0.336  99.0000        224     65.43387
 5.11    926.6449  27.3459      1.91272     46.6976 -47.40     0.572     0.335  20.7223        225     36.49726
 0.00    919.9985  99.0000    -35.69971   1027.5399  56.68     0.762     0.323  99.0000        226     55.17868
 0.00    918.4757  99.0000    -16.97888    252.9750  32.09     0.796     0.313  99.0000        227     70.33929
 0.00    913.5744  99.0000    -212.3772    838.4932 -17.32     1.372     1.256  99.0000        228      102.304
 4.51    913.3035  23.0895     96.42456   1000.9104 -11.44     1.225     0.979   0.9577        229     85.03606
 0.00    908.4130  99.0000    -9.197021    658.8084 -20.19     0.749     0.447  99.0000        230     84.47475
 0.00    905.2918  99.0000    -3.726929   1315.1288  40.86     1.390     0.833  99.0000        231     106.8531
 3.50    901.2191  22.8350     121.9037    302.8273 -74.09     1.691     1.589   0.8776        232     98.51365
 3.50    882.8359  21.2463     526.5996    183.6337 -36.29     4.129     3.698   0.4886        233     236.9312
 4.11    879.3942  22.1498     229.1305    224.3853 -89.82     7.579     1.983   1.3060        234     275.5483
 5.48    886.6755  23.3306     77.22473   1304.8312  69.25     1.659     1.272   1.9448        235     138.2911
 8.04    889.4891  23.1780     88.87891    680.4579  50.42     0.503     0.495   0.8595        236     70.33929
 4.55    896.9634  21.7311     336.9612    538.7819  -3.00     2.098     1.525   0.4501        237     139.6604
 4.20    886.5468  22.5662     156.1469   1500.5457   3.01     1.461     1.296   0.6852        238     98.51365
 0.00    885.8094  99.0000    -104.4811    339.2329 -50.57     1.330     0.893  99.0000        239     82.19123
 0.00    879.0529  99.0000    -247.5177   1177.1078  78.38     1.941     1.680  99.0000        240     184.0439
 0.00    878.3823  99.0000    -72.49292    960.6887  83.41     1.256     1.192  99.0000        241     96.56269
 7.22    879.8236  23.9685     42.91345    673.3711   4.42     0.996     0.374   1.8800        242     74.28658
 4.95    877.6362  23.8049     49.89136    541.8445 -68.79     0.889     0.666   1.4401        243     66.15691
 4.43    870.1768  21.7317     336.7683   1103.6156 -61.56     2.074     1.779   0.4750        244     147.2868
 0.00    860.0833  99.0000    -314.2058   1224.4911 -47.68     2.319     2.159  99.0000        245     134.8072
 0.00    868.6845  99.0000    -104.3341    939.5432  25.12     1.995     1.411  99.0000        246     153.9203
 0.00    870.6064  99.0000    -160.0798    643.5370 -54.39     1.037     0.813  99.0000        247     81.61037
 0.00    889.3626  99.0000    -73.86084    325.6322  17.18     1.630     1.281  99.0000        248     97.54305
 0.00    867.6809  99.0000    -74.61108    454.3147  45.23     0.563     0.341  99.0000        249     56.87688
 0.00    892.3138  99.0000    -21.47424   1453.3175 -44.80     0.562     0.341  99.0000        250      33.7899
 8.00    898.5093  25.4746      10.7196    987.5135  45.27     0.505     0.495   7.1261        251     70.33929
 0.00    881.0706  99.0000    -223.5366   1592.5045 -66.40     2.127     1.980  99.0000        252     125.2963
 5.35    900.5183  24.4912     26.51758    379.4817 -45.00     0.511     0.488   1.9570        253     47.78614
 4.33    860.3961  26.7665     3.261475   1157.4747  -1.20     1.415     1.294  33.9098        254     101.8379
 0.00    861.1950  99.0000    -30.99854   1554.1703  42.07     0.759     0.567  99.0000        255     76.18356
 4.62    859.2386  22.3370     192.8401   1339.8370 -46.16     1.590     1.265   0.6383        256     113.3348
 4.33    894.8569  23.7721     51.42407   1425.8367 -39.54     1.211     1.023   1.7479        257     82.76802
 3.94    856.4521  23.0753     97.69482    545.3185  83.02     1.014     0.653   0.6134        258     55.17868
 0.00    845.8800  99.0000    -476.5043   1206.5642  85.17     1.807     1.294  99.0000        259     176.9271
 4.64    845.9662  24.3890     29.13269   1063.6742  89.16     1.197     1.105   3.4110        260     91.50349
 8.32    847.6516  24.7117     21.64343    358.7094 -47.94     0.564     0.339   3.1719        261     63.21512
 4.01    844.1765  22.1806      222.715   1106.0085  18.02     1.649     1.396   0.5123        262     105.0571
 0.00    838.6929  99.0000    -427.8109   1247.0768 -32.77     2.123     1.570  99.0000        263     169.2309
 0.00    837.3973  99.0000    -42.83289    298.6949 -26.40     1.378     1.249  99.0000        264     79.24435
 5.57    837.5710  24.4307     28.03625   1520.2875   7.21     0.957     0.484   2.6177        265      67.5798
 4.33    836.5140  25.4043     11.43652    819.0198  -0.57     1.082     0.929   7.1748        266     75.55652
 0.00    823.7377  99.0000    -64.08337    654.3710 -54.11     1.702     1.624  99.0000        267     100.4267
 0.00    820.7242  99.0000     -19.4425   1398.2626 -45.46     1.033     0.755  99.0000        268     86.14769
 6.21    819.5537  23.2508     83.11194    702.4227  75.71     0.930     0.814   1.2291        269     94.06711
 0.00    803.8622  99.0000     -98.0188   1378.6096 -21.73     1.740     1.702  99.0000        270     103.2299
 0.00    799.2562  99.0000    -183.8345    695.5490 -86.67     2.594     1.857  99.0000        271     131.9538
 3.50    801.5494  23.0299     101.8674     41.1097 -47.21     1.556     1.367   0.9474        272     88.86594
 3.50    786.3645  23.7084     54.52808   1348.2412  16.84     0.742     0.450   0.7005        273     35.16965
 0.00    774.9242  99.0000    -309.0978   1427.4871 -80.02     2.969     2.204  99.0000        274     208.7512
 3.50    767.5738  23.3942     72.83154    391.7379 -67.87     1.399     1.279   1.2169        275     81.61037
 0.00    768.5201  99.0000    -188.6067    140.3967 -55.99     1.096     0.753  99.0000        276     104.6033
 8.06    759.9716  23.4305     70.43457   1020.4913  57.79     0.794     0.314   1.0845        277     70.33929
 0.00    758.7314  99.0000    -10.90503   1341.6193 -19.11     0.999     0.595  99.0000        278     106.8531
 7.71    755.4391  23.3272     77.47083    195.3306  50.93     1.281     0.507   1.5165        279     108.1805
 6.87    754.6496  25.2568     13.10083    433.6602 -45.40     0.587     0.327   4.2015        280     50.68485
 8.17    753.2500  22.6724     141.5931   1080.7517 -18.40     0.867     0.354   0.6032        281     78.64172
 3.94    743.5427  23.2261     85.02588    556.2998 -21.20     1.383     1.282   1.1621        282      90.9821
 3.50    724.9424  21.8529     301.1978    404.7045 -46.93     2.406     2.206   0.5023        283     139.3193
 4.90    738.9064  22.6494     144.6257   1157.9508   1.73     1.220     1.143   0.7505        284     99.95188
 5.69    736.8120  23.2625     82.22522    649.5158 -57.46     1.284     1.211   1.6296        285     123.3833
 3.50    727.4276  22.3522     190.1681    848.3037 -42.83     2.120     2.006   0.7090        286      124.152
 4.33    728.2363  22.2857     202.1637   1178.2656 -71.71     1.497     1.275   0.5570        287     103.6897
 6.81    740.3104  24.5229     25.75366   1272.3551 -43.06     0.576     0.333   2.1373        288     50.68485
 6.41    722.1498  23.3134     78.45764   1394.6674  67.01     1.174     1.065   1.7291        289     124.9161
 4.03    716.7179  22.5776     154.5082    808.2800 -58.15     1.484     1.251   0.6682        290      95.0732
 0.00    709.5805  99.0000    -129.2931   1163.7408  10.74     1.443     1.381  99.0000        291     127.5541
 4.50    704.9365  21.9667     271.2096   1339.0225 -35.32     1.746     1.681   0.5327        292      133.031
 3.50    707.9461  24.3180     31.10303    794.6355  86.27     0.715     0.646   1.4043        293     40.21803
 0.00    703.4935  99.0000    -291.1929    952.2862 -18.86     1.625     1.545  99.0000        294     107.7398
 4.48    699.7203  24.0908     38.34412    582.8018   2.02     1.869     0.964   2.9497        295     104.1475
 5.28    692.6083  99.0000    -4.581177   1213.5952  57.54     1.506     1.276  99.0000        296     53.42653
 0.00    687.6442  99.0000    -58.95142   1213.6564 -40.15     1.307     0.976  99.0000        297     41.38401
 4.40    693.6906  24.0507     39.78455   1316.2979  45.71     0.551     0.345   0.9224        298      33.7899
 0.00    692.8769  99.0000    -71.54016    316.1330  48.88     0.828     0.663  99.0000        299     76.18356
 4.67    684.0256  22.0640      247.969    472.4936  52.83     2.910     2.718   0.9982        300     227.9254
 3.57    686.2902  22.5577     157.3732    644.0512  42.53     1.531     1.435   0.6314        301     91.50349
 0.00    688.1401  99.0000    -26.12537    130.8793  46.46     0.805     0.656  99.0000        302     42.51803
 0.00    682.3370  99.0000    -26.60339    543.4663 -63.27     2.121     1.519  99.0000        303     142.3594
 0.00    673.8572  99.0000    -24.82849    231.1585  61.85     1.162     0.421  99.0000        304     64.70274
 6.74    669.7614  23.0774     97.50439   1221.3247 -22.02     0.974     0.859   1.1951        305     107.2974
 0.00    667.3170  99.0000     -64.5979   1180.0011   2.17     0.731     0.668  99.0000        306     79.84242
 3.50    649.1271  23.5590     62.57471   1464.2974 -58.66     2.075     1.942   2.1144        307     121.8312
 4.97    655.4444  22.7999     125.8997    870.9727   6.69     1.205     1.054   0.8329        308     96.56269
 0.00   1551.7955  99.0000    -45.10449   1221.6729 -32.21     1.026     0.978  99.0000        309     60.12957
 0.00    646.8544  99.0000    -63.99841    652.7488  27.70     0.962     0.824  99.0000        310     63.96325
 3.50    640.5812  25.4371     11.09534    536.7190 -68.30     1.775     1.691  10.2829        311     105.0571
 7.03    642.0137  23.5991     60.30566    276.5096 -87.93     0.787     0.499   1.3606        312     75.55652
 0.00    631.7795  99.0000    -142.5121    805.9449 -67.46     1.254     1.124  99.0000        313     104.6033
 4.72    629.6339  23.5608     62.46997    941.6058 -21.03     1.042     0.326   0.8132        314        46.78
 0.00    624.2540  99.0000     -169.439   1581.3296 -24.63     1.442     1.261  99.0000        315     127.9265
 6.97    619.1545  23.3506     75.81348   1151.0912  43.65     1.117     0.934   1.7674        316     123.3833
 7.27    616.4916  22.7417     132.8381   1234.5254 -74.41     0.500     0.499   0.5290        317     64.70274
 0.00    610.1631  99.0000    -51.03564    944.9097  41.60     0.839     0.661  99.0000        318     95.57228
 3.50    608.4720  23.9086     45.34937   1011.9153   4.20     0.785     0.497   0.9344        319     39.01722
 3.50    606.2894  24.3942     28.99597    586.0947 -31.41     1.357     1.343   3.0347        320     81.02534
 0.00   1562.1376  99.0000    -104.9586    861.4935   5.33     1.262     1.158  99.0000        321     71.67921
 0.00   1529.5508  99.0000    -80.81006    733.3308  32.68     1.023     0.681  99.0000        322     87.24516
 0.00    589.1851  99.0000     -81.4939   1139.4061  71.47     0.742     0.454  99.0000        323     49.73739
 0.00   1566.7651  99.0000    -141.9675    784.6982 -84.12     1.821     1.377  99.0000        324     136.5603
 5.83   1581.9138  22.8756     117.4261   1414.7047  68.45     1.253     0.472   0.7046        325     76.18356
 0.00   1553.5024  99.0000      -274.83    682.1384 -29.96     4.698     3.910  99.0000        326     259.1783
 0.00   1585.7356  99.0000    -18.32617   1108.8071 -45.53     1.410     1.206  99.0000        327     78.64172
 0.00   1564.5630  99.0000    -92.44128    304.2780 -45.84     1.966     1.875  99.0000        328      115.826
 3.53   1542.6790  22.4365     175.9475    135.1462 -57.03     1.585     1.524   0.5837        329      94.5715
 7.41   1576.4824  23.9184     44.94043   1491.4977  44.73     0.516     0.483   1.5636        330     64.70274
 0.00   1586.8705  99.0000    -65.41736   1069.2076 -26.32     0.977     0.733  99.0000        331     51.61493
 0.00   1558.8706  99.0000    -99.76123    487.7123 -43.24     1.943     1.876  99.0000        332     115.0016
 0.00   1562.9105  99.0000    -39.73474   1566.5850 -28.67     1.434     0.440  99.0000        333     47.78614
 0.00   1565.3141  99.0000    -54.27026    386.6744  64.22     0.775     0.483  99.0000        334     85.03606
 3.50   1567.4845  21.2098     544.5833     22.0536 -35.09     1.501     1.336   0.1740        335     87.24516
 0.00   1546.9426  99.0000    -76.95789    863.4279  79.12     1.442     1.277  99.0000        336     82.19123
 0.00   1536.6472  99.0000    -34.32178   1429.4083 -57.98     1.567     0.952  99.0000        337     89.39968
 0.00   1543.5000  99.0000    -104.2346    654.6492 -44.43     1.543     1.391  99.0000        338     96.56269
 0.00   1477.6925  99.0000    -5.127319    198.6753 -44.09     0.562     0.341  99.0000        339     60.12957
 4.68   1533.0137  22.7380     133.2955    415.7943 -28.03     1.657     1.117   0.8850        340     108.6193
 0.00   1519.6189  99.0000     -32.4032     84.3914  80.11     1.501     0.882  99.0000        341     95.57228
 7.56   1502.3057  27.3757     1.860962   1412.6653  43.54     0.566     0.339  33.1916        342     56.87688
 5.85   1525.2084  22.6049     150.6735    378.9753  80.66     1.380     0.702   0.7204        343     99.95188
 6.91   1539.6632  23.9421     43.96912    263.3266  45.45     0.576     0.334   1.2519        344     50.68485
 0.00   1527.5273  99.0000   -0.5373535    878.5313  49.71     0.500     0.498  99.0000        345     59.33312
 5.74    951.5252  21.6759     354.5144    654.1403  78.51     2.123     1.347   0.5132        346     167.5357
 6.67   1504.6394  23.5199     64.86841   1312.1968 -60.46     1.233     0.361   1.2962        347     77.42239
 3.50   1508.0370  22.7843     127.7269    269.3830 -51.48     1.875     1.773   0.9383        348     110.3574
 6.75   1521.7552  23.8413     48.24634   1100.5942 -83.82     0.997     0.482   1.7972        349     79.84242
 4.14   1515.3909  23.8801     46.55591    483.6699 -45.90     1.145     1.021   1.7771        350     76.18356
 0.00   1499.2957  99.0000    -89.09363    844.5074  14.72     1.147     0.828  99.0000        351      94.5715
 7.80   1497.3391  24.5346     25.47656    930.6786  45.79     0.575     0.335   2.4948        352     58.52583
 0.00   1504.9111  99.0000    -184.1268    723.3754 -14.58     1.267     1.119  99.0000        353     105.9589
 5.01   1483.2747  24.1586     36.02014    575.1030 -33.51     1.906     1.010   3.6258        354     120.2591
 0.00    977.4967  99.0000    -69.43408   1280.5354  84.64     0.500     0.499  99.0000        355     47.78614
 4.78    953.0150  23.9361     44.21301     61.2813 -34.44     1.174     0.434   1.4376        356     58.52583
 0.00    979.2097  99.0000    -199.8368    452.6703  73.39     1.079     0.952  99.0000        357     95.57228
 0.00    982.8316  99.0000    -43.20288   1487.1891 -47.73     0.766     0.557  99.0000        358     64.70274
 7.72    972.4925  24.5287     25.61548   1499.4553 -53.16     0.502     0.495   2.9533        359     69.65967
 6.56   1489.0807  27.4629     1.717285     77.8819 -75.41     0.962     0.688  59.1667        360     93.56001
 5.46   1476.3274  24.1668     35.74866    998.5892  -9.60     1.603     0.944   3.5186        361      115.826
 4.69    987.5121  26.2410     5.291626    453.9747  88.37     1.715     1.484  26.4823        362     129.0373
 0.00    965.8497  99.0000    -23.62073    416.2971 -35.18     1.233     0.947  99.0000        363     65.43387
 0.00   1479.4890  99.0000    -29.40686    638.4839  46.79     0.501     0.499  99.0000        364      33.7899
 0.00   1439.3828  99.0000    -52.97058   1271.1970  84.54     1.095     0.914  99.0000        365     93.56001
 3.50    985.6581  22.9298     111.7048    558.4474 -60.54     1.860     1.774   1.0603        366     109.0564
 0.00    998.9910  99.0000    -79.05737    233.2787 -18.29     1.047     0.720  99.0000        367     52.52854
 5.84    981.6761  21.4803     424.4962    797.9857 -22.91     1.536     1.395   0.3752        368     146.6394
 0.00   1407.2278  99.0000    -146.8361    329.8878  77.17     1.283     1.109  99.0000        369     99.95188
 0.00   1453.8417  99.0000    -46.98254    391.7621  21.98     1.190     0.813  99.0000        370     98.02955
 0.00   1060.6309  99.0000    -54.02393    726.9678  18.85     1.586     1.368  99.0000        371     109.0564
 5.67    993.0269  24.2609     32.78333    500.0000  90.00     0.838     0.289   1.5497        372        46.78
 5.19   1065.3551  29.6264    0.2341309    292.5060  -0.67     0.931     0.478 282.5529        373     60.91562
 6.48    992.5980  22.6885     139.5046      9.8381  20.92     0.779     0.432   0.4979        374     63.96325
 3.50   1063.8134  25.7545     8.283569      7.4519 -49.92     1.309     0.988   9.0426        375     68.97335
 0.00   1439.4318  99.0000    -122.1823    646.8270  47.40     1.087     0.718  99.0000        376     88.86594
 3.50   1436.1301  22.8398     121.3562    224.7948 -34.44     1.604     1.459   0.8373        377     93.56001
 0.00   1440.6519  99.0000    -3.075439    619.1653   9.05     1.445     1.337  99.0000        378     85.03606
 3.50   1084.5770  28.2014     0.869873     43.0163  33.22     1.129     1.014  80.7786        379     64.70274
 0.00   1450.7783  99.0000    -13.87598     88.3631 -73.90     0.748     0.452  99.0000        380     83.34081
 0.00   1386.5995  99.0000     -41.2832   1274.1162 -79.55     1.184     0.678  99.0000        381     55.17868
 0.00   1073.9574  99.0000    -31.07629      6.6659 -10.48     1.253     1.042  99.0000        382     68.97335
 3.50   1435.2332  22.3609       188.64   1090.4421 -47.26     2.094     1.972   0.7125        383     123.7682
 7.30   1432.6862  22.0412     253.2239    341.5507  -7.52     1.510     1.030   0.6745        384     157.2834
 6.66   1069.3281  24.9066     18.08618   1182.6630  44.61     0.577     0.334   3.0434        385     50.68485
 0.00   1416.2998  99.0000    -147.5978   1386.6493  19.76     1.425     1.377  99.0000        386     93.05014
 0.00   1389.6022  99.0000    -148.4331   1428.5128 -35.92     1.644     1.588  99.0000        387     97.54305
 4.22   1437.3093  22.7202     135.4897   1347.0366  73.00     1.028     0.724   0.5006        388     62.45803
 0.00   1067.5095  99.0000    -28.56873    568.8696 -74.17     1.051     0.731  99.0000        389     54.30967
 4.53   1079.9409  22.5801     154.1558    330.0615 -62.65     1.125     0.943   0.5667        390     80.43606
 0.00   1393.0532  99.0000    -125.5599   1038.7660  36.71     1.381     1.366  99.0000        391     82.76802
 0.00   1066.6592  99.0000    -10.59729   1597.1162  36.70     1.159     0.981  99.0000        392     74.28658
 5.29   1072.8472  23.6315     58.53259   1219.1344 -71.81     2.172     1.586   3.1346        393     168.9495
 0.00   1414.8446  99.0000    -112.5923      1.3369  76.87     1.069     0.416  99.0000        394     62.45803
 0.00   1420.1652  99.0000     -15.4408   1126.3615 -58.87     1.926     1.752  99.0000        395     111.6431
 0.00   1360.4252  19.2280     3379.093   1135.0798  85.51     6.676     5.131   0.1384        396     430.5485
 7.40   1079.6525  25.7895     8.020386    921.6893 -46.67     0.573     0.335   7.4715        397     55.17868
 0.00   1412.1393  99.0000    -195.4187    350.1120  23.37     1.424     1.101  99.0000        398     121.8312
 3.50   1409.1057  26.4822     4.237427    308.4276  -7.76     1.523     1.467  23.1832        399      90.4577
 0.00   1367.0492  99.0000    -21.93811   1159.7756 -48.42     3.323     3.056  99.0000        400     193.3716
 3.50   1162.6458  22.2362     211.5974    887.7574 -42.33     1.404     1.128   0.3845        401     74.92424
 0.00   1096.1305  99.0000    -24.62476   1526.4138 -79.64     1.384     1.254  99.0000        402     108.1805
 0.00   1401.4601  99.0000    -60.38977   1031.5901  46.87     1.406     1.196  99.0000        403     129.4055
 0.00   1394.2668  99.0000    -234.4218    114.4738 -48.42     2.040     1.936  99.0000        404     120.6541
 6.46   1389.5433  23.3260     77.55615    806.6446   0.13     0.949     0.941   1.4774        405     105.5089
 4.13   1391.2551  22.6151     149.2694    713.2373  26.66     1.497     1.456   0.7709        406     105.9589
 0.00   1388.2180  99.0000    -14.35193   1384.9540   1.83     0.696     0.413  99.0000        407     57.70724
 0.00   1388.9937  99.0000    -1.015015   1584.7758 -89.72     0.686     0.417  99.0000        408     50.68485
 0.00   1380.3506  99.0000    -44.18579    318.5949  -4.36     1.034     0.628  99.0000        409     78.03444
 8.31   1094.4969  25.1885     13.95105    429.0226  -2.01     0.796     0.500   7.1230        410     91.50349
 5.88   1371.3206  24.3067     31.42676    705.8511 -32.13     1.214     0.408   2.4770        411     71.67921
 0.00   1371.5497  99.0000    -46.31885   1215.7539  21.02     0.718     0.456  99.0000        412     37.77826
 0.00   1353.2751  99.0000   -0.6976318    152.0077  17.83     1.231     1.094  99.0000        413      152.679
 0.00   1157.6599  99.0000    -48.38916    568.3308  45.39     0.579     0.332  99.0000        414     69.65967
 3.50   1105.3257  22.9935     105.3423    751.8358 -44.66     1.770     1.620   1.0642        415     103.2299
 0.00   1373.4700  99.0000    -71.41663   1018.9562 -23.41     1.815     1.707  99.0000        416     107.2974
 7.83   1260.4321  20.9921     665.5268   1015.6125  58.28     1.971     1.064   0.1670        417     102.3554
 5.52   1294.2798  22.3737     186.4318    742.2533  72.75     1.481     1.308   0.7708        418     132.3138
 3.50   1292.2153  22.2241     213.9703    762.1052 -25.95     2.162     1.723   0.5962        419     117.4574
 7.56   1369.4689  24.7794     20.33398    149.4737  17.40     0.499     0.499   3.5333        420     66.15691
 0.00   1131.8344  99.0000    -333.8428    359.0297  34.13     1.138     1.043  99.0000        421     131.2307
 3.50   1130.7366  22.5343     160.7961    183.5802 -57.92     1.787     1.711   0.7156        422     105.9589
 5.31   1331.2352  26.7521      3.30481    386.9082   1.03     1.306     0.996  34.2241        423     104.1475
 0.00   1139.3163  99.0000    -67.94116    148.0981 -46.09     1.899     1.811  99.0000        424     112.4921
 4.94   1346.4969  23.7642     51.79858    605.5798 -50.92     1.185     0.774   1.7473        425     83.34081
 0.00   1308.3901  99.0000    -100.0846    669.6346 -12.17     1.506     1.500  99.0000        426     107.2974
 0.00   1333.5925  99.0000    -79.04016    107.4225 -28.91     1.327     1.156  99.0000        427     109.9254
 0.00   1090.0750  99.0000    -92.58057    642.4633 -46.35     1.578     1.413  99.0000        428     91.50349
 3.50   1320.9133  23.1282     93.04883    659.9951 -43.03     1.941     1.824   1.3374        429     114.5871
 5.13   1331.2213  21.9138      284.748   1139.4135 -89.82     1.767     1.445   0.5365        430     140.6786
 5.43   1320.0242  24.6103     23.76099    264.0417 -45.50     1.309     1.038   5.0043        431     109.4918
 3.93   1330.7634  99.0000    -38.03711    655.8417   4.85     1.684     1.650  99.0000        432     79.84242
 0.00   1278.8961  99.0000    -74.12439   1331.4630 -56.91     1.622     1.533  99.0000        433     103.6897
 0.00   1305.5667  99.0000    -18.94482    892.8640  77.78     1.231     1.139  99.0000        434     79.24435
 5.45   1245.3409  22.8277     122.7174    614.2117  55.72     1.066     0.800   0.7672        435     86.69816
 3.50   1299.2703  22.3951     182.7983    724.8672 -47.60     2.192     2.053   0.7688        436     129.4055
 0.00   1308.5709  99.0000    -167.5936   1036.2755 -36.97     2.662     1.897  99.0000        437     169.5117
 8.09   1307.6787  24.6250     23.44226    574.6574 -44.07     0.576     0.334   2.9285        438     63.21512
 3.90   1273.5858  22.6047      150.697    610.0049 -58.39     4.226     2.471   1.5640        439     217.0196
 0.00   1300.2339  99.0000    -51.26624     54.0051 -29.97     1.122     0.858  99.0000        440     72.99453
 0.00   1263.1622  99.0000    -38.19873    215.8559 -41.55     0.728     0.565  99.0000        441     43.62258
 0.00   1292.0193  99.0000    -97.88928    545.9752 -45.38     0.899     0.525  99.0000        442     60.91562
 0.00   1293.9078  99.0000    -10.19836    412.7370  23.44     1.287     1.129  99.0000        443     71.67921
 4.35   1260.2809  24.0175     41.02161    432.4522 -61.87     1.924     1.810   3.6883        444     139.3193
 6.02   1278.3990  22.9785     106.8069    343.4074  -1.19     0.918     0.658   0.8179        445     80.43606
 5.31   1274.1146  25.4125     11.35059    698.3151 -74.17     1.243     0.866   9.1442        446     95.57228
 8.40   1158.6622  23.1033      95.2124    186.2973  47.11     0.563     0.340   0.7296        447     63.96325
 3.50   1266.2653  26.8132     3.124146    807.8691 -34.50     1.553     1.437  31.6267        448      90.9821
 0.00   1213.6493  99.0000    -458.9546   1429.3060  77.16     2.725     2.083  99.0000        449     232.2672
 0.00   1238.9690  99.0000    -108.9139    857.0435 -50.04     0.811     0.782  99.0000        450     81.02534
 5.05   1131.0317  22.9666     107.9882    219.3827 -20.53     1.568     1.132   1.1648        451      115.826
 0.00   1235.1206  99.0000    -248.1941    304.8844 -70.00     1.601     1.472  99.0000        452     99.47478
 6.60   1230.6104  23.8484     47.93323    599.0931  13.10     1.561     1.462   3.9161        453     172.8467
 0.00   1203.8763  99.0000    -101.4398   1075.5712  37.43     2.022     1.572  99.0000        454     158.4887
 0.00   1238.0283  99.0000    -48.64734   1553.5206 -12.61     1.431     1.370  99.0000        455     85.59367
 0.00   1243.3585  99.0000   -0.9029541    672.6531 -75.48     1.362     1.197  99.0000        456     81.02534
 3.50   1222.2170  21.8817     293.3185    995.1972 -29.50     6.401     5.215   1.2961        457     350.0695
 5.50   1211.9683  26.6896     3.500854    829.0000  90.00     0.845     0.289  14.5116        458        46.78
 0.00   1215.4215  99.0000    -41.20325    513.0118 -59.01     1.744     1.692  99.0000        459      102.768
 0.00   1154.6307  99.0000    -296.0664   1353.0853 -56.52     1.612     1.412  99.0000        460     120.6541
 3.50   1219.7524  17.4814     16883.17   1195.0623  47.81     1.918     1.903   0.0075        461      115.826
 0.00   1229.3567  99.0000    -10.99121   1153.9326 -13.34     1.229     0.989  99.0000        462     96.06876
 0.00   1208.4735  99.0000    -58.16418    838.8270 -35.35     1.394     1.273  99.0000        463     80.43606
 0.00   1195.7808  99.0000    -185.9115    124.2719  85.27     1.875     1.703  99.0000        464     162.0507
 4.55   1205.1183  27.5845     1.535278   1217.1880 -44.51     0.858     0.657  42.5335        465     60.12957
 0.00   1262.9902  99.0000    -43.11206    855.3846   0.11     1.019     0.768  99.0000        466     74.28658
 0.00   1202.6338  99.0000    -239.6721    339.0765 -83.95     1.516     1.396  99.0000        467     110.7876
 4.00   1238.4276  22.9195      112.771     48.1247 -11.79     1.158     0.950   0.7029        468     72.99453
 0.00   1028.6923  99.0000    -81.46631    463.6869 -44.70     0.557     0.343  99.0000        469     42.51803
 3.50   1211.5623  21.9670     271.1348   1279.0439  81.01     5.652     3.475   1.0764        470     268.7307
 0.00   1182.5493  99.0000    -88.80872    176.5511   8.16     1.425     0.969  99.0000        471     114.1712
 5.57   1159.2971  24.2782     32.26465    970.3315 -43.15     0.560     0.341   1.4311        472     42.51803
 0.00   1183.5492  99.0000    -73.16077    673.2097 -21.31     1.027     0.930  99.0000        473     81.61037
 0.00   1130.0508  99.0000    -50.78149    547.4385 -65.12     1.184     1.024  99.0000        474     79.84242
 0.00   1152.1665  99.0000    -43.89954     99.4363  -5.07     1.309     1.208  99.0000        475     76.80547
 7.58   1167.6770  23.4119     71.65637   1599.3630  46.34     0.885     0.518   1.0453        476     68.97335
 0.00   1165.9740  99.0000    -44.81335   1299.8141 -73.19     1.994     1.896  99.0000        477      116.236
 4.29   1134.6660  22.3270     194.6284    607.3837 -45.52     0.986     0.862   0.3887        478     69.65967
 3.70   1173.1541  23.3701     74.46777    757.8781 -78.56     3.576     3.345   3.2219        479     220.9302
 3.50   1152.4623  22.0744     245.5981    693.8153 -37.57     3.504     3.217   0.8975        480     202.9739
 6.77   1169.6912  25.7041     8.676514    385.3456  43.30     0.572     0.336   6.3440        481     50.68485
 0.00   1181.6404  99.0000    -106.1638    549.2858 -17.70     1.166     0.942  99.0000        482     62.45803
 3.62   1158.6710  23.7326     53.32715    236.4378 -45.47     1.660     1.640   2.1302        483     104.6033
 6.85   1197.1642  23.8283      48.8291   1053.6813  19.67     0.936     0.685   2.0921        484     94.06711
 0.00   1201.8149  99.0000     -345.994   1442.1520 -87.53     1.659     1.491  99.0000        485      133.031
 6.43   1178.4944  24.6776     22.33337   1597.7561  72.38     1.154     0.262   2.9621        486     60.91562
 0.00   1142.0636  99.0000    -21.10315    661.8563 -73.51     0.961     0.718  99.0000        487     101.8379
 0.00   1080.7614  99.0000    -4.685425    512.1377 -66.90     1.874     1.779  99.0000        488     109.9254
 0.00   1121.0293  99.0000    -245.1512    329.8812  58.47     2.566     1.726  99.0000        489     196.3016
 0.00   1108.1862  99.0000    -75.39001    427.9433 -54.08     1.692     1.627  99.0000        490     99.47478
 0.00   1111.4923  99.0000     -393.136    479.1404  -7.99     2.159     1.548  99.0000        491     169.2309
 5.31   1115.1155  22.9780     106.8607    674.4976 -60.84     1.343     1.079   1.1171        492     109.9254
 0.00   1095.7281  99.0000    -74.26123    778.1761 -41.61     1.938     1.855  99.0000        493     115.0016
 0.00   1091.6051  99.0000    -78.56104    468.4292 -68.10     1.906     0.987  99.0000        494     122.2211
 4.46   1105.9491  22.5535     157.9768    679.0923  38.97     1.516     1.082   0.6739        495     98.02955
 5.41   1095.1104  25.3695     11.80872   1136.4398 -85.66     1.091     0.933   8.6974        496      94.5715
 3.50   1082.6000  22.7822     127.9731   1148.1749 -75.07     1.756     1.711   0.8877        497     104.6033
 5.58   1040.7959  25.7354     8.430542    467.1765  60.45     1.002     0.638   9.8138        498     76.18356
 0.00   1085.8284  99.0000     -131.566   1452.5986  76.35     0.929     0.621  99.0000        499     85.03606
 6.13   1066.0032  23.5569     62.69836   1562.7290 -64.61     2.578     1.374   3.4584        500     199.6656
 0.00   1020.1995  99.0000    -36.30042   1267.6206  25.73     0.733     0.656  99.0000        501     93.05014
 5.27   1004.8460  23.5117     65.36182   1237.8386  49.76     0.764     0.567   0.9991        502     60.12957
 7.53   1052.5183  21.9553     274.0903    238.0324  26.05     1.259     0.570   0.4390        503     110.7876
 3.50   1030.9935  22.5732     155.1377    302.5808  71.36     2.461     1.757   0.8798        504     125.6754
 5.74   1001.6425  24.1343     36.83508   1025.6887 -46.97     0.578     0.332   1.2861        505     43.62258
 7.86   1044.5297  23.5867     61.00073    809.4821 -44.15     0.509     0.490   1.2523        506     70.33929
 3.50   1039.5049  22.3859     184.3544    525.3945 -59.24     1.681     1.610   0.5972        507     101.3697
 8.77   1042.6610  24.4711      27.0116   1095.3132  46.21     0.571     0.337   2.7170        508      67.5798
 0.00   1024.3846  99.0000     -99.6925     50.1910 -43.62     2.321     2.148  99.0000        509     135.8617
 3.50   1041.0366  23.0173     103.0562    633.0386 -49.21     1.900     1.824   1.1943        510     113.3348
 3.50   1026.5739  23.4553     68.84778   1379.9857 -68.53     1.930     1.815   1.7877        511     113.3348
 5.52   1038.8489  22.9367     111.0032    121.9955 -35.31     2.009     0.803   1.1958        512     122.2211
 3.50   1010.6155  22.9181     112.9203    813.6567 -57.65     1.843     1.780   1.0404        513     108.1805
 5.79   1026.6541  23.7324     53.33838   1028.6674 -45.54     0.582     0.330   0.9101        514     44.69984
 0.00   1038.3229  99.0000     -33.9624    242.3527 -43.78     0.581     0.331  99.0000        515     53.42653
 0.00   1014.3884  99.0000    -64.27979    453.2856 -71.18     0.977     0.589  99.0000        516     71.67921
 0.00   1012.0173  99.0000    -51.05518    344.6626 -58.15     1.552     1.358  99.0000        517     89.39968
 4.00   1000.6549  23.2929     79.95215   1273.9332 -43.42     1.549     1.290   1.3183        518     97.05411
 0.00   1002.4809  99.0000       -18.87    542.4350  72.62     1.531     1.462  99.0000        519     93.56001
 0.00   1020.8218  99.0000    -141.9114   1154.6001  71.58     0.761     0.450  99.0000        520     62.45803
 4.18   1011.5944  23.7282     53.54675    268.0587 -42.84     1.170     0.663   1.3123        521     64.70274
