#   1 KRON_RADIUS            Kron apertures in units of A or B                         
#   2 Y_IMAGE                Object position along y                                    [pixel]
#   3 MAG_BEST               Best of MAG_AUTO and MAG_ISOCOR                            [mag]
#   4 FLUX_BEST              Best of FLUX_AUTO and FLUX_ISOCOR                          [count]
#   5 X_IMAGE                Object position along x                                    [pixel]
#   6 THETA_IMAGE            Position angle (CCW/x)                                     [deg]
#   7 A_IMAGE                Profile RMS along major axis                               [pixel]
#   8 B_IMAGE                Profile RMS along minor axis                               [pixel]
#   9 MAGERR_BEST            RMS error for MAG_BEST                                     [mag]
#  10 NUMBER                 Running object number                                     
#  11 FLUXERR_BEST           RMS error for BEST flux                                    [count]
 3.50    182.2387  12.3855      1844156   1107.8212 -39.89     4.912     4.532   0.0001          1     151.9619
 3.50     59.9974  16.3548     47652.46   1078.7438 -71.19     3.045     3.014   0.0022          2     97.72361
 3.80     53.4462  16.5009     41652.48     63.9191   1.33     5.337     4.876   0.0046          3     178.1911
 4.08     16.9279  18.6284     5869.765    985.4625 -87.34     4.427     2.434   0.0227          4     122.5816
 3.50     18.2198  19.2037     3455.482     91.5117 -89.07     2.184     2.115   0.0214          5     68.11803
 3.54     14.9005  18.0303     10183.53   1446.0903 -42.62     2.591     2.467   0.0088          6     82.28766
 8.06      7.3019  22.4142     179.5975   1466.3320 -43.42     0.563     0.340   0.1986          7     32.84943
 6.31      5.0664  22.1931     220.1687    144.8630 -83.56     0.803     0.681   0.2128          8      43.1442
 8.49      4.0000  22.2161     215.5485   1580.0042   0.00     0.836     0.289   0.2010          9      39.8955
 6.11     25.1080  20.3278     1227.091    367.6416  25.91     1.770     1.749   0.0877         10     99.09428
 8.10     17.1741  21.2340     532.5973    385.0856 -33.22     1.396     0.608   0.1397         11     68.51292
 6.87     34.8687  21.4331     443.3542   1109.8557  64.00     1.403     0.661   0.1495         12     61.01511
 3.50     80.3081  16.3857     46314.64    537.8431 -75.15     2.976     2.935   0.0022         13     95.34827
 7.99     37.7023  21.7007     346.5166   1521.1277  69.14     0.976     0.690   0.1863         14     59.44749
 7.59     38.6061  22.3897     183.6979   1170.7451  18.03     0.754     0.451   0.2437         15     41.22571
 6.75     42.1870  22.0630     248.1896    915.0546  36.06     0.940     0.466   0.1804         16     41.22571
 5.41     44.2103  22.9884     105.8363    564.4238  70.29     0.750     0.451   0.3015         17     29.38142
 4.53     75.2320  19.9927     1670.721    128.0787  -2.00     2.038     1.769   0.0515         18     79.28223
 3.50    121.9990  15.9589     68621.27    789.4222 -43.34     3.091     2.991   0.0015         19     97.86154
 8.19     80.6871  21.1975     550.7968    422.8607 -69.48     1.831     0.583   0.1529         20     77.56223
 6.63     90.7526  20.2656      1299.39    377.0970  89.82     2.137     1.682   0.0967         21     115.6748
 4.32     96.7815  19.6291     2335.494     56.4106 -47.91     2.142     1.995   0.0383         22     82.28766
 3.50    193.6603  14.3786     294149.2    318.2503 -65.56     3.620     3.229   0.0004         23     110.3027
 6.51     97.9849  21.1113     596.3466    453.0418 -10.20     1.999     0.927   0.1487         24     81.62935
 3.96    170.5666  18.1836     8841.938    877.6066 -15.84     2.602     2.549   0.0116         25     94.06646
 3.50    162.5963  16.5854     38533.64   1468.6017 -50.03     2.946     2.848   0.0026         26     93.63528
 4.04    234.9475  16.3565     47577.57    403.9568 -44.17     6.716     5.681   0.0052         27     229.7113
 4.54    131.7585  23.0368     101.2267   1511.9980  -0.09     0.691     0.428   0.2492         28     23.22806
 7.85    131.3489  22.5310      161.285    417.6746  45.96     0.580     0.331   0.2156         29     32.01767
 6.89    165.6580  20.9379      699.614   1446.0771 -42.49     1.415     1.198   0.1280         30     82.45142
 4.73    166.8963  21.0936     606.0981    104.9961 -74.33     1.508     1.309   0.1089         31     60.79364
 5.90    159.3234  23.3087     78.79614    537.6866  45.51     0.564     0.340   0.3280         32     23.80167
 6.19    192.8279  20.1581     1434.742   1350.5507 -34.85     2.995     1.451   0.0897         33     118.4403
 5.02    211.0280  18.7489     5253.574    827.9761  -4.84     4.227     2.650   0.0320         34     154.8634
 4.53    206.7372  19.8307     1939.602    549.4034 -48.39     2.105     1.879   0.0463         35     82.77796
 4.65    212.5210  19.9672     1710.501   1306.4326 -68.03     2.091     1.821   0.0533         36     83.91085
 5.40    230.1652  18.7606     5197.177    562.5081 -38.49     3.810     3.408   0.0375         37      179.323
 6.08    209.1250  20.3404     1212.988    349.5309  12.30     2.423     1.452   0.0937         38     104.6552
 3.50    260.0322  15.4965       105054    997.7167 -32.12     3.194     3.098   0.0010         39     101.2487
 7.81    202.8634  22.0954     240.8987    250.2823  19.02     0.953     0.674   0.2597         40     57.60371
 6.93    210.9014  21.3324     486.4434    684.3036 -59.48     1.540     1.020   0.1789         41     80.12838
 4.16    224.0377  19.8486     1907.911   1226.2937 -23.73     2.086     1.923   0.0438         42     76.86346
 7.03    221.8811  20.4469     1099.639    346.7842   7.61     2.225     1.519   0.1175         43     119.0084
 5.37    222.7527  20.8822      736.385    775.3899 -54.77     1.809     1.449   0.1174         44     79.62177
 3.50    266.0527  15.6978     87272.13     67.7354 -43.78     3.128     3.024   0.0012         45     98.68507
 5.84    243.7053  19.8022     1991.209    113.0364 -77.12     2.694     1.956   0.0673         46     123.3495
 3.50    312.5910  14.1581     360379.8    439.6373 -48.13     3.406     3.276   0.0003         47     107.3277
 7.24    239.4138  21.0408     636.3308    838.7144 -80.72     1.844     0.858   0.1429         48     83.74995
 4.74    255.5604  18.9888     4211.916    613.4468 -39.07     3.019     2.554   0.0313         49      121.254
 7.87    229.6942  23.1374     92.26514    538.6587 -43.29     0.568     0.338   0.3867         50     32.84943
 3.50    287.9363  17.2559     20779.57   1486.5533 -28.72     3.094     2.740   0.0049         51     93.63528
 8.46    252.1395  21.2345     532.3313   1374.1746   9.83     0.995     0.700   0.1315         52     64.45524
 7.81    253.6793  22.4201     178.6279   1353.6771 -44.89     0.567     0.339   0.1947         53     32.01767
 3.50    282.1217  18.9520      4357.13   1522.4907 -38.99     2.404     2.334   0.0190         54     76.15827
 3.50    351.6739  14.2875     319900.1    891.0381 -50.77     3.498     3.322   0.0004         55     109.5665
 3.50    318.9506  16.1094     59736.08    905.7338 -52.66     3.057     2.975   0.0018         56     97.03101
 3.50    303.2986  17.6228     14820.82    201.9461  81.04     2.728     2.688   0.0064         57     87.22128
 4.90    289.9463  19.8157     1966.665    515.3391  73.50     2.317     2.098   0.0550         58     99.63726
 3.50    351.7511  14.3298     307662.5   1346.0488 -34.10     3.424     3.249   0.0004         59      107.076
 4.32    294.1810  19.8894      1837.63   1327.9517 -78.21     2.116     1.894   0.0471         60     79.62177
 5.65    298.0721  20.5097     1037.802   1413.6317 -45.20     2.558     1.413   0.1031         61     98.54829
 3.50    322.3132  18.0808     9720.434    697.5565  78.95     2.545     2.527   0.0092         62     81.95917
 6.17    302.6077  20.6898     879.2203    563.7846  -2.74     1.690     1.453   0.1106         63     89.51093
 4.52    346.6619  18.3972      7263.25    867.2843  27.15     2.916     2.612   0.0135         64     90.25874
 8.03    308.3838  20.9297     704.9058     86.2233  87.87     1.279     0.996   0.1280         65     83.10322
 5.75    327.8482  19.6319     2329.455    595.7621 -36.78     2.316     2.180   0.0555         66     119.0084
 7.13    323.0114  21.0044     658.0234    640.0057  69.43     1.493     1.018   0.1331         67     80.63181
 7.88    321.4943  20.8201     779.7505    643.4767  50.10     1.843     0.825   0.1257         68     90.26125
 4.04    355.9810  18.6834     5580.223    432.0928  80.61     2.694     2.476   0.0186         69     95.48963
 7.19    331.8545  21.3677     470.9088     93.1126  72.97     1.157     0.864   0.1543         70     66.91938
 3.66    368.6590  17.9656     10808.84    760.9850 -48.40     3.229     2.592   0.0098         71     97.58548
 7.55    329.5132  22.2757     204.0485   1546.5171  -0.14     1.090     0.500   0.2751         72     51.67916
 6.66    335.8877  21.6973       347.59   1440.3259   8.40     1.151     0.720   0.1725         73     55.21246
 5.33    349.9268  20.5668     984.6124     54.7275 -33.05     1.707     1.422   0.0842         74     76.33518
 4.08    367.4095  19.0268     4066.953    442.9427  73.16     2.468     2.457   0.0246         75     92.18349
 3.50    395.3917  16.2835     50887.91    231.5978 -62.86     3.045     2.976   0.0021         76     96.47336
 4.55    361.4847  19.9401     1753.718   1500.6577 -19.24     2.057     1.898   0.0514         77     82.94075
 5.79    361.1364  21.5286     406.0155   1034.1516  63.30     1.358     0.944   0.1632         78     61.01511
 7.96    359.5301  21.5391      402.137    533.7626 -62.94     1.324     0.535   0.1666         79     61.67476
 7.34    362.5314  22.1596      227.066   1415.3390 -89.56     0.920     0.473   0.2137         80     44.68006
 5.59    381.1294  20.4855     1061.165      1.9302  89.15     2.381     0.903   0.0631         81     61.67476
 5.49    372.8766  21.2671     516.6102    992.5557 -78.52     1.555     1.090   0.1385         82     65.90385
 6.97    372.0318  21.2842     508.5281     70.7653 -55.38     1.399     0.754   0.1407         83     65.90385
 3.83    398.3482  18.2472     8338.778    354.7326  46.69     2.574     2.564   0.0118         84     90.55963
 3.62    397.4170  18.4734     6770.827   1461.3718 -31.94     2.577     2.377   0.0132         85     82.45142
 6.50    370.0134  22.4934     166.9764    209.0098  -0.68     0.615     0.606   0.2291         86     35.22709
 8.08    372.8884  21.4414     439.9702   1084.1632 -12.05     1.030     0.665   0.1522         87     61.67476
 3.50    419.8457  16.3941     45956.42    433.5670 -54.32     2.911     2.899   0.0022         88     93.34673
 3.73    393.9712  20.0296     1614.883   1088.8979 -52.36     1.987     1.909   0.0455         89     67.72084
 5.12    412.5887  19.7600     2070.049      2.3713  89.00     3.544     1.277   0.0432         90     82.28766
 3.50    415.8865  17.1971     21936.01    837.5073 -42.69     2.795     2.687   0.0044         91      88.4498
 7.66    382.1581  21.9646      271.745     67.4952 -36.04     0.910     0.678   0.2187         92     54.72167
 7.63    383.7711  22.2648     206.1029      9.8583  11.59     1.358     0.557   0.1918         93     36.39113
 7.90    397.2685  21.0269     644.5524    626.1052 -77.88     1.385     0.808   0.1292         94     76.68777
 3.50    424.4074  19.1039      3788.23    926.5994 -74.38     2.411     2.207   0.0213         95     74.36607
 3.50    438.1793  17.5268     16191.31    252.3252  -7.72     2.790     2.705   0.0060         96     88.90612
 3.50    461.3314  15.1525     144204.8    807.6804 -41.34     3.178     3.081   0.0008         97     101.2487
 6.42    420.9558  20.2692     1295.124    159.3079  43.28     2.158     1.705   0.0949         98     113.1995
 5.20    433.1000  20.3289     1225.857   1422.1897  69.53     1.816     1.716   0.0752         99     84.86987
 4.50    450.5894  18.6656     5672.178     21.4207  29.10     2.486     2.460   0.0196        100      102.309
 5.81    426.7534  21.6544     361.6232   1180.0172  34.23     1.461     0.792   0.1730        101     57.60371
 4.72    468.1039  18.3223     7781.688    851.1541  23.76     7.117     2.572   0.0260        102     186.1146
 6.89    434.3987  20.9541     689.1921    150.7365   5.03     1.835     1.044   0.1384        103     87.83768
 8.49    431.0077  21.6931     348.9613    720.1688  54.18     0.930     0.469   0.1584        104     50.89012
 6.20    444.9543  20.4535     1092.901    122.5157  59.24     1.881     1.549   0.0970        105     97.58548
 4.06    457.9190  18.5526     6294.542     34.5368 -17.68     2.654     2.427   0.0164        106     94.92292
 5.31    440.3495  21.2935     504.1871    305.9941   4.53     1.300     1.115   0.1266        107     58.76285
 5.33    447.8613  20.9908     666.3308    885.2292   1.04     1.961     1.221   0.1244        108     76.33518
 4.20    463.9481  19.9339      1763.74    468.8448  47.85     2.214     1.898   0.0488        109     79.28223
 5.99    461.4201  21.2441     527.6787   1096.9908  70.01     1.411     1.077   0.1390        110     67.52136
 8.24    452.3464  22.2977     199.9425   1534.3280 -45.75     0.581     0.331   0.1828        111     33.66065
 3.50    478.1534  19.4580     2734.067    923.1714 -42.86     2.291     2.063   0.0277        112     69.68417
 3.63    472.2752  19.7778     2036.418    735.0540  13.65     2.058     1.947   0.0360        113     67.52136
 5.14    471.5919  19.9664     1711.731    254.7253   9.05     1.980     1.869   0.0578        114     91.15347
 5.65    455.3133  23.1759     89.04712   1227.3334 -44.02     0.568     0.338   0.2761        115     22.63991
 3.98    596.9890  18.6468     5771.424    782.9262 -87.82     3.615     3.453   0.0243        116     128.9105
 4.31    478.5005  20.5205     1027.505   1277.1139 -65.71     2.064     1.726   0.0792        117     74.90823
 7.45    462.3968  21.9127     285.0431    722.7952 -12.80     1.120     0.417   0.1781        118     46.74556
 3.50    512.7224  17.7727     12910.09   1303.0808   1.00     3.397     2.606   0.0080        119     95.63078
 4.37    533.1533  17.1921     22038.28    519.0990  25.24     4.785     4.361   0.0091        120      184.367
 6.02    495.6913  19.3987     2887.437     82.7940 -76.01     2.777     2.530   0.0553        121     146.9989
 3.92    483.9861  20.5160     1031.808   1070.6866 -32.20     1.908     1.620   0.0667        122     63.40025
 4.69    495.7628  19.6487     2293.628   1186.4955 -10.67     3.121     2.244   0.0542        123     114.3849
 6.94    489.6826  21.1028     601.0212    839.3377  48.25     1.545     1.140   0.1531        124     84.71078
 4.65    502.2021  21.2984     501.9082    863.7810 -39.11     1.826     1.368   0.1465        125     67.72084
 5.54    504.4456  20.3688     1181.629    763.2783 -18.82     2.324     1.464   0.0867        126     94.35281
 4.30    515.7267  19.2837     3209.982   1461.0349  21.85     4.019     2.030   0.0383        127     113.3186
 8.21    499.3254  22.2425     210.3738    366.3373 -44.48     0.576     0.334   0.1738        128     33.66065
 3.50    588.2134  14.2515       330659   1315.9587 -42.43     3.351     3.219   0.0003        129     106.0635
 8.43    510.5000  20.8727     742.8499    163.0072 -31.60     1.377     0.905   0.1273        130     87.06649
 7.83    509.5540  21.1604     569.9327    166.5013  60.62     1.072     0.826   0.1302        131     68.31577
 6.71    509.5146  21.9600     272.8888    454.2385 -89.84     0.978     0.719   0.2046        132     51.41749
 6.10    513.6796  21.0600     625.1858   1179.5034   5.85     1.539     1.119   0.1279        133     73.63697
 6.29    518.5699  21.6181     373.9127    642.8600 -29.67     1.255     0.759   0.1659        134     57.13346
 3.53    540.5427  20.1172     1489.718   1000.0333 -48.23     2.151     1.744   0.0462        135     63.40025
 8.69    536.4771  22.2328     212.2686    402.4881 -37.00     0.500     0.499   0.2058        136     40.23217
 3.52    559.1711  19.7186     2150.646   1041.8425 -30.51     2.139     1.954   0.0335        137     66.31193
 3.56    572.9426  18.4466     6939.859   1242.7992 -27.79     2.522     2.450   0.0127        138     81.13211
 3.50    631.4161  13.6244     589185.2    483.3755 -44.03     3.483     3.337   0.0002        139     110.3027
 3.83    580.9929  18.0828     9702.464    145.0090 -71.13     2.633     2.498   0.0101        140     90.26125
 3.54    582.3829  18.0902     9636.118    319.3545 -38.03     2.643     2.519   0.0095        141     84.71078
 4.74    571.4081  19.9242     1779.618     45.8489  54.95     2.361     1.903   0.0564        142     92.47567
 4.55    550.7809  23.5301     64.26135    143.9820  -0.87     0.655     0.414   0.3511        143      20.7758
 4.61    571.8535  20.1326      1468.81   1447.7355  40.13     2.426     1.906   0.0673        144     91.00538
 8.47    565.4221  20.7270     849.5422    139.1938 -84.40     1.745     0.805   0.1182        145     92.47567
 6.35    575.3669  20.1729     1415.312   1336.4686 -61.19     2.361     1.801   0.0581        146     75.70512
 5.78    577.0038  21.7531     330.1871   1002.5832  -1.68     1.329     1.013   0.2029        147     61.67476
 4.94    584.7218  21.0565     627.1913     75.8023  73.68     1.554     1.136   0.1037        148     59.89957
 3.50    605.4258  20.5587     991.9878    586.3757 -89.35     1.953     1.583   0.0620        149     56.65932
 3.50    985.2014  16.8697     29656.48    558.6801 -34.53     2.937     2.856   0.0034        150     93.34673
 5.26   1598.7227  21.5329     404.4142    655.0228 -33.96     1.480     1.007   0.1261        151     46.97068
 6.25   1595.9941  22.2156     215.6456    652.7838 -22.73     1.121     0.683   0.1526        152     30.30628
 4.43   1599.4045  22.0051     261.7971     20.3169 -17.39     1.692     0.641   0.1477        153     35.60794
 8.91   1594.3894  22.0021     262.5247   1387.1508  19.77     0.757     0.441   0.1969        154     47.60335
 4.10   1584.9974  20.4131     1134.348   1108.8921  -5.70     1.845     1.581   0.0615        155     64.24563
 5.03   1585.4873  22.8967     115.1669   1068.7311  53.74     1.360     0.225   0.2399        156     25.44506
 3.50   1566.8105  19.8503      1904.89     22.0706  39.44     2.151     1.984   0.0379        157     66.51503
 3.54   1565.8353  20.3732     1176.873    784.5983  73.81     2.207     1.782   0.0593        158     64.24563
 3.50   1558.1235  16.1221      59040.2    487.7611 -84.10     2.956     2.930   0.0018        159      95.2067
 3.50   1552.8148  17.1187     23579.58    682.2031 -28.16     4.833     4.349   0.0068        160     147.9137
 5.03    860.5712  20.9348     701.5554   1157.2614  64.74     1.678     1.440   0.1117        161     72.15668
 5.33    858.9348  21.3835      464.101   1339.6710 -55.93     1.493     1.142   0.1508        162     64.45524
 7.29    888.8391  20.5334     1015.392    326.1275 -21.70     1.643     1.358   0.1076        163     100.5804
 7.89    857.8146  22.3627      188.324    144.3609 -72.36     0.763     0.442   0.2452        164     42.51432
 7.36    845.2385  21.1006     602.2133   1206.7559  81.58     1.556     1.285   0.1063        165     58.91926
 6.71    845.2845  20.7433     836.8947   1064.4720 -12.05     1.499     1.313   0.1124        166     86.60047
 5.66    843.5905  20.3954     1153.067   1106.4135  36.83     1.834     1.672   0.0864        167     91.74347
 5.49    838.0015  19.6950     2197.781   1247.0173 -49.58     2.417     2.125   0.0569        168     115.0903
 5.67    836.8416  19.9973     1663.726    299.0053 -59.74     2.103     1.772   0.0659        169     100.9819
 8.05    837.6497  22.6802     140.5798   1521.6752 -46.05     0.581     0.331   0.2600        170     33.66065
 6.16    836.1196  22.1434     230.4766    819.3091 -20.89     0.916     0.679   0.2119        171     44.98094
 3.50    823.2621  18.5308     6422.133    654.5388 -44.83     2.488     2.416   0.0134        172     79.28223
 3.50    803.3778  18.6638     5681.902   1378.7488 -35.95     2.436     2.303   0.0146        173     76.51168
 3.50    798.7994  17.4465     17433.33    695.8089 -82.98     3.169     2.692   0.0059        174     94.06646
 4.14    800.9179  19.4045      2872.11     41.2440 -35.56     2.371     2.164   0.0327        175     86.60047
 5.85    797.7188  22.8688     118.1619   1544.2725 -69.71     0.853     0.355   0.2571        176     27.97028
 3.50    774.7056  19.6533     2283.893   1427.5811  88.74     2.780     2.435   0.0399        177     83.91085
 5.34    766.9963  20.0739     1550.325    392.1560  23.59     2.053     1.800   0.0660        178     94.20974
 7.04    767.9082  22.0022     262.4838    142.2719  -7.29     1.058     0.677   0.2264        179     54.72167
 8.00    757.6758  22.7036      137.579   1342.3060  45.97     0.561     0.341   0.2560        180     32.43621
 4.38    742.8175  20.2645     1300.807    556.4475  36.94     1.969     1.806   0.0628        181      75.2675
 3.50    724.3953  14.0300     405499.6    405.0844 -45.56     3.523     3.346   0.0003        182      110.547
 6.27    737.9290  21.2444     527.5037   1158.6467 -60.22     1.599     1.111   0.1597        183     77.56223
 3.98    727.8657  20.4865     1060.211   1178.3289  -4.90     1.896     1.746   0.0677        184     66.10821
 7.37    723.0043  21.5828     386.2649   1395.6741 -15.87     1.218     0.677   0.1740        185     61.89307
 3.50    726.8715  15.9572     68725.45    848.5637 -46.77     3.084     2.997   0.0016        186     98.27417
 3.50    715.9310  20.3462     1206.467    808.4232   3.82     1.831     1.767   0.0525        187     58.30196
 3.84    709.0284  20.3501     1202.115   1164.1351 -18.22     1.890     1.633   0.0569        188     62.97331
 4.75    736.2467  21.1778     560.8682    649.9886 -54.96     1.406     1.214   0.1111        189     57.36906
 4.73    704.5935  20.0320     1611.376   1339.0583 -47.86     2.128     1.899   0.0590        190     87.53002
 4.10    703.0588  19.5795     2444.547    952.6016 -17.93     2.164     2.110   0.0357        191     80.46435
 6.69    698.3197  20.9255     707.6036    583.5120  20.28     1.702     1.316   0.1415        192     92.18349
 6.73    691.0156  21.2991     501.6038   1214.0000 -37.90     1.666     1.096   0.1188        193     54.86637
 5.93    687.3190  21.0353     639.5773   1214.3245 -15.60     1.880     1.215   0.1406        194     82.77796
 5.26    683.3900  19.8097     1977.599    472.1355 -82.59     2.724     2.361   0.0676        195     123.1306
 8.76    687.4053  21.9680      270.892    132.1882  19.49     0.759     0.446   0.1908        196     47.60335
 5.14    681.3306  19.6227     2349.238    543.5062 -79.88     2.544     2.318   0.0533        197     115.2074
 3.90    685.7884  19.7554     2078.909    644.3531 -76.82     2.205     2.099   0.0402        198     76.86346
 3.50    648.6778  15.9696      67946.8   1464.4425 -41.77     3.032     2.936   0.0015        199     95.91247
 4.48    654.8028  21.2500     524.8239    871.6137  16.84     1.473     1.161   0.1117        200     53.97712
 3.50   1541.9684  19.2657     3263.622    134.9627 -88.98     2.309     2.183   0.0241        201     72.52958
 3.50    639.9554  18.0276      10208.4    537.0042 -77.65     2.603     2.508   0.0087        202     81.95917
 7.45    644.9847  21.9692     270.5966    653.9762  45.87     0.903     0.526   0.1922        203     47.88586
 3.92    630.8015  21.3790     466.0081    806.2889  -7.28     1.543     1.099   0.1096        204     47.03323
 3.66    623.5600  20.5873     966.1921   1581.1152   6.84     1.716     1.666   0.0647        205     57.60371
 9.28    618.5421  21.7032     345.7257   1151.5134 -42.69     0.509     0.489   0.1345        206     42.83042
 7.59   1594.4321  21.7521     330.4918    374.4944 -88.56     1.109     0.499   0.1664        207     50.62437
 5.57    878.4634  21.9359     279.0192    960.6149  41.36     1.300     0.644   0.1831        208     47.03323
 3.50    913.3269  20.9905     666.4752    838.5448 -74.58     1.717     1.401   0.0825        209     50.62437
 9.33   1536.9894  21.5082     413.7198   1428.7147 -86.80     0.740     0.689   0.1596        210     60.79364
 6.47   1516.2203  21.0420     635.5974   1547.8488  86.81     1.542     1.161   0.1366        211     79.95986
 3.50   1570.5266  20.2218     1352.948     92.6435 -55.10     1.908     1.798   0.0477        212     59.44749
 3.50    880.6585  15.4088     113893.7   1592.4357 -70.60     3.100     2.929   0.0009        213     94.20974
 3.50   1563.8154  16.1107     59665.49    304.2059 -48.02     3.028     2.968   0.0018        214     97.30865
 7.91   1550.8585  21.7456     332.4744   1221.9041 -43.50     0.840     0.673   0.1787        215     54.72167
 3.50   1507.2974  16.7861      32031.6    269.3668 -83.66     2.892     2.852   0.0031        216     92.76694
 7.93    869.6841  22.4931     167.0195    642.6816 -44.87     0.563     0.341   0.2082        217     32.01767
 4.82   1561.5085  20.6403     920.1746    861.5500  13.31     1.943     1.459   0.0880        218     74.54723
 3.74   1546.2635  21.0161     650.9824    863.2228  11.30     2.004     1.434   0.0980        219     58.76285
 7.07    595.3417  22.9338     111.2964    882.6633  45.20     0.582     0.330   0.2729        220     27.97028
 4.65    868.4896  20.7614     823.0625    939.5784  10.68     2.196     1.445   0.1012        221     76.68777
 6.36   1532.8143  21.5542      396.561    415.7062  51.44     1.225     0.867   0.1647        222     60.12433
 7.13    901.4646  22.7762     128.6796      1.5281  44.22     0.507     0.490   0.2361        223     27.97028
 7.25   1504.3042  22.9176     112.9648   1312.3025 -45.11     0.551     0.345   0.2735        224     28.44844
 5.43    896.1943  20.0536      1579.63    538.6276 -19.70     2.337     2.200   0.0780        225     113.4376
 3.50   1542.7661  19.6362     2320.222    654.7966 -57.64     2.277     2.084   0.0328        226     70.07024
 7.79   1515.3047  21.8011     315.9125    483.5810 -40.07     1.280     0.506   0.1980        227     57.60371
 4.90    876.1676  22.8114     124.5742    542.0864 -47.54     0.851     0.656   0.2899        228     33.25751
 3.50    859.6343  14.3674     297191.6   1224.5459 -40.66     3.396     3.237   0.0004        229     106.8238
 4.79    869.7753  19.4041     2873.091   1104.0787 -26.09     2.597     2.296   0.0408        230     107.9542
 3.99    900.7181  18.4933      6648.01    303.0515 -32.65     2.680     2.385   0.0152        231     93.20213
 7.19   1496.8009  22.4677     170.9736    844.6091  70.45     0.764     0.441   0.2402        232     37.81253
 3.50   1514.9398  18.3338     7699.468    392.6765 -49.10     2.545     2.449   0.0113        233     80.29654
 5.72    879.2748  18.1868      8816.23    224.6334  89.97     6.994     2.595   0.0277        234     224.7247
 3.50    886.1868  20.9476     693.3885   1500.2448 -41.32     1.734     1.507   0.0809        235     51.67916
 5.71   1504.2100  20.9229     709.2906    723.5041 -13.85     1.558     1.364   0.1177        236     76.86346
 5.66    877.8342  20.4112     1136.397   1177.6235 -22.53     2.037     1.581   0.0893        237     93.49112
 4.83    885.9565  21.1014     601.7825   1304.5952  74.75     1.837     1.309   0.1247        238     69.10103
 4.16    939.6153  19.8695     1871.522   1067.3606 -62.21     2.125     1.952   0.0454        239     78.25477
 4.22    912.7669  22.0834     243.5807   1000.8740  -5.73     1.258     0.702   0.1654        240     37.09223
 8.46   1437.4961  22.3346     193.2689   1347.4993  44.96     0.505     0.495   0.2105        241     37.45411
 6.71    938.1220  20.7551      827.887    516.4686 -38.73     1.776     1.478   0.1312        242     100.0426
 3.50    930.0122  17.5969     15179.06   1178.4865 -34.70     2.779     2.627   0.0062        243     87.22128
 4.71   1400.8264  20.6090     947.0912   1031.8337   3.40     1.910     1.590   0.0873        244     76.15827
 3.50   1434.5859  15.1382     146122.6   1090.4143 -59.11     3.213     3.117   0.0008        245      102.045
 3.50    947.4985  22.0234     257.4187    445.8221  20.30     1.299     0.861   0.1437        246     34.05902
 3.50   1388.9996  18.4166     7134.483   1428.3959 -75.23     2.420     2.373   0.0118        247     77.56223
 3.50   1415.5215  20.1626     1428.712   1386.5270 -14.68     1.947     1.825   0.0464        248     61.01511
 3.50    882.3248  12.9787      1067849    184.0812 -36.94     3.744     3.550   0.0001        249     117.1809
 3.76    929.0295  20.7055     866.5571   1322.1692 -23.98     1.747     1.621   0.0734        250     58.53286
 6.82    947.4278  22.5873     153.1299    133.6909   9.02     1.035     0.473   0.3104        251     43.76501
 3.69   1390.5596  19.5798      2443.92    713.4028 -44.33     2.299     1.973   0.0323        252     72.71532
 3.80   1435.3816  19.2446     3327.724    224.9037  54.77     2.253     2.167   0.0253        253     77.38813
 3.50   1393.5499  15.7801     80898.59    114.3857 -47.92     3.046     2.986   0.0013        254     96.89191
 3.50   1439.8134  19.6168      2361.98    619.3231 -57.22     2.161     2.065   0.0315        255     68.51292
 7.28   1434.3214  22.5854     153.4084    341.6860  45.38     0.564     0.340   0.2014        256     28.44844
 3.50   1419.4348  17.3971     18246.36   1126.3322 -54.97     2.854     2.716   0.0054        257     89.96188
 3.67   1411.3929  20.9617     684.4403    349.9223  61.00     1.809     1.631   0.0910        258     57.36906
 6.18   1406.2505  21.4187     449.2639    329.1994  37.89     1.346     1.177   0.1731        259     71.59367
 6.47   1065.9886  21.8118     312.8201   1596.7365  52.89     1.278     0.626   0.1748        260     50.35722
 5.15   1412.4729  21.2873      507.084      1.6512 -88.48     1.958     0.672   0.0989        261     46.16485
 3.50   1366.4746  13.2731     814284.4   1159.1398  14.36     4.503     3.574   0.0002        262     129.6409
 3.50   1408.4286  19.6446      2302.36    308.3497  -2.59     2.203     2.012   0.0322        263     68.31577
 6.18   1063.2089  21.1387     581.4465      7.1723 -28.41     1.389     1.243   0.1358        264     72.71532
 7.43   1145.0000  22.3954     182.7397    769.9743   0.00     0.852     0.289   0.2071        265     34.84208
 7.15   1093.4473  21.0060     657.0356    467.2915 -45.65     1.313     0.949   0.1211        266      73.2697
 3.50   1104.7153  17.9973     10497.56    751.9335 -62.11     2.653     2.610   0.0088        267     84.86987
 4.18   1392.6360  19.9833     1685.275   1038.9935 -16.29     2.029     1.869   0.0486        268      75.4465
 5.49   1060.0006  20.2857     1275.602    726.6678 -18.82     2.114     1.688   0.0815        269     95.77173
 7.57   1105.2676  20.8952     727.6632    678.9073  58.21     2.062     0.931   0.1444        270     96.75259
 6.46    952.3282  23.0553     99.50879     63.3045 -46.25     0.562     0.341   0.2945        271     26.98856
 5.72    951.7155  20.9041     721.7341    654.0697 -86.18     1.785     1.414   0.1250        272     83.10322
 4.27   1307.7802  19.4709     2701.683    669.7330 -45.13     2.409     1.993   0.0277        273     69.00674
 3.50   1095.2030  16.8429     30396.93    778.2391 -50.94     2.921     2.818   0.0033        274     92.62141
 3.50   1372.7700  18.2008     8703.166   1019.0164 -69.59     2.655     2.592   0.0106        275     84.86987
 3.96   1089.7832  19.3795      2938.97    642.4955 -72.57     2.262     2.125   0.0294        276     79.62177
 3.50   1278.2843  19.0322     4047.006   1331.2640  19.82     2.367     2.229   0.0199        277     74.18446
 6.07   1331.0336  20.3836     1165.646   1139.6675 -68.68     2.240     1.595   0.0985        278     105.6813
 3.50   1214.8149  17.6161     14913.16    513.1483 -46.75     2.788     2.685   0.0064        279     88.29717
 5.37   1304.6041  20.8264     775.2477    892.9384 -82.96     1.731     1.354   0.1062        280     75.80322
 3.50   1151.9622  13.3708     744204.5    693.9587 -41.89     3.590     3.400   0.0002        281     112.6022
 8.48   1353.4644  22.2714      204.856    154.5137 -43.11     0.507     0.491   0.2023        282     38.16759
 3.84   1107.6848  18.4382     6993.914    428.1783 -77.45     2.603     2.456   0.0140        283     89.96188
 5.86   1129.9962  21.1737     563.0081    547.0287  44.68     1.421     1.108   0.1310        284     67.91972
 3.50   1082.0327  18.1142      9425.98   1148.2699 -18.58     2.625     2.539   0.0095        285     82.77796
 6.37   1111.0759  19.9802     1690.102    479.3345  60.00     2.765     1.746   0.0832        286     129.4326
 3.50   1293.0548  20.7653     820.1072    412.8123 -59.79     1.963     1.671   0.0772        287     58.30196
 7.26   1330.6422  21.7669     326.0283    386.4968  36.27     1.074     0.780   0.2032        288     61.01511
 3.50   1321.1383  16.7106     34338.13    659.6407 -66.15     4.262     2.830   0.0035        289     112.2422
 3.69   1307.7596  19.6150     2365.867   1036.3203 -33.92     2.628     2.304   0.0384        290     83.58874
 6.37   1230.7162  20.8653     747.9606    598.6448 -26.31     1.728     1.211   0.1230        291     84.71078
 5.36   1333.0924  20.9142      715.038    107.4513 -49.95     1.654     1.308   0.1107        292     72.90058
 3.99   1291.5995  18.4485     6927.603    762.0699 -21.64     2.694     2.415   0.0147        293     94.06646
 3.50   1298.6001  14.8377     192723.3    725.0037 -23.15     3.488     3.178   0.0006        294      107.076
 3.67   1319.2821  21.5470     399.2014    264.3346 -41.09     1.342     1.081   0.1104        295     40.56606
 3.66   1265.7429  19.3586     2996.024    807.8504 -46.62     2.311     2.070   0.0267        296     73.63697
 3.93   1172.7997  18.3867     7333.899    757.9006  69.25     3.921     3.759   0.0206        297     138.7864
 8.03   1299.5083  22.5740     155.0292     52.5046  44.92     0.509     0.491   0.2624        298     37.45411
 3.50   1299.5024  23.1932     87.64526   1089.4442 -50.96     0.506     0.491   0.2229        299     17.99237
 3.50   1273.0546  17.7390     13317.25    609.9014 -55.37     4.604     3.054   0.0099        300     121.0313
 3.50   1138.7234  16.8050     31476.01    148.0432 -43.14     2.911     2.836   0.0032        301     92.62141
 4.94   1259.4498  20.3118     1245.361    432.2961 -26.24     2.210     1.862   0.0803        302     92.03705
 7.30   1263.2916  21.8995     288.5403    855.0084  21.82     0.729     0.687   0.1802        303     47.88586
 3.50   1219.2106  18.1221     9357.077   1194.9154  53.53     2.677     2.604   0.0099        304     85.50323
 4.24   1213.2943  20.1649     1425.727   1429.4354  61.87     2.704     1.979   0.0691        305     90.70846
 3.80   1202.2263  20.1343     1466.549    339.3524 -60.99     2.012     1.869   0.0501        306     67.72084
 9.02   1228.0006  22.3104     197.6171    915.5093 -58.15     0.805     0.311   0.2211        307     40.23217
 5.18   1153.7366  20.7985     795.4474   1352.9554  -1.42     1.817     1.304   0.1003        308     73.45356
 4.67   1242.6703  20.8267     775.0355    672.7222 -48.82     1.739     1.326   0.0915        309     65.28696
 6.44   1229.3447  21.9582     273.3628   1154.1084 -69.05     0.957     0.688   0.1936        310     48.72358
 7.33   1204.6571  22.8707     117.9557   1217.3334  45.38     0.581     0.331   0.2619        311     28.44844
 3.50   1221.6608  12.3151      1967710    995.2126 -34.12     5.342     4.878   0.0001        312     164.0828
 3.50   1237.2053  20.1462     1450.471   1553.3928   3.72     1.978     1.901   0.0467        313     62.32742
 5.72   1195.3733  19.7673     2056.207    124.0835  88.88     2.308     2.127   0.0619        314     117.1809
 6.76   1238.1827  21.9931     264.6919     48.1804  45.52     1.219     0.500   0.1999        315     48.72358
 7.10   1181.8228  22.4115     180.0491    176.6743 -77.08     1.082     0.412   0.2621        316     43.45572
 3.50   1010.0671  17.5242     16229.73    813.8272 -65.10     2.712     2.670   0.0058        317     87.06649
 3.50   1080.1943  16.7363     33532.55    512.3001 -68.55     2.968     2.850   0.0031        318     94.35281
 4.85   1181.3903  21.1918     553.6831    549.5241 -82.69     1.735     1.003   0.1157        319     58.99195
 6.61   1238.0029  22.1527     228.5194    856.7182 -33.31     1.213     0.436   0.2080        320     43.76501
 3.61   1234.5607  19.4999     2630.398    304.9624 -43.58     2.220     2.046   0.0291        321     70.45419
 3.50   1165.4764  16.2836     50879.68   1299.7545 -45.06     2.966     2.894   0.0020        322     94.20974
 3.50   1201.2911  20.7225     853.0687   1442.0564  25.89     1.754     1.557   0.0674        323     52.96812
 4.59   1120.3330  19.6519     2286.926    330.1281  55.50     2.861     2.131   0.0493        324      103.879
 3.63   1158.1257  18.6863     5565.019    236.4265 -45.13     2.466     2.432   0.0159        325     81.62935
 3.50   1161.9113  21.1330     584.4962    887.8843 -23.64     1.514     1.255   0.0836        326     44.98094
 5.02   1151.3293  20.2308     1341.774     99.6127 -33.82     2.056     1.777   0.0717        327     88.60217
 7.50   1114.2611  20.8044     791.1321    674.3723  66.49     1.836     1.109   0.1353        328     98.54829
 3.50   1210.8455  17.6437     14538.91   1279.0059  83.04     5.932     3.812   0.0115        329     153.4635
 4.50   1207.9048  19.9583     1724.576    839.1183 -34.12     2.099     1.911   0.0523        330     83.10322
 4.67   1203.7594  20.0449     1592.347   1075.3441  56.71     2.146     1.846   0.0582        331     85.34533
 3.60   1072.5201  19.8913     1834.276   1218.9911 -73.34     2.506     2.159   0.0451        332     76.15827
 3.50   1130.2111  17.5254     16212.14    183.5249 -48.58     2.812     2.666   0.0059        333     87.99111
 5.64   1130.5193  21.2052     546.9391    219.9609  17.17     1.933     0.961   0.1410        334     71.02621
 7.09   1084.3237  21.8426     304.0514     43.8700  68.05     1.095     0.511   0.1730        335     48.44595
 3.50   1096.0061  20.8496     758.8861   1527.0216  17.14     1.634     1.463   0.0717        336     50.08865
 6.71   1073.1526  21.3342     485.6558      7.1439  -1.00     1.238     0.855   0.1379        337     61.67476
 4.11   1030.0464  19.8666     1876.613    302.9785  66.56     2.898     2.087   0.0539        338     93.20213
 7.21   1079.8993  21.1084     597.9414    329.8013  -2.51     1.332     1.111   0.1461        339     80.46435
 5.49   1065.5956  20.5394     1009.817   1562.7944 -48.94     2.215     1.456   0.0972        340     90.41056
 7.02   1016.7502  21.8543     300.8027    454.1198 -29.65     1.034     0.653   0.1903        341     52.71285
 4.16   1011.6916  19.5675     2471.659    345.0462 -65.00     2.238     2.085   0.0363        342     82.61485
 3.50   1023.8149  13.8483     479368.6     50.3203 -48.41     3.555     3.375   0.0003        343     111.1554
 3.50   1038.8405  18.2052      8668.29    525.6714 -60.67     2.697     2.528   0.0106        344      84.5514
 7.37   1042.4810  22.5956     151.9674    468.0018  32.34     0.790     0.316   0.2462        345     34.45277
 3.50   1040.5178  16.4688     42902.18    633.2490 -61.50     3.017     2.912   0.0024        346      95.2067
 7.47   1037.5570  20.9286     705.5701    121.5983  22.61     1.211     0.997   0.1172        347     76.15827
 3.50   1026.0680  17.3382     19262.29   1380.0198 -55.76     2.794     2.683   0.0050        348     88.14427
 6.85    986.9518  19.6975     2192.878    454.2726  73.36     2.267     1.946   0.0657        349     132.6239
 4.48   1001.9201  19.3879     2916.338    542.7504  -3.58     2.291     2.244   0.0348        350     93.49112
 3.50   1001.7543  20.5729     979.0956   1555.5012 -25.15     1.812     1.612   0.0607        351     54.72167
 5.78    980.8538  20.6449     916.2988    798.1845 -58.31     1.865     1.469   0.1047        352     88.29717
 3.50   1000.4612  20.8351     769.0919   1273.7240 -11.68     1.795     1.409   0.0726        353     51.41749
 7.58    964.9525  21.2576     521.1384    415.9614 -36.70     1.450     0.971   0.1722        354     82.61485
