#   1 KRON_RADIUS            Kron apertures in units of A or B                         
#   2 Y_IMAGE                Object position along y                                    [pixel]
#   3 MAG_BEST               Best of MAG_AUTO and MAG_ISOCOR                            [mag]
#   4 FLUX_BEST              Best of FLUX_AUTO and FLUX_ISOCOR                          [count]
#   5 X_IMAGE                Object position along x                                    [pixel]
#   6 THETA_IMAGE            Position angle (CCW/x)                                     [deg]
#   7 A_IMAGE                Profile RMS along major axis                               [pixel]
#   8 B_IMAGE                Profile RMS along minor axis                               [pixel]
#   9 MAGERR_BEST            RMS error for MAG_BEST                                     [mag]
#  10 NUMBER                 Running object number                                     
#  11 FLUXERR_BEST           RMS error for BEST flux                                    [count]
 3.87     54.0659  16.5598     39454.28     63.4899  10.31     5.081     4.648   0.0053          1     193.5732
 3.50     17.6085  18.7875     5069.803    984.8859 -88.11     4.180     1.842   0.0215          2     100.5567
 3.50     18.7843  19.2412     3338.257     91.0677 -71.47     1.673     1.595   0.0192          3     59.01929
 3.50     15.4372  18.1803     8869.445   1445.5699 -58.56     1.765     1.663   0.0076          4     62.36261
 8.71      7.7679  22.7793     128.3121   1469.4524 -68.75     0.745     0.449   0.4347          5     51.35972
 5.07      4.5796  21.8128     312.5226    145.2529  45.23     1.230     0.964   0.1906          6     54.86184
 7.04     10.4945  22.6012     151.1946   1183.4982  44.89     0.503     0.497   0.2436          7     33.90899
 3.50     60.5844  16.4969     41805.55   1078.2451  78.79     2.095     1.992   0.0019          8     73.32869
 7.80     14.3363  23.3860     73.38281    839.6812  45.80     0.572     0.336   0.5305          9     35.84818
 3.74     25.5083  20.9684     680.2291    367.0248 -44.59     1.386     1.224   0.0788         10     49.34483
 4.02     17.9750  22.1050     238.7822    384.0877  -6.22     1.065     0.750   0.1694         11     37.23637
 7.96     24.5876  22.5050     165.1963    383.1619  87.84     1.000     0.715   0.4540         12     69.05338
 7.77     35.5276  21.2793     510.8204   1110.5074  83.69     1.018     0.640   0.1377         13     64.75692
 6.92     34.3290  21.8071     314.1753    326.4467 -55.25     1.064     0.824   0.2318         14     67.06581
 5.72     38.8936  22.9253     112.1702   1521.2977  57.82     1.154     0.680   0.5036         15     52.01401
 3.50     40.2370  23.7247     53.71973   1226.1660 -45.15     0.973     0.347   0.4073         16     20.14494
 5.89     39.8462  22.1544     228.1609   1170.4801  -0.96     0.941     0.732   0.2413         17     50.69699
 5.61     45.8528  22.6618     142.9779    440.1219 -39.18     1.403     1.002   0.5189         18     68.31482
 3.50     43.2798  22.2531     208.3247    915.3459 -44.82     1.174     0.700   0.1660         19     31.85195
 3.50     80.9599  16.5434     40052.38    537.4124 -67.89     2.020     1.918   0.0019         20     71.22312
 6.55     51.1657  23.2991      79.4967    265.9853  36.65     0.939     0.465   0.6205         21     45.41928
 6.43     51.0299  22.6685     142.0997   1435.2108 -33.32     0.788     0.497   0.3079         22     40.28988
 6.81     49.3377  24.3430       30.396   1233.6754  45.58     0.575     0.334   1.0796         23     30.21741
 3.50     75.9613  20.3293     1225.364    127.6706  65.45     1.364     1.260   0.0412         24     46.52275
 5.74     82.8388  21.2075     545.7764    421.4473 -51.35     1.212     0.808   0.1169         25     58.73209
 4.96     91.5984  20.6206     937.0507    376.7576 -72.96     1.865     1.539   0.1002         26     86.45129
 3.50    122.5939  16.1022     60135.54    788.9185 -58.39     2.100     1.956   0.0013         27     72.86604
 3.56     97.3459  19.8963     1825.991     56.0111  -6.65     1.519     1.385   0.0319         28     53.61481
 6.17     92.9185  21.5473     399.0834    495.8493  75.14     1.341     0.684   0.1645         29     60.43482
 6.08     98.7694  20.5291     1019.429    452.5779 -24.86     1.703     0.981   0.0865         30     81.20685
 8.03    114.3488  22.7119     136.5293    270.3333 -45.61     0.584     0.329   0.2998         31     37.68773
 7.06    117.8673  22.2163     215.5253     66.8318  46.85     0.748     0.562   0.2381         32     47.24407
 6.06    118.7044  25.6046     9.509888    990.6282 -41.71     0.576     0.332   3.1849         33     27.88941
 8.26    118.5058  23.0443     100.5284    154.4909  45.33     0.502     0.498   0.4530         34     41.93504
 3.50    163.1394  16.7408     33395.44   1468.1359 -60.49     1.999     1.918   0.0023         35     70.02601
 5.15    132.4923  21.8007      316.017    418.0414   0.53     0.805     0.500   0.1216         36     35.37335
 3.50    171.1355  18.3665     7471.207    877.1223 -68.19     1.765     1.708   0.0091         37     62.36261
 6.86    152.5081  22.8610     119.0157   1279.9960  -1.46     0.803     0.500   0.3971         38     43.51804
 3.58    165.8672  21.1553     572.6458   1445.5352  -0.27     1.320     1.134   0.0854         39     45.04546
 4.17    167.5935  21.5307       405.23    104.3066 -28.86     1.173     1.010   0.1227         40     45.79006
 5.08    170.4301  21.4381     441.3285   1368.2188 -47.27     1.080     0.717   0.1136         41     46.15786
 5.71    169.4399  22.8274     122.7583    651.5150 -35.83     0.503     0.493   0.2623         42     29.65255
 4.38    181.2359  21.4552     434.4191    574.8821  23.27     1.275     0.773   0.1126         43     45.04546
 4.34    193.3881  20.7075     864.9371   1350.3932 -35.34     1.357     1.131   0.0697         44     55.47484
 8.45    186.9875  21.1733     563.2096   1354.0367 -74.12     0.796     0.783   0.1317         45     68.31482
 3.65    211.5628  18.9723     4276.353    827.4517  -6.95     3.903     1.922   0.0262         46     103.0481
 3.50    207.5028  20.1734     1414.604    548.9205 -81.19     1.547     1.367   0.0394         47     51.35972
 3.50    211.4505  21.3875     462.3823    684.4575 -82.33     1.680     1.042   0.1151         48     49.00095
 3.50    212.9739  20.1504     1444.935   1305.9010  53.86     1.403     1.346   0.0363         49     48.30587
 4.26    231.0617  19.1868     3509.669    562.2328  -9.15     3.351     2.841   0.0418         50     135.1364
 0.00    204.4279  99.0000    -71.79578   1498.4841 -36.26     0.505     0.489  99.0000         51     20.14494
 8.15    205.6816  24.3872      29.1825    937.0054 -28.40     0.896     0.214   1.4025         52     37.68773
 3.61    224.5214  20.0045     1652.688   1225.8654 -53.91     1.549     1.417   0.0363         53     55.16919
 3.50    260.5747  15.4144     113303.9    997.2193 -61.30     2.158     2.026   0.0007         54     74.47273
 3.50    266.7132  15.8406     76516.71     67.3777 -78.85     2.116     1.998   0.0010         55     73.55892
 3.50    223.2263  21.4092      453.251    774.7523 -19.32     1.202     1.068   0.0985         56     41.12069
 7.24    219.2476  22.2388     211.0986    740.7269 -18.84     0.845     0.353   0.2094         57     40.70741
 4.29    244.2685  20.2850     1276.437    112.8207  77.16     2.123     1.544   0.0677         58     79.52362
 4.43    256.2211  19.1798     3532.474    612.7919 -37.89     2.500     1.801   0.0298         59     96.78661
 5.85    239.8068  21.2138     542.5797    838.5142 -15.30     1.259     0.961   0.1317         60      65.7931
 4.86    240.0475  24.5166     25.90283   1478.8186 -53.94     0.940     0.464   1.3792         61     32.89655
 6.94    251.4614  21.4738     427.0541    107.4959 -45.23     1.084     0.836   0.1737         62     68.31482
 6.35    252.5684  19.6432     2305.297   1372.6412 -34.52     1.181     0.845   0.0327         63     69.34478
 3.50    288.3401  17.4585     17242.76   1486.2775 -54.62     1.867     1.775   0.0041         64      65.7931
 4.01    254.0000  23.1473     91.43188   1352.5071   0.00     1.051     0.289   0.2763         65     23.26137
 3.50    282.7326  19.2187       3408.3   1522.1934 -43.51     1.560     1.487   0.0177         66     55.47484
 6.90    271.2608  21.8063     314.3868   1273.5475 -11.09     1.161     0.926   0.2541         67     73.55892
 3.50    303.9948  17.7705     12935.74    201.5974 -73.98     1.829     1.713   0.0054         68     64.49528
 6.05    294.2973  21.0586     625.9745   1475.4902 -66.12     1.169     0.976   0.1159         69     66.81321
 3.50    302.8704  21.0525     629.4774    563.5295  64.72     1.317     1.259   0.0784         70     45.41928
 3.50    322.8517  18.2480     8332.938    697.1325 -67.45     1.711     1.657   0.0078         71     60.15438
 6.40    309.7060  21.2541     522.8245     85.4069 -81.45     1.983     0.885   0.1828         72     88.00211
 4.29    322.2261  20.9711     678.5427    641.0490 -74.76     2.205     1.229   0.1166         73     72.86604
 4.27    328.1181  20.0543     1578.577    595.2687 -49.81     1.622     1.556   0.0475         74     69.05338
 5.36    317.8036  22.4256      177.736    226.3809 -71.76     0.752     0.447   0.1914         75     31.31658
 5.35    332.8581  21.9008     288.1873     93.4377  -7.83     1.068     0.836   0.1997         76      52.9803
 4.19    330.3325  22.4364     175.9746   1545.6162  -6.15     0.994     0.631   0.2062         77      33.4066
 3.50    350.8575  20.7704     816.2712     54.4747 -39.25     1.290     1.224   0.0594         78      44.6685
 5.14    348.6108  22.6272     147.6174     42.2829 -59.05     0.983     0.545   0.2902         79     39.44158
 3.50    368.9763  18.2064     8658.296    760.8814 -55.04     1.738     1.635   0.0075         80     59.87262
 3.50    362.0320  20.1678     1421.871   1500.1699  10.20     1.429     1.398   0.0385         81     50.36235
 3.50    396.0084  16.4468     43780.61    231.2756 -59.51     2.003     1.932   0.0017         82     70.02601
 3.50    361.5096  22.6672     142.2662   1033.6727 -46.62     1.047     0.903   0.2626         83     34.40403
 3.55    374.0851  22.4970     166.4227   1083.9071 -43.95     1.458     0.919   0.2763         84     42.33634
 6.13    369.9420  22.4690      170.767    210.5096  87.58     0.786     0.499   0.2508         85     39.44158
 6.59    371.1455  22.1417     230.8502     71.4292 -16.36     1.204     0.716   0.2984         86     63.43791
 6.30    376.9420  21.2748     512.9696    753.8722  42.08     1.653     0.852   0.1633         87     77.14925
 3.50    397.8753  18.6436     5788.675   1461.0035 -57.52     1.678     1.607   0.0110         88     58.73209
 5.17    376.6144  23.1412     91.94714     86.3840  23.01     1.364     0.457   0.4953         89     41.93504
 3.50    398.9595  18.4815     6720.285    354.4040 -56.85     1.757     1.640   0.0100         90     61.81795
 5.97    380.9103  21.5825     386.3693    125.6369 -22.70     0.902     0.682   0.1368         91     48.65465
 3.50    394.4868  20.2656     1299.437   1088.6790 -16.48     1.485     1.357   0.0429         92     51.35972
 6.62    389.7516  23.5884     60.90442   1195.2408 -86.38     0.902     0.749   1.0054         93     56.38185
 6.59    390.2306  22.8141      124.271    260.4030  71.18     0.744     0.452   0.3371         94     38.57462
 5.92    397.9349  20.9893     667.2653    626.5078  15.77     1.528     0.795   0.1100         95     67.56818
 7.14    415.6719  20.7761     812.0381      2.5615  28.95     1.141     0.754   0.0742         96     55.47484
 5.89    407.6978  21.9810     267.6755    281.6329 -82.40     1.007     0.467   0.1734         97     42.73387
 7.73    404.5130  21.6793     353.4189    526.8869  -2.02     0.784     0.499   0.1537         98     50.02547
 3.50    461.8477  15.2977     126161.2    807.3699 -55.93     2.140     2.040   0.0007         99     75.59946
 7.26    413.7131  22.3559     189.5129   1562.2982 -60.78     1.155     0.451   0.3090        100     53.92928
 3.50    438.7642  17.6752      14122.2    251.9271 -54.88     1.813     1.728   0.0049        101     63.96878
 4.91    421.8596  20.5282     1020.234    158.7295  50.88     1.660     1.444   0.0833        102     78.23744
 5.46    412.6987  23.3526      75.6792    199.3263  43.64     0.560     0.342   0.3638        103     25.34849
 6.30    419.4074  22.2415     210.5781   1203.2559   2.22     1.263     0.791   0.3353        104     65.01752
 9.11    415.3150  22.6408     145.7699    558.6299  42.87     0.584     0.328   0.3002        105     40.28988
 3.50    433.6354  20.5489     1001.041   1421.9039 -17.73     1.429     1.338   0.0543        106     50.02547
 6.72    427.7105  21.7562     329.2471   1179.3110  20.69     1.301     0.989   0.2581        107     78.23744
 5.64    420.6244  23.0331     101.5724   1579.7715  17.88     0.757     0.446   0.3626        108     33.90899
 6.59    424.9908  22.8889     115.9955   1063.9623 -82.15     0.609     0.607   0.3772        109     40.28988
 6.86    431.8513  20.7974     796.2411    717.7710 -64.53     0.930     0.895   0.0887        110     65.01752
 5.00    434.9497  21.2132     542.8961    151.0015  25.47     1.154     0.980   0.1085        111     54.24191
 8.11    427.1310  21.8873     291.7838    432.4409  -1.10     2.518     0.334   0.1362        112     36.60611
 7.74    427.6147  22.5445     159.3007    299.6916 -47.83     0.587     0.325   0.2379        113     34.89206
 4.33    468.5287  18.4715     6782.773    850.1567  22.24     7.405     1.888   0.0267        114     166.5261
 3.51    451.1122  18.9561     4340.688     21.1382 -39.37     1.703     1.572   0.0148        115      59.3051
 5.35    446.1109  20.8527     756.6884    122.1262 -32.70     1.653     1.204   0.1126        116     78.45327
 3.50    440.8153  21.5668      391.983    305.5591 -50.73     1.189     1.082   0.1139        117     41.12069
 7.22    434.6680  23.7869     50.72778    353.3014  46.60     0.562     0.341   0.6819        118     31.85195
 3.50    458.6750  18.8607     4739.343     34.3958 -60.50     1.679     1.537   0.0133        119     58.15343
 5.39    444.1707  22.5048     165.2222    654.5854 -70.40     0.757     0.448   0.2162        120     32.89655
 7.52    444.6976  22.6814     140.4207    173.3044  44.88     0.551     0.345   0.2699        121     34.89206
 3.51    464.5992  20.0469     1589.376    468.4731 -73.90     1.596     1.441   0.0375        122     54.86184
 4.25    453.8175  23.0128     103.4843   1533.1399  37.40     0.789     0.678   0.3343        123     31.85195
 4.77    461.9124  21.5810     386.8876   1096.1415  54.26     1.154     1.060   0.1540        124     54.86184
 3.50    472.0581  20.3120     1245.138    254.1115 -72.83     1.524     1.321   0.0445        125     51.02943
 5.24    462.3787  21.6612     359.3512    724.6503 -28.34     1.116     0.728   0.1439        126     47.60064
 7.33    457.6994  23.0273     102.1113   1223.6606 -43.04     0.565     0.339   0.3388        127     31.85195
 3.50    472.9619  19.8060      1984.23    734.7726 -38.59     1.496     1.347   0.0279        128     51.02943
 3.50    478.7603  19.5623     2483.632    922.8173 -35.32     1.542     1.446   0.0236        129     53.92928
 3.92    478.7928  20.7659     819.6617   1276.8333 -53.34     1.380     1.256   0.0702        130      52.9803
 4.35    476.5132  22.8338     122.0352   1168.0372 -89.76     0.813     0.676   0.2927        131     32.89655
 3.50    484.9571  20.5726     979.4325   1070.4276 -66.11     1.365     1.226   0.0516        132     46.52275
 4.94    496.9649  19.8456     1913.124     82.5904  56.28     2.338     2.068   0.0637        133     112.1623
 5.47    489.7042  21.0326     641.1517    839.5638  81.89     1.979     0.873   0.1265        134     74.69944
 4.63    481.6934  23.1692     89.59851   1309.1306  71.28     0.894     0.694   0.4676        135     38.57462
 3.61    479.8593  22.3727     186.6046    682.6146  17.68     1.030     0.720   0.1823        136     31.31658
 3.88    496.4434  19.7956     2003.369   1186.7407 -14.15     2.923     1.792   0.0493        137     91.02452
 4.18    531.9177  17.7097      13680.5    519.0345  19.57     4.599     2.664   0.0097        138     122.7139
 5.97    481.6788  22.6433     145.4402   1520.4889  -0.10     0.921     0.467   0.3008        139     40.28988
 3.55    505.2574  20.5201     1027.958    763.0582  35.35     1.785     1.613   0.0662        140     62.63316
 3.50    516.2610  19.4282     2810.213   1461.0070  24.27     4.360     1.650   0.0374        141     96.78661
 3.50    502.7141  21.4782     425.3416    863.5473  86.71     1.246     1.113   0.1101        142     43.12774
 3.50    498.6335  22.1183     235.8766    366.2104 -49.90     1.014     0.951   0.1629        143     35.37335
 3.50    514.5807  21.0179     649.8943   1179.1083 -56.81     1.339     1.067   0.0701        144     41.93504
 5.57    510.5956  20.8088     787.9001    164.3583  -2.33     2.204     1.004   0.1175        145     85.26967
 4.31    520.2776  21.5914     383.2015    641.3948 -72.01     1.257     0.919   0.1359        146     47.95455
 8.43    511.4783  22.5079     164.7499    453.4845  44.06     0.503     0.496   0.2764        147     41.93504
 3.50    519.1761  23.1632     90.09985   1518.8835  43.19     0.828     0.669   0.3212        148     26.64925
 4.34    541.0017  20.1899     1393.242    999.7307 -58.22     1.570     1.410   0.0519        149     66.55965
 4.08    536.7367  21.7759     323.3168    404.4981  50.90     1.364     0.752   0.1422        150     42.33634
 6.50    545.6520  21.9460      276.431    933.8276  70.97     1.235     0.753   0.2565        151     65.27707
 3.67    559.8237  19.8528     1900.476   1041.5420 -18.80     1.576     1.487   0.0337        152     59.01929
 4.48    597.4241  18.4522     6904.063    782.7071 -83.49     3.546     3.355   0.0251        153     159.4719
 4.22    571.6400  20.2026     1377.112     45.6350  59.09     1.992     1.404   0.0576        154     73.09773
 4.23    556.2178  22.9033     114.4645    778.7784  45.56     0.804     0.683   0.3022        155     31.85195
 3.50    581.4234  18.2704     8162.636    144.8262 -85.18     1.779     1.649   0.0081        156     60.99184
 3.50    572.2887  20.0077     1647.907   1448.0997  21.34     2.785     1.717   0.0521        157     79.09722
 3.95    565.5809  21.6674     357.2954    139.6900 -53.99     1.148     1.009   0.1311        158     43.12774
 3.50    582.9966  18.2924     7999.416    318.9901 -38.33     1.741     1.676   0.0083        159     60.99184
 6.39    563.6564  24.0748     38.91089    905.5596   5.49     1.049     0.627   1.5052        160     53.92928
 6.81    576.9733  21.8151     311.8698   1001.5247 -66.98     1.399     1.121   0.3084        161     88.57667
 3.50    585.4980  21.3161     493.7993     75.9934  34.12     1.282     1.160   0.0974        162     44.28833
 7.52    579.6700  22.5548     157.7964    740.6813 -45.55     0.569     0.338   0.2334        163     33.90899
 5.26   1004.8461  23.3671     74.67041   1237.8387  49.76     0.764     0.567   0.5214        164     35.84818
 4.64   1597.9813  20.9939     664.4214    655.1420 -30.36     1.787     1.341   0.1019        165     62.36261
 5.62   1595.9124  21.3671      471.142    374.0342  41.13     1.272     1.258   0.1580        166     68.56189
 6.89   1594.0922  23.1463      91.5116   1384.9442 -19.49     1.473     0.518   0.7304        167     61.54381
 6.99   1592.8507  24.0365     40.30945    567.1038  41.77     0.836     0.671   1.4614        168     54.24191
 3.50   1586.8704  22.0808     244.1553   1069.2076 -26.32     0.977     0.733   0.1369        169      30.7719
 3.50   1564.5637  16.2569     52149.48    304.2770 -45.70     1.968     1.875   0.0014        170     69.29781
 3.51   1571.3456  20.2731     1290.525     92.7359 -46.28     1.463     1.342   0.0429        171     51.02943
 3.53   1542.6790  19.3966     2893.067    135.1462 -57.03     1.585     1.524   0.0212        172     56.38185
 4.21   1536.6472  22.6700     141.9059   1429.4083 -57.98     1.567     0.952   0.4079        173      53.2985
 5.99   1529.5508  27.3729     1.865723    733.3308  32.68     1.023     0.681  30.2763        174     52.01401
 5.85   1525.2084  21.8906     290.9017    378.9753  80.66     1.380     0.702   0.2225        175     59.58954
 3.50   1523.4841  23.5857     61.05566     14.4994  44.62     0.509     0.490   0.3583        176     20.14494
 3.50   1515.7332  18.4917     6657.472    392.7216 -44.48     1.718     1.630   0.0100        177     61.54381
 5.42   1516.1362  21.2191     539.9807   1547.0354  59.82     1.454     1.004   0.1369        178     68.06685
 5.15   1504.9113  21.4711     428.1268    723.3754 -14.58     1.267     1.119   0.1602        179      63.1708
 6.67   1504.6394  22.1114     237.3729   1312.1969 -60.47     1.233     0.361   0.2112        180     46.15786
 5.77    951.5790  20.6677     897.2972    654.1421  77.81     2.092     1.354   0.1211        181     100.0509
 0.00    952.6561  99.0000     -80.4115    886.7119 -47.96     0.561     0.340  99.0000        182     29.07672
 7.15    951.1804  20.8980     725.7963    268.5884 -71.55     0.761     0.452   0.0580        183     38.74063
 3.50    948.7699  22.0230     257.5037    445.2767  -8.37     1.064     0.909   0.1472        184     34.89206
 3.72    939.9116  20.0882     1530.113   1067.0671 -40.96     1.544     1.337   0.0394        185     55.47484
 7.57    942.2939  23.3433     76.32593    725.6534  42.34     0.565     0.339   0.4681        186     32.89655
 7.34    939.1717  20.5962     958.3607    515.9602  26.89     1.277     0.921   0.0930        187     82.03551
 0.00    933.8319  99.0000    -19.07288   1118.5710  12.09     0.875     0.614  99.0000        188     43.90488
 0.00    933.5328  99.0000    -103.6803   1027.5371  45.25     0.516     0.481  99.0000        189     34.89206
 4.85    929.1008  20.7018     869.4871   1322.4062 -85.50     1.409     1.268   0.0828        190     66.30511
 6.25    926.4553  22.3718     186.7643    665.7037 -88.92     0.928     0.456   0.2508        191     43.12774
 8.62    926.6777  22.7795     128.2936    934.3347  44.43     0.573     0.336   0.3302        192     39.01051
 0.00    919.9985  99.0000    -47.58777   1027.5399  56.68     0.762     0.323  99.0000        193     32.89655
 4.47    913.5744  20.9231     709.1801    838.4932 -17.32     1.372     1.256   0.0934        194     60.99184
 3.79    913.2420  21.4292     444.9462   1000.9395 -20.76     1.238     1.013   0.1081        195     44.28833
 8.55    908.4130  22.3330     193.5603    658.8085 -20.20     0.749     0.447   0.2826        196     50.36235
 3.50    901.2190  18.7554     5222.014    302.8275 -74.14     1.692     1.590   0.0128        197     61.45471
 5.64    900.5178  23.1765     89.00317    379.4821 -45.01     0.511     0.488   0.3476        198     28.48925
 4.99    896.8900  20.3930     1155.624    538.8267  -4.29     2.156     1.581   0.0886        199     94.30902
 8.00    898.5093  22.6404     145.8302    987.5135  45.27     0.505     0.495   0.3123        200     41.93504
 4.34    894.8568  22.0574      249.488   1425.8367 -39.55     1.211     1.023   0.2148        201     49.34483
 0.00    892.3138  99.0000    -9.582642   1453.3175 -44.80     0.562     0.341  99.0000        202     20.14494
 3.50    881.0701  15.5357     101321.5   1592.5050 -66.14     2.128     1.981   0.0008        203     74.69944
 8.06    889.4891  22.6248     147.9374    680.4580  50.40     0.503     0.495   0.3078        204     41.93504
 4.20    886.5468  20.8919     729.8491   1500.5457   3.01     1.461     1.296   0.0874        205     58.73209
 4.62    885.8091  21.9300      280.533    339.2333 -50.56     1.331     0.893   0.2001        206      51.6879
 4.58    878.3823  21.3834     464.1426    960.6887  83.41     1.256     1.192   0.1347        207     57.56896
 7.23    879.8236  21.9976     263.6111    673.3714   4.42     0.996     0.374   0.1825        208     44.28833
 5.82    877.4668  21.3444     481.1125    541.7645 -59.48     1.012     0.778   0.1210        209     53.61481
 4.43    870.1768  19.5270     2565.669   1103.6156 -61.56     2.074     1.779   0.0372        210     87.80976
 5.29    868.6845  20.7317     845.8888    939.5432  25.12     1.995     1.411   0.1178        211     91.76457
 4.87    870.6060  22.2244     213.9072    643.5376 -54.41     1.036     0.812   0.2343        212     46.15786
 4.08    889.3619  21.0692     619.8702    325.6336  17.18     1.631     1.281   0.1059        213     60.43482
 7.02    867.5193  22.6212     148.4268    454.4771 -45.32     0.506     0.493   0.2517        214     34.40403
 6.62    861.1949  22.2039     217.9958   1554.1703  42.07     0.759     0.567   0.2263        215     45.41928
 5.13    859.0752  21.0587     625.8946   1340.3101 -76.09     1.578     1.072   0.1102        216     63.51905
 6.05    856.3950  21.7497     331.2155    545.3506  53.02     1.033     0.880   0.1963        217     59.87262
 4.64    845.9663  21.2261     536.4828   1063.6743  89.16     1.197     1.105   0.1111        218     54.86184
 8.68    847.7302  22.5269     161.9045    358.9989  -0.07     0.672     0.444   0.3310        219     49.34483
 4.02    844.1765  20.6412     919.4578   1106.0085  18.02     1.649     1.396   0.0740        220     62.63316
 3.50    837.3778  20.3502     1202.021    298.7135 -30.30     1.402     1.248   0.0433        221     47.95455
 5.58    837.5710  23.4059     72.05408   1520.2875   7.21     0.957     0.484   0.6072        222     40.28988
 4.34    836.5140  22.2239      214.005    819.0198  -0.57     1.082     0.929   0.2286        223     45.04546
 3.50    823.7400  18.7167     5411.404    654.3682 -47.01     1.694     1.608   0.0120        224     59.58954
 5.33    820.7417  22.3550     189.6764   1398.3711 -34.06     1.040     0.799   0.2845        225     49.68631
 6.27    819.5536  25.3812     11.68188    702.4224  75.69     0.930     0.815   5.2693        226     56.68095
 3.50    803.8591  18.7895     5060.352   1378.6097 -16.42     1.764     1.715   0.0134        227     62.63316
 3.50    799.2559  17.5870     15317.69    695.5489 -86.67     2.595     1.858   0.0056        228     78.88316
 3.50    801.5493  19.7103     2167.063     41.1095 -47.22     1.556     1.367   0.0266        229      52.9803
 3.50    786.3653  24.4098     28.58154   1348.2401  16.88     0.743     0.450   0.7967        230     20.96752
 4.64    774.9264  19.6220     2350.775   1427.4890 -80.02     2.968     2.202   0.0562        231     121.7061
 6.58    768.5202  21.9881      265.924    140.3967 -56.00     1.096     0.753   0.2525        232     61.81795
 8.07    759.9717  24.0593     39.47205   1020.4913  57.79     0.794     0.314   1.1538        233     41.93504
 8.03    758.7322  22.6865     139.7605   1341.6172 -19.13     0.999     0.595   0.4950        234      63.7039
 7.70    755.4393  22.0628     248.2338    195.3307  50.93     1.281     0.507   0.2810        235     64.23257
 8.16    753.2500  22.4324      176.627   1080.7515 -18.40     0.867     0.354   0.2883        236      46.8848
 4.09    743.5436  20.2686     1295.883    556.2997 -21.00     1.386     1.284   0.0467        237     55.77881
 0.00    740.3088  99.0000    -17.81348   1272.3568 -42.92     0.576     0.333  99.0000        238     30.21741
 4.93    738.9075  21.5855     385.3182   1157.9510   1.73     1.221     1.143   0.1687        239     59.87262
 5.71    736.8117  21.2367     531.2809    649.5156 -57.46     1.284     1.212   0.1508        240     73.78844
 3.50    727.4288  16.1019     60149.21    848.3036 -43.51     2.122     2.007   0.0013        241     74.01723
 4.09    728.2400  20.7379     841.1028   1178.2639 -71.75     1.493     1.272   0.0751        242     58.15343
 5.98    722.0221  21.7836     321.0526   1394.6796  55.23     1.120     1.005   0.2217        243     65.53559
 4.03    716.7179  20.4776     1068.994    808.2800 -58.15     1.484     1.251   0.0576        244     56.68095
 4.96    709.6140  20.4541     1092.376   1163.7046  -6.42     1.385     1.344   0.0699        245     70.26706
 4.23    705.2289  20.4453     1101.208   1339.0270  -7.51     1.751     1.458   0.0691        246     70.03793
 0.00    707.8699  99.0000    -1.817871    794.7454 -47.11     0.787     0.662  99.0000        247     25.34849
 3.92    703.4935  19.6854     2217.284    952.2862 -18.86     1.625     1.545   0.0315        248     64.23257
 4.49    699.7202  21.0184     649.6014    582.8026   2.02     1.870     0.964   0.1047        249     62.63316
 4.59    692.6077  21.2153      541.868   1213.5939  51.67     1.289     1.128   0.1220        250     60.87867
 5.45    687.6429  21.4699     428.5905   1213.6561 -60.27     1.349     0.880   0.1044        251     41.18754
 6.02    692.7369  20.9263     707.0663    316.0250   1.66     0.713     0.689   0.0593        252     38.62342
 3.59    686.2900  19.9913     1672.867    644.0510  42.51     1.532     1.436   0.0358        253     55.16919
 3.50    688.1400  22.3764      185.962    130.8793  46.46     0.805     0.656   0.1480        254     25.34849
 5.25    673.8572  23.3161      78.2644    231.1585  61.85     1.162     0.421   0.5353        255     38.57462
 6.98    669.8129  21.8908     290.8671   1221.2018 -48.04     0.753     0.562   0.1737        256     46.52275
 4.62    667.3979  23.7341     53.25439   1180.1707  20.00     0.731     0.448   0.5562        257     27.27638
 3.50    649.1266  16.1231     58989.49   1464.2963 -59.01     2.074     1.939   0.0013        258     72.63361
 4.97    655.4445  21.1350     583.4313    870.9727   6.69     1.205     1.054   0.1061        259      56.9785
 4.19    646.8542  21.6698     356.5029    652.7485  27.68     0.962     0.824   0.1188        260     39.01051
 7.02    642.0137  22.2933     200.7604    276.5096 -87.93     0.787     0.499   0.2416        261      44.6685
 5.14    631.7795  21.1139     594.8796    805.9449 -67.46     1.254     1.123   0.1138        262     62.36261
 4.72    629.6339  23.0954     95.90112    941.6058 -21.03     1.042     0.326   0.3158        263     27.88941
 5.45    624.2539  20.8778     739.4236   1581.3297 -24.63     1.442     1.261   0.1120        264     76.26751
 6.88    619.2504  21.7312     336.9163   1151.0924  28.52     1.102     0.879   0.2257        265     70.02601
 7.54    610.1631  22.2770     203.8049    944.9097  41.60     0.839     0.661   0.3036        266      56.9785
 3.50    608.4720  24.0709     39.04993   1011.9152   4.20     0.785     0.497   0.6469        267     23.26137
 3.50   1562.1376  20.9566     687.6594    861.4935   5.33     1.262     1.158   0.0675        268     42.73387
 3.76    589.0152  23.1984     87.22766   1139.4913  89.58     0.784     0.500   0.2896        269     23.26137
 4.95   1566.7649  20.1763     1410.863    784.6983 -84.12     1.821     1.377   0.0627        270     81.41481
 5.84   1581.9138  22.7346     133.7032   1414.7047  68.45     1.253     0.472   0.3719        271     45.79006
 3.51   1553.5060  17.2256     21368.24    682.1395 -30.05     4.698     3.914   0.0079        272     154.5175
 3.50   1585.7133  20.7352     843.2073   1108.7926 -47.79     1.406     1.236   0.0613        273     47.60064
 7.41   1576.4824  22.7341     133.7719   1491.4977  44.73     0.516     0.483   0.3132        274     38.57462
 3.50   1558.8717  16.2700     51520.79    487.7102 -42.21     1.948     1.877   0.0014        275     68.56189
 3.59   1562.9105  23.5845     61.11987   1566.5850 -28.67     1.434     0.440   0.5062        276     28.48925
 8.49   1562.4872  22.0728     245.9598    385.4712  70.24     0.829     0.446   0.2353        277      53.2985
 3.50   1567.4845  20.0391     1600.874     22.0536 -35.09     1.501     1.336   0.0353        278     52.01401
 3.63   1551.7889  21.7972     317.0569   1221.5983 -69.22     1.018     0.924   0.1228        279     35.84818
 3.50   1546.9426  21.2587     520.6189    863.4279  79.12     1.442     1.277   0.1022        280     49.00095
 3.80   1543.5000  19.9746     1698.799    654.6492 -44.43     1.543     1.391   0.0370        281     57.86193
 4.68   1533.0137  21.4535     435.1208    415.7943 -28.03     1.657     1.117   0.1616        282     64.75692
 6.56   1489.0807  21.4490     436.9359     77.8819 -75.41     0.962     0.688   0.1386        283     55.77881
 4.87   1519.6189  22.1824     222.3591     84.3914  80.11     1.501     0.882   0.2783        284      56.9785
 7.56   1502.3057  23.3800      73.7876   1412.6653  43.54     0.566     0.339   0.4991        285     33.90899
 8.50   1539.5172  22.3406     192.1976    263.4748  45.53     0.509     0.490   0.2459        286     43.51804
 7.05   1527.5272  23.1358     92.40161    878.5313  49.73     0.500     0.498   0.4157        287     35.37335
 3.50   1508.0370  16.9499     27545.58    269.3830 -51.48     1.875     1.773   0.0026        288      65.7931
 6.76   1521.7549  22.2703     205.0532   1100.5942 -83.81     0.998     0.482   0.2521        289     47.60064
 4.14   1515.3909  22.1351     232.2461    483.6700 -45.90     1.145     1.021   0.2124        290     45.41928
 5.17   1499.3826  21.4508     436.1868    844.6345  23.01     1.288     0.825   0.1358        291     54.55276
 7.80   1497.3390  22.3640     188.1072    930.6785  45.78     0.575     0.335   0.2014        292     34.89206
 5.02   1483.2747  21.0437     634.6337    575.1030 -33.51     1.906     1.010   0.1231        293     71.93182
 5.79    977.4968  23.8088     49.71521   1280.5354  84.84     0.500     0.499   0.6477        294     29.65255
 3.50    965.8499  21.9275      281.184    416.2972 -35.18     1.232     0.946   0.1507        295     39.01051
 7.03    982.7349  21.9465     276.3082   1487.3997 -33.14     0.950     0.546   0.2070        296     52.66018
 7.76   1477.7635  22.4506     173.6909    198.9817  -0.83     0.693     0.425   0.2721        297     43.51804
 5.84    981.6761  20.8478     760.1074    797.9858 -22.91     1.536     1.395   0.1249        298     87.42378
 7.72    972.4925  23.9161     45.03613   1499.4553 -53.16     0.502     0.495   1.0014        299     41.52986
 5.29   1476.3263  20.8256     775.8425    998.5921  -9.60     1.602     0.944   0.0932        300     66.55965
 4.33    987.5529  20.2054      1373.59    453.9749  88.63     1.760     1.477   0.0576        301     72.86604
 5.48    979.2098  21.1678     566.0688    452.6704  73.39     1.079     0.952   0.1093        302      56.9785
 0.00   1479.4890  99.0000    -8.580688    638.4839  46.80     0.501     0.499  99.0000        303     20.14494
 5.28   1439.3832  21.3695     470.1196   1271.1968  84.54     1.095     0.913   0.1267        304     54.86184
 3.71   1067.5957  22.0209     258.0049    568.9399 -85.07     1.064     0.782   0.1469        305     34.89206
 3.50    985.6585  17.0455      25222.3    558.4474 -60.51     1.860     1.774   0.0028        306     65.01752
 3.88   1416.2999  20.1479     1448.192   1386.6492  19.74     1.424     1.377   0.0416        307     55.47484
 5.29   1072.8474  19.7149     2157.962   1219.1344 -71.81     2.171     1.586   0.0506        308     100.5567
 4.20   1066.6592  22.1187     235.7858   1597.1162  36.70     1.159     0.981   0.2040        309     44.28833
 5.21   1065.3551  22.4344     176.3005    292.5062  -0.68     0.931     0.478   0.2266        310     36.77946
 7.20   1079.6516  24.1504     36.29553    921.6904 -46.76     0.573     0.335   0.9530        311     31.85195
 5.67    993.0270  22.8454     120.7356    500.0000  90.00     0.838     0.289   0.2509        312     27.88941
 6.66   1069.3281  25.1514     14.43628   1182.6630  44.61     0.577     0.334   2.2732        313     30.21741
 0.00   1439.4316  99.0000     -31.9552    646.8270  47.40     1.087     0.718  99.0000        314      52.9803
 3.50   1440.6519  19.8031     1989.505    619.1653   9.04     1.445     1.337   0.0277        315     50.69699
 3.50   1394.2668  15.9308     70415.88    114.4738 -48.42     2.040     1.936   0.0011        316     71.93182
 8.23   1450.7783  24.2886     31.95667     88.3631 -73.90     0.748     0.452   1.6885        317     49.68631
 5.76   1453.8417  21.9297     280.6082    391.7621  21.98     1.190     0.813   0.2262        318     58.44348
 3.50   1436.1301  19.4549      2741.77    224.7948 -34.44     1.604     1.459   0.0221        319     55.77881
 4.26   1437.3093  22.2589      207.222   1347.0367  73.01     1.028     0.724   0.1998        320     38.13375
 3.50   1219.7289  18.2799     8092.065   1195.0479  14.69     1.870     1.852   0.0090        321     67.06581
 3.50   1435.7036  15.6706     89487.05   1089.9775  43.89     1.901     1.615   0.0011        322     92.03124
 7.30   1432.6862  21.2560     521.9252    341.5507  -7.52     1.510     1.030   0.1951        323     93.76959
 3.50   1139.3179  16.9639     27191.48    148.0982 -49.63     1.915     1.847   0.0027        324     67.56818
 8.31   1094.4969  22.1165     236.2603    429.0226  -2.01     0.796     0.500   0.2508        325     54.55276
 4.56   1079.9408  20.9995     660.9879    330.0614 -62.66     1.125     0.943   0.0805        326     49.00095
 4.34   1130.0508  21.5445     400.1125    547.4393 -65.16     1.185     1.025   0.1292        327     47.60064
 3.50   1389.6022  18.5603      6250.11   1428.5128 -35.92     1.644     1.588   0.0101        328     58.15343
 5.12   1131.0320  20.8863     733.6445    219.3809 -20.51     1.568     1.132   0.1054        329     71.22312
 3.51   1386.6152  20.7282     848.6102   1274.3851 -80.87     1.295     0.447   0.0539        330     42.09652
 3.50   1409.1057  19.8527     1900.752    308.4276  -7.76     1.523     1.467   0.0308        331     53.92928
 3.85   1263.1622  22.7659     129.9116    215.8559 -41.55     0.728     0.565   0.2174        332     26.00701
 4.79   1407.2278  21.6984     347.2405    329.8878  77.17     1.283     1.109   0.1864        333     59.58954
 6.13   1388.2180  23.1516     91.06628   1384.9540   1.83     0.696     0.412   0.4103        334     34.40403
 5.62   1412.1393  20.9229     709.3081    350.1120  23.37     1.424     1.101   0.1112        335     72.63361
 6.74   1414.8446  21.7984     316.7004      1.3369  76.87     1.069     0.416   0.1277        336     37.23637
 6.02   1278.3990  22.9853     106.1426    343.4074  -1.19     0.918     0.658   0.4906        337     47.95455
 4.77   1294.3375  20.2316     1340.782    742.2962  73.62     1.413     1.260   0.0527        338     65.01752
 5.37   1292.0195  22.9100     113.7611    545.9750 -45.38     0.899     0.525   0.3377        339     35.37335
 6.24   1401.4606  21.2466     526.4385   1031.6093  31.56     1.437     1.248   0.1775        340     86.05922
 6.59   1389.5435  22.0731     245.9019    806.6453   0.75     0.950     0.943   0.2825        341     63.96878
 4.18   1391.2549  19.6972     2193.357    713.2370  26.81     1.499     1.457   0.0314        342     63.43791
 4.30   1393.0747  20.0359     1605.635   1038.7461  42.34     1.418     1.397   0.0418        343     61.81795
 5.41   1388.9937  23.7722     51.41736   1584.7758 -89.72     0.686     0.417   0.6382        344     30.21741
 5.53   1380.3506  22.4446     174.6543    318.5949  -4.36     1.034     0.628   0.2893        345     46.52275
 3.84   1278.8799  19.1737     3552.503   1331.4744 -56.45     1.646     1.542   0.0193        346      63.1708
 5.77   1371.3213  22.7487      131.984    705.8503 -32.11     1.213     0.407   0.3384        347     41.12069
 3.50   1320.9148  17.0140     25965.23    659.9897 -44.67     1.896     1.801   0.0028        348     66.81321
 7.56   1369.4689  23.6690     56.54602    149.4737  17.41     0.499     0.499   0.7575        349     39.44158
 3.51   1373.4688  18.3616     7504.948   1018.9661 -21.90     1.834     1.715   0.0094        350     64.75692
 5.31   1331.2352  21.9628      272.207    386.9082   1.03     1.306     0.996   0.2477        351     62.09088
 3.50   1293.9078  21.0336     640.5739    412.7370  23.44     1.287     1.129   0.0724        352     42.73387
 5.11   1346.4972  22.4162     179.2687    605.5799 -50.92     1.185     0.775   0.3071        353     50.69699
 7.57   1353.2751  21.5247     407.5068    152.0077  17.83     1.231     1.094   0.2426        354     91.02452
 5.12   1333.5925  20.9991     661.2311    107.4225 -28.91     1.327     1.156   0.1076        355     65.53559
 5.43   1320.0242  21.2057     546.6571    264.0417 -45.50     1.309     1.038   0.1297        356     65.27707
 3.83   1330.7550  19.4337     2795.939    655.8856  56.69     1.676     1.627   0.0230        357      59.2923
 4.14   1305.5653  21.0385     637.6774    892.8594 -79.27     1.297     1.158   0.0880        358      51.6879
 3.50   1299.2639  14.9927       167081    724.8691 -47.64     2.150     2.016   0.0005        359      75.8228
 3.70   1308.3883  19.6261     2341.774    669.6326 -17.93     1.494     1.487   0.0259        360     55.77881
 8.09   1307.6790  23.1231     93.48523    574.6573 -44.05     0.576     0.334   0.4378        361     37.68773
 3.59   1273.6150  17.8623     11887.31    609.9725 -58.64     4.087     2.422   0.0106        362     116.3069
 4.24   1300.2339  22.5335     160.9099     54.0051 -29.97     1.122     0.858   0.2937        363     43.51804
 3.50   1292.2128  18.6330     5845.293    762.0967 -25.34     2.106     1.659   0.0126        364     67.56818
 3.67   1262.9900  22.5097     164.4789    855.3809   0.12     1.015     0.766   0.2206        365      33.4066
 5.04   1274.2222  22.2681      205.483    698.2037 -79.22     1.189     0.826   0.2749        366     52.01401
 7.35   1157.5980  22.4364     175.9723    567.8342  19.03     0.772     0.445   0.2780        367     45.04546
 3.50   1266.2606  19.4977     2635.881    807.8792 -38.08     1.534     1.430   0.0221        368     53.61481
 5.60   1213.6489  20.1432     1454.564   1429.3069  77.15     2.724     2.083   0.1029        369     137.8617
 0.00   1238.9614  99.0000    -10.00354    857.0588 -45.63     0.897     0.539  99.0000        370     43.12774
 3.76   1235.1207  19.7178     2152.176    304.8844 -70.00     1.601     1.472   0.0299        371      59.3051
 4.35   1260.2809  20.0702     1555.716    432.4522 -61.87     1.924     1.810   0.0580        372     83.05972
 4.00   1238.4276  21.8750     295.1335     48.1247 -11.79     1.158     0.950   0.1601        373     43.51804
 6.11   1230.6050  20.7670     818.8365    599.0958  13.98     1.553     1.455   0.1260        374     95.02349
 3.50   1238.0283  20.3133     1243.635   1553.5206 -12.60     1.431     1.370   0.0446        375     51.02943
 3.50   1244.9319  23.7189     54.00806    614.1144  43.91     0.865     0.661   0.5485        376     27.27638
 4.38   1202.6338  20.1037     1508.345    339.0765 -83.96     1.516     1.396   0.0476        377     66.04961
 3.50   1215.4216  17.7994     12596.72    513.0119 -59.10     1.745     1.693   0.0053        378     61.26844
 3.50   1211.6077  17.8305     12240.87   1279.0597  80.67     5.688     3.491   0.0143        379     161.1595
 4.87   1229.3096  22.0638     248.0197   1153.9847  -3.74     1.189     0.976   0.2361        380     53.92928
 3.50   1208.4626  20.5137     1033.982    838.7981 -29.99     1.343     1.247   0.0481        381     45.79006
 5.21   1195.7804  20.1229     1481.906    124.2715  85.31     1.874     1.702   0.0702        382     95.73264
 4.53   1205.2776  22.7149     136.1522   1217.3695 -46.25     0.892     0.513   0.2454        383      30.7719
 3.89   1162.5885  21.6065     377.9116    887.7397 -48.69     1.405     1.171   0.1485        384      51.6879
 4.67   1154.6306  20.7534     829.1251   1353.0854 -56.53     1.611     1.412   0.0939        385     71.69637
 4.88   1201.8149  20.8465      761.047   1442.1520 -87.54     1.659     1.491   0.1132        386     79.31071
 5.64   1182.5487  21.6622     359.0165    176.5511   8.16     1.425     0.970   0.2059        387     68.06685
 3.50   1181.6399  21.5230     408.1427    549.2872 -17.64     1.167     0.943   0.0991        388     37.23637
 6.47   1185.6552  23.2376     84.12915    313.7022 -47.34     0.566     0.338   0.3901        389     30.21741
 3.64   1152.1667  20.6208     936.8844     99.4371  -5.03     1.310     1.209   0.0556        390     47.95455
 3.50   1165.9730  16.4508     43620.34   1299.8149 -73.70     1.991     1.895   0.0017        391     69.29781
 3.50   1130.7355  17.6968     13844.35    183.5708 -55.72     1.823     1.729   0.0050        392     63.96878
 6.43   1178.4944  22.6525     144.2175   1597.7561  72.38     1.154     0.262   0.2735        393     36.31681
 7.58   1167.6770  23.1541     90.85681   1599.3630  46.34     0.885     0.518   0.4915        394     41.12069
 0.00   1169.6912  99.0000     -20.1012    385.3456  43.30     0.572     0.336  99.0000        395     30.21741
 3.61   1158.6713  18.8324     4864.334    236.4377 -45.44     1.659     1.639   0.0139        396     62.36261
 6.98   1131.8344  21.7387     334.5911    359.0297  34.12     1.138     1.043   0.2539        397     78.23744
 3.50   1080.7612  16.9100     28575.93    512.1377 -66.86     1.873     1.779   0.0025        398     65.53559
 5.41   1121.0597  19.4173      2838.48    329.8915  58.20     2.642     1.720   0.0454        399     118.7527
 4.68   1096.1305  20.9082     718.9552   1526.4138 -79.64     1.384     1.254   0.0974        400     64.49528
 3.50   1108.1862  18.6763     5616.435    427.9433 -54.08     1.692     1.627   0.0115        401      59.3051
 5.32   1111.4586  20.0232     1624.513    479.1580  -9.86     2.161     1.572   0.0676        402     101.0599
 3.50   1095.5962  17.0007     26286.93    778.2920  30.96     1.857     1.769   0.0032        403     76.64269
 5.17   1091.6052  20.9747     676.2854    468.4291 -68.10     1.906     0.987   0.1170        404     72.86604
 5.44   1095.1101  21.8202     310.3868   1136.4399 -85.67     1.091     0.933   0.1994        405      56.9785
 3.50   1082.6001  18.2722     8149.662   1148.1748 -75.09     1.756     1.712   0.0083        406     62.36261
 3.50   1030.9937  20.0695     1556.696    302.5811  71.37     2.462     1.757   0.0523        407     74.92546
 6.46   1085.8284  21.8909     290.8298   1452.5986  76.35     0.929     0.621   0.1893        408     50.69699
 6.13   1066.0032  20.2956     1264.008   1562.7290 -64.61     2.578     1.374   0.1023        409     119.0371
 3.50   1010.6152  17.6601      14320.7    813.6567 -57.58     1.843     1.779   0.0049        410     64.23257
 5.93   1020.8219  23.1963     87.39746   1154.6001  71.58     0.761     0.450   0.4627        411     37.23637
 7.72   1052.8062  21.7759     323.3174    238.2280  10.82     1.184     0.333   0.1680        412     50.02547
 5.75   1001.6425  22.6898     139.3354   1025.6887 -46.97     0.578     0.332   0.2027        413     26.00701
 3.50    998.9927  22.4745     169.8959    233.2767 -18.35     1.046     0.719   0.2002        414     31.31658
 3.50   1039.5093  18.4060     7204.178    525.4048 -57.06     1.682     1.625   0.0092        415     60.71397
 5.58   1040.7959  22.1043     238.9358    467.1765  60.45     1.002     0.638   0.2064        416     45.41928
 8.77   1042.6610  23.1506     91.14978   1095.3132  46.21     0.571     0.337   0.4800        417     40.28988
 3.50   1041.0314  16.6208     37295.97    633.0394 -48.28     1.946     1.863   0.0020        418     69.05338
 7.81   1044.5298  24.3798     29.38184    809.4818 -44.15     0.509     0.490   1.5500        419     41.93504
 3.50   1026.5739  17.4845     16834.07   1379.9856 -68.53     1.930     1.815   0.0044        420     67.56818
 7.28   1038.3228  23.2153     85.87732    242.3530 -43.77     0.581     0.331   0.4028        421     31.85195
 5.54   1014.3884  22.1666     225.6035    453.2855 -71.18     0.977     0.589   0.2076        422     43.12774
 5.78   1026.6539  23.7363     53.14734   1028.6675 -45.54     0.582     0.330   0.5445        423     26.64925
 5.56   1028.6923  22.9498      109.668    463.6869 -44.70     0.557     0.343   0.2510        424     25.34849
 3.50   1012.0173  19.7874     2018.499    344.6625 -58.15     1.552     1.359   0.0287        425      53.2985
 3.88   1011.5946  22.8431     120.9958    268.0587 -42.83     1.169     0.663   0.3132        426     34.89206
 4.09   1000.6547  20.7589     824.9408   1273.9342 -43.44     1.550     1.291   0.0784        427     59.58954
 3.72   1002.4813  19.7025     2182.713    542.4351  72.56     1.532     1.462   0.0282        428     56.68095
 6.18   1020.4149  22.3999     181.9821   1267.5466 -73.09     0.874     0.686   0.2945        429     49.34483
 4.02   1002.4446  20.4203      1126.92   1555.2887 -75.10     1.475     1.318   0.0558        430     57.86193
