#   1 KRON_RADIUS            Kron apertures in units of A or B                         
#   2 Y_IMAGE                Object position along y                                    [pixel]
#   3 MAG_BEST               Best of MAG_AUTO and MAG_ISOCOR                            [mag]
#   4 FLUX_BEST              Best of FLUX_AUTO and FLUX_ISOCOR                          [count]
#   5 X_IMAGE                Object position along x                                    [pixel]
#   6 THETA_IMAGE            Position angle (CCW/x)                                     [deg]
#   7 A_IMAGE                Profile RMS along major axis                               [pixel]
#   8 B_IMAGE                Profile RMS along minor axis                               [pixel]
#   9 MAGERR_BEST            RMS error for MAG_BEST                                     [mag]
#  10 NUMBER                 Running object number                                     
#  11 FLUXERR_BEST           RMS error for BEST flux                                    [count]
 3.50     53.2838  43.6548  5.72895e-07     63.6477   1.96     5.083     4.550   0.0013          1 7.006287e-10
 3.50     16.4473  45.7935  7.99086e-08    985.0638 -88.35     4.239     1.966   0.0057          2 4.194085e-10
 3.50     18.0485  46.3044 4.991764e-08     91.3017 -35.32     1.708     1.679   0.0053          3 2.436543e-10
 3.50     14.6274  45.2459 1.323223e-07   1445.7544 -58.49     1.884     1.809   0.0022          4 2.703884e-10
 3.50      4.3305  49.1477 3.638557e-09    145.2530  74.04     1.015     0.886   0.0414          5 1.387063e-10
 3.50     10.4536  50.1550 1.438791e-09   1183.5219  33.10     0.501     0.497   0.0613          6  8.12181e-11
 3.50     17.2486  48.9810 4.242095e-09    384.5203  15.12     0.993     0.961   0.0360          7 1.406739e-10
 3.50     24.7669  48.0082  1.03925e-08    367.2263 -21.33     1.299     1.275   0.0196          8 1.875652e-10
 3.50     59.7912  43.6147 5.944347e-07   1078.4733  84.38     2.268     2.147   0.0006          9 3.206144e-10
 3.50     23.9616  49.8061 1.984156e-09    383.4862  89.84     0.803     0.500   0.0513         10 9.378259e-11
 3.50     33.8460  48.6377 5.819978e-09   1110.2986  68.70     1.623     0.858   0.0324         11 1.738776e-10
 3.50     33.6543  49.4422 2.774201e-09    326.8777 -69.17     0.926     0.695   0.0459         12 1.172282e-10
 3.50     37.8553  49.5842 2.433988e-09   1521.1608  46.14     0.830     0.670   0.0479         13 1.074414e-10
 3.50     38.8119  49.3823 2.931532e-09   1170.4941   0.66     0.976     0.731   0.0443         14 1.195498e-10
 3.50     42.4489  49.2468 3.321145e-09    915.4882  43.03     0.914     0.910   0.0434         15 1.326286e-10
 3.50     80.1583  43.6592 5.705679e-07    537.6335 -60.38     2.154     2.100   0.0006         16 3.092693e-10
 3.50     44.4958  50.1836 1.401386e-09    440.5081 -45.28     0.502     0.497   0.0629         17  8.12181e-11
 3.50     75.1918  47.2511 2.087206e-08    128.0417 -37.06     1.525     1.464   0.0113         18  2.17426e-10
 3.50     82.1747  48.9276 4.456225e-09    421.4829  79.56     1.084     0.961   0.0352         19 1.445287e-10
 3.50     90.7019  47.8992 1.149021e-08    376.9533  -8.55     1.692     1.599   0.0224         20 2.367894e-10
 3.50    121.8149  43.2384 8.406691e-07    789.1761 -57.47     2.230     2.157   0.0004         21 3.171668e-10
 3.50     96.6356  46.8376 3.054696e-08     56.2013 -28.27     1.659     1.551   0.0083         22 2.321001e-10
 3.50     98.0719  48.4559 6.880565e-09    452.9169 -16.52     1.609     0.997   0.0291         23 1.846112e-10
 3.50     91.5053  49.7965 2.001613e-09    495.9696  -1.52     0.786     0.500   0.0509         24 9.378259e-11
 3.50    162.3151  43.8511 4.781559e-07   1468.3146 -52.28     2.120     2.050   0.0007         25 3.011648e-10
 3.50    131.2890  49.7017 2.184311e-09    418.0253   6.66     0.731     0.680   0.0508         26 1.021972e-10
 3.50    170.3201  45.4379 1.108806e-07    877.3334 -43.98     1.866     1.830   0.0026         27 2.683477e-10
 3.50    151.4879  50.0762 1.547134e-09   1280.4852 -45.65     0.501     0.498   0.0570         28  8.12181e-11
 3.50    164.9676  48.1596 9.039715e-09   1445.6472  15.23     1.299     1.187   0.0216         29 1.800894e-10
 3.50    166.7812  48.4149 7.145602e-09    104.4359 -17.91     1.259     1.143   0.0259         30 1.706869e-10
 3.50    169.3400  49.4314  2.80173e-09   1368.8975  67.96     0.911     0.688   0.0445         31 1.148597e-10
 3.50    180.3982  49.2703  3.24996e-09    575.1818  40.13     1.116     0.678   0.0422         32 1.262587e-10
 3.50    186.6550  49.1864 3.511175e-09   1354.9115  76.18     1.037     0.755   0.0397         33 1.284171e-10
 3.50    192.5616  47.8980  1.15026e-08   1350.5184  13.85     1.363     1.331   0.0185         34 1.961604e-10
 3.50    210.7328  46.0890  6.08686e-08    827.6205  -5.68     3.923     2.048   0.0073         35 4.114694e-10
 3.50    206.6985  47.1914 2.205232e-08    549.0851 -14.23     1.527     1.494   0.0109         36 2.211858e-10
 3.50    212.1701  47.1644 2.260625e-08   1306.1150  48.05     1.532     1.510   0.0108         37 2.248827e-10
 3.50    230.1198  46.1918 5.536913e-08    562.2935 -33.46     3.243     3.073   0.0090         38 4.570398e-10
 3.50    210.9191  48.5587 6.259433e-09    684.8598 -65.27     1.212     1.114   0.0293         39  1.69069e-10
 3.50    259.7668  42.6499 1.445632e-06    997.4614 -49.03     2.336     2.232   0.0003         40  3.34049e-10
 3.50    223.8962  47.0047 2.618874e-08   1226.1107 -11.07     1.560     1.493   0.0093         41 2.248827e-10
 3.50    222.6267  48.2279 8.488841e-09    774.9563 -88.10     1.217     1.189   0.0224         42 1.754512e-10
 3.50    265.9227  42.9658 1.080661e-06     67.5955 -49.63     2.267     2.205   0.0003         43 3.240253e-10
 3.50    243.9446  47.4249 1.778512e-08    112.8233 -87.57     1.981     1.556   0.0154         44 2.525173e-10
 3.50    255.4841  46.3331 4.861517e-08    612.9722 -38.61     2.463     2.026   0.0073         45 3.265601e-10
 3.50    239.2761  48.5623 6.238677e-09    838.8503 -32.84     1.232     1.131   0.0303         46 1.738776e-10
 3.50    250.5009  48.9697 4.286495e-09    107.5043 -43.05     1.107     0.853   0.0346         47 1.367104e-10
 3.50    287.5287  44.5343 2.548469e-07   1486.4596 -50.26     2.037     1.980   0.0013         48 2.937731e-10
 3.50    281.9088  46.1792 5.601728e-08   1522.3840 -32.21     1.711     1.692   0.0048         49    2.459e-10
 3.50    270.8255  48.8285  4.88196e-09   1273.7584  15.27     1.229     0.913   0.0338         50 1.519452e-10
 3.50    303.1563  44.8524 1.901332e-07    201.7476 -50.40     1.960     1.914   0.0016         51 2.803691e-10
 3.50    293.3464  48.3268 7.749483e-09   1475.7401 -56.35     1.310     1.196   0.0250         52 1.785567e-10
 3.50    302.3322  48.0991 9.557501e-09    563.7213  50.64     1.362     1.282   0.0216         53 1.904733e-10
 3.50    292.5020  50.1129 1.495722e-09    248.4886 -46.55     0.501     0.499   0.0590         54  8.12181e-11
 3.50    322.0978  45.2929 1.267142e-07    697.3354 -10.43     1.862     1.821   0.0023         55   2.6937e-10
 3.50    308.5820  49.2014 3.462885e-09     85.3546  68.34     0.971     0.833   0.0403         56 1.284171e-10
 3.50    321.8807  48.0840 9.691858e-09    641.4990 -61.14     1.839     1.276   0.0251         57 2.236572e-10
 3.50    327.5215  47.1244 2.345454e-08    595.4216 -30.45     1.745     1.712   0.0116         58 2.514265e-10
 3.50    332.1841  48.8570 4.755372e-09     93.4054  69.46     1.046     0.961   0.0326         59 1.426143e-10
 3.50    329.3154  49.1423 3.656695e-09   1546.0649 -55.35     0.993     0.833   0.0388         60 1.305398e-10
 3.50    350.0923  47.8711 1.179171e-08     54.7255 -36.17     1.354     1.325   0.0178         61 1.933377e-10
 3.50    368.1498  45.2563  1.31067e-07    761.1053 -31.33     1.934     1.844   0.0023         62 2.744243e-10
 3.50    361.1681  47.1821 2.224027e-08   1500.3917 -15.58     1.575     1.451   0.0106         63 2.161582e-10
 3.50    395.2384  43.5433 6.348899e-07    231.4511 -62.05     2.199     2.124   0.0005         64 3.128039e-10
 3.50    360.6426  48.5774 6.152385e-09   1034.0239 -17.23     1.213     1.064   0.0296         65 1.674354e-10
 3.50    375.3467  48.3781 7.391838e-09    754.0450  55.15     1.689     1.009   0.0280         66 1.904733e-10
 3.50    370.6205  49.5108 2.604196e-09     71.8723 -68.60     0.915     0.688   0.0489         67 1.172282e-10
 3.50    380.7867  49.0009 4.165388e-09      1.4591 -88.09     1.734     0.495   0.0329         68 1.262587e-10
 3.50    373.5027  48.9019 4.562955e-09   1083.8607 -17.47     1.104     0.983   0.0344         69 1.445287e-10
 3.50    397.0646  45.6761 8.903738e-08   1461.2047 -63.65     1.784     1.757   0.0031         70 2.568342e-10
 3.50    398.1861  45.4992 1.047921e-07    354.6312 -30.07     1.870     1.811   0.0028         71 2.683477e-10
 3.50    375.6045  50.1696 1.419629e-09     87.1944 -18.43     0.742     0.452   0.0621         72  8.12181e-11
 3.50    380.1653  49.5535 2.503776e-09    125.8444  44.74     0.819     0.679   0.0466         73 1.074414e-10
 3.50    393.8183  47.2330 2.122193e-08   1088.7571 -27.90     1.541     1.453   0.0111         74 2.161582e-10
 3.50    382.4933  50.0726  1.55227e-09     67.5074 -45.03     0.504     0.495   0.0568         75  8.12181e-11
 3.50    388.5466  50.1084 1.501837e-09   1195.4808  35.86     0.502     0.496   0.0587         76  8.12181e-11
 3.50    412.0318  48.2128 8.607286e-09      1.7929 -89.93     2.698     0.738   0.0235         77  1.86094e-10
 3.50    397.0578  48.4960 6.631459e-09    626.8564 -51.07     1.312     1.189   0.0297         78 1.816092e-10
 3.50    439.9524  48.4747 6.762608e-09    305.7993  46.70     1.212     1.124   0.0272         79  1.69069e-10
 3.50    403.5371  49.3603 2.991497e-09    526.6381  83.79     1.052     0.640   0.0426         80 1.172282e-10
 3.50    407.1430  49.6479 2.295344e-09    282.1613 -46.18     0.824     0.673   0.0508         81 1.074414e-10
 3.50    437.9734  44.7640 2.062516e-07    252.0832 -76.57     2.005     1.961   0.0015         82 2.832948e-10
 3.50    461.0829  42.4472 1.742254e-06    807.6462 -60.36     2.358     2.271   0.0002         83 3.381379e-10
 3.50    420.8534  47.9292 1.117636e-08    159.0429  39.75     1.733     1.408   0.0222         84 2.285199e-10
 3.50    419.5251  50.0187 1.631232e-09   1580.4937  42.69     0.503     0.496   0.0541         85  8.12181e-11
 3.50    432.9463  47.5509 1.583634e-08   1422.0889 -13.52     1.448     1.394   0.0357         86 5.209136e-10
 3.50    420.5040  50.2124 1.364749e-09    134.4958 -45.01     0.502     0.498   0.0646         87  8.12181e-11
 3.50    426.5382  48.7207 5.391674e-09   1179.2578   2.31     1.245     1.017   0.0331         88 1.641195e-10
 3.50    434.2637  48.6617 5.692915e-09    151.1025 -22.09     1.132     1.028   0.0297         89 1.555208e-10
 3.50    450.3340  46.0156 6.512862e-08     21.3314 -58.10     1.770     1.743   0.0042         90 2.546849e-10
 3.50    427.3281  48.6875 5.558868e-09    432.8611  -1.25     2.197     0.467   0.1215         91 6.218532e-10
 3.50    430.8225  49.7795 2.033317e-09    718.8328  45.27     0.773     0.572   0.0531         92 9.947145e-11
 3.50    467.7827  45.4538 1.092596e-07    850.6353  22.60     7.560     2.175   0.0059         93 5.917414e-10
 3.50    457.8497  45.8887  7.32023e-08     34.5903 -54.04     1.792     1.743   0.0038         94 2.579021e-10
 3.50    445.2361  48.0589 9.918563e-09    122.3735 -22.13     1.394     1.304   0.0215         95 1.961604e-10
 3.50    481.1953  45.7746 8.131129e-08   1287.6984  32.77     6.954     3.399   0.0129         96 9.686375e-10
 3.50    443.7329  49.8055 1.985106e-09    655.0186   1.84     0.736     0.673   0.0559         97 1.021972e-10
 3.50    463.6465  47.1284 2.336911e-08    468.6518  68.76     1.604     1.550   0.0106         98 2.285199e-10
 3.50    452.9315  49.2876  3.19862e-09   1533.1636  -0.23     0.914     0.750   0.0414         99 1.218271e-10
 3.50    461.0337  48.3920 7.297665e-09   1096.0989  39.82     1.308     1.103   0.0266        100 1.785567e-10
 3.50    471.4113  47.3230 1.953461e-08    254.2650 -61.22     1.522     1.472   0.0119        101 2.148829e-10
 3.50    472.1447  46.9002 2.883608e-08    734.9272  77.93     1.557     1.496   0.0084        102 2.236572e-10
 3.50    461.8802  49.1603 3.596391e-09    725.1290  -9.04     1.164     0.729   0.0407        103  1.34685e-10
 3.50    477.9432  46.6113 3.762558e-08    923.0552 -35.09     1.696     1.621   0.0069        104 2.390996e-10
 3.50    488.7608  48.1749 8.913328e-09    839.5934  87.00     2.110     0.990   0.0256        105 2.097042e-10
 3.50    484.0721  47.5571 1.574601e-08   1070.7034 -27.62     1.482     1.420   0.0144        106 2.083895e-10
 3.50    496.2172  46.8436 3.037746e-08     82.9051  74.37     2.340     2.131   0.0117        107 3.265601e-10
 3.50    476.0095  49.7012 2.185369e-09   1168.3043  87.06     0.731     0.675   0.0508        108 1.021972e-10
 3.50    478.9706  49.4508 2.752156e-09    682.9415  41.42     0.787     0.783   0.0424        109 1.074414e-10
 3.50    495.7078  46.8047 3.148637e-08   1186.8019 -15.63     3.097     1.926   0.0123        110 3.555708e-10
 3.50    504.1461  47.4898 1.675189e-08    762.9879 -56.93     1.864     1.731   0.0171        111  2.64219e-10
 3.50    515.2971  46.4218 4.480101e-08   1461.0424  24.07     4.145     1.719   0.0094        112 3.873857e-10
 3.50    501.9452  48.0755 9.767717e-09    863.7459  -5.36     1.318     1.197   0.0204        113 1.831164e-10
 3.50    497.9505  49.2283 3.378191e-09    366.3564 -14.25     1.001     0.747   0.0406        114 1.262587e-10
 3.50    533.2037  46.6804 3.530494e-08    527.0394  88.38     4.277     0.798   0.0438        115 1.425085e-09
 3.50    509.9374  48.2085 8.642071e-09    164.8970  -4.26     1.962     1.092   0.0264        116 2.097042e-10
 3.50    513.7638  48.0731   9.7892e-09   1179.2416 -10.35     1.293     1.280   0.0208        117 1.875652e-10
 3.50    509.6940  50.7543 8.284929e-10    454.3212  44.17     0.560     0.342   0.0753        118 5.742987e-11
 3.50    519.0712  48.5003 6.605406e-09    641.9521  -6.15     1.183     1.164   0.0281        119 1.706869e-10
 3.50    518.1534  49.6265 2.341001e-09   1519.1439 -46.02     0.818     0.685   0.0498        120 1.074414e-10
 3.50    520.6724  50.7940 7.987414e-10    853.6773 -45.23     0.570     0.337   0.0781        121 5.742987e-11
 3.50    540.1843  47.1675 2.254269e-08    999.9459 -88.54     1.532     1.485   0.0108        122 2.236572e-10
 3.50    536.3392  48.9568 4.338081e-09    404.5271  39.13     1.181     0.788   0.0352        123 1.406739e-10
 3.50    558.9300  46.8328 3.068186e-08   1041.7938  -1.86     1.646     1.622   0.0084        124 2.367894e-10
 3.50    543.5108  50.1467 1.449837e-09    934.4875 -45.12     0.505     0.495   0.0608        125  8.12181e-11
 3.50    571.3123  47.1990 2.189874e-08     45.8628  46.07     2.108     1.535   0.0131        126  2.64219e-10
 3.50    555.9459  49.6301 2.333317e-09    778.7078  78.95     0.737     0.676   0.0476        127 1.021972e-10
 3.50    580.7177  45.3062 1.251703e-07    144.9537 -55.36     1.871     1.837   0.0023        128   2.6937e-10
 3.50    571.4236  47.1599 2.270013e-08   1447.9548  17.48     2.404     1.731   0.0141        129 2.937731e-10
 3.50    565.1072  48.8793 4.658807e-09    139.5362 -68.14     1.045     0.976   0.0337        130 1.445287e-10
 3.50    596.6661  45.7335 8.444708e-08    782.6929 -67.20     3.477     3.203   0.0062        131 4.844803e-10
 3.50    582.2125  45.3095 1.247954e-07    319.2401  -7.43     1.866     1.822   0.0024        132 2.703884e-10
 3.50    576.2396  48.5201 6.486034e-09   1001.8231 -11.50     1.233     1.163   0.0291        133 1.738776e-10
 3.50    584.4807  48.2840 8.060858e-09     75.9897 -70.79     1.272     1.180   0.0236        134 1.754512e-10
 3.50   1011.1340  49.6386 2.314992e-09    267.8728  43.30     0.847     0.671   0.0504        135 1.074414e-10
 3.50   1597.6226  47.9220 1.125117e-08    654.8542 -11.20     1.736     1.488   0.0207        136 2.148829e-10
 3.50   1600.0000  50.5233 1.024932e-09     18.9841   0.00     0.858     0.289   0.0657        137 6.203135e-11
 3.50   1594.7495  48.3550 7.550719e-09    374.1707  58.00     1.390     1.139   0.0263        138 1.831164e-10
 3.50   1593.4780  49.8454 1.913576e-09   1385.0256  -1.02     0.800     0.499   0.0532        139 9.378259e-11
 3.50   1591.4967  50.1646 1.426084e-09    566.5433  65.73     0.500     0.498   0.0618        140  8.12181e-11
 3.50   1584.9576  47.5335   1.6091e-08   1108.9229 -21.91     1.455     1.382   0.0137        141 2.030452e-10
 3.50   1585.9427  49.6796 2.229343e-09   1069.6754  87.76     0.738     0.663   0.0485        142 9.947145e-11
 3.50   1563.6938  43.3700 7.447209e-07    304.2417 -67.80     2.206     2.137   0.0005        143 3.162991e-10
 3.50   1519.4851  50.1305 1.471586e-09     85.4958 -43.82     0.502     0.497   0.0599        144  8.12181e-11
 3.50   1515.3531  48.6141 5.947977e-09   1547.2754  63.80     1.332     1.028   0.0315        145 1.722896e-10
 3.50   1514.6383  48.7779 5.114764e-09    483.6127 -43.67     1.055     0.951   0.0307        146 1.445287e-10
 3.50    939.2388  47.0647 2.478116e-08   1067.2456 -13.95     1.565     1.509   0.0099        147 2.248827e-10
 3.50    938.3405  48.5783 6.147324e-09    516.2775  66.79     1.388     1.012   0.0307        148 1.738776e-10
 3.50    928.3609  47.6897 1.393567e-08   1322.5060 -65.01     1.391     1.339   0.0154        149 1.975565e-10
 3.50    912.9041  47.9554 1.090995e-08    838.6151 -70.60     1.368     1.304   0.0190        150 1.904733e-10
 3.50    912.3674  48.6172 5.931118e-09   1001.1682  10.25     1.159     1.079   0.0297        151 1.624362e-10
 3.50    900.4851  45.7624 8.222991e-08    302.8287 -53.15     1.798     1.764   0.0065        152  4.94334e-10
 3.50    896.1305  47.3467 1.911183e-08    538.6094   4.56     2.016     1.648   0.0150        153 2.631767e-10
 3.50    897.0074  49.8249 1.949983e-09    987.5042 -89.01     0.798     0.500   0.0522        154 9.378259e-11
 3.50    893.7722  48.8872 4.625162e-09   1426.2926  -8.96     1.099     0.926   0.0344        155  1.46418e-10
 3.50    880.2290  42.6904 1.392622e-06   1592.5948 -75.53     2.314     2.172   0.0003        156 3.257173e-10
 3.50    888.7687  48.1362 9.236741e-09    325.9186  13.92     1.767     1.231   0.0253        157 2.148829e-10
 3.50    888.6119  50.1502 1.445139e-09    681.1984 -18.05     0.754     0.450   0.0610        158  8.12181e-11
 3.50    885.7618  48.0008 1.046404e-08   1500.3232  20.64     1.323     1.269   0.0195        159 1.875652e-10
 3.50    885.0236  48.7577  5.21096e-09    339.0868  40.45     1.228     1.082   0.0342        160 1.641195e-10
 3.50    877.7056  48.3683 7.458987e-09    961.0355  85.83     1.256     1.175   0.0258        161 1.770108e-10
 3.50    876.3418  49.4413 2.776428e-09    541.8340  70.07     0.911     0.686   0.0468        162 1.195498e-10
 3.50    869.4551  46.6066  3.77886e-08   1103.6591 -48.29     2.085     1.858   0.0083        163 2.890573e-10
 3.50    867.8583  47.6561 1.437362e-08    939.7767  33.17     1.956     1.418   0.0182        164 2.413877e-10
 3.50    869.3425  49.4069 2.865855e-09    643.8581  68.54     0.905     0.685   0.0435        165 1.148597e-10
 3.50    860.4965  50.1030 1.509375e-09   1554.4673  47.91     0.505     0.494   0.0584        166  8.12181e-11
 3.50    858.4554  48.4242 7.084528e-09   1340.0957 -86.37     1.439     0.964   0.0760        167   4.9556e-10
 3.50    855.7829  50.0337 1.608887e-09    545.3911 -72.02     0.754     0.451   0.0571        168 8.453448e-11
 3.50    844.9655  48.3951 7.277429e-09   1063.9874   0.93     1.171     1.139   0.0242        169 1.624362e-10
 3.50    843.2771  47.5937 1.522377e-08   1106.1720  39.01     1.753     1.361   0.0160        170 2.248827e-10
 3.50    836.6864  47.4159 1.793314e-08    298.8213   9.89     1.471     1.425   0.0128        171 2.110108e-10
 3.50    836.8000  49.5961 2.407563e-09   1520.5819  11.76     0.855     0.606   0.0473        172 1.048521e-10
 3.50    835.5790  48.9472 4.376259e-09    819.1509 -18.67     1.045     0.956   0.0354        173 1.426143e-10
 3.50    823.0105  45.7383 8.407942e-08    654.4041 -89.10     1.822     1.765   0.0034        174 2.631767e-10
 3.50    819.4947  50.0454  1.59164e-09   1398.4908  46.56     0.500     0.499   0.0554        175  8.12181e-11
 3.50    815.8173  49.7490 2.091191e-09    878.1671 -45.57     0.768     0.570   0.0517        176 9.947145e-11
 3.50    803.0265  45.8292 7.732837e-08   1378.7562 -80.40     1.808     1.752   0.0037        177 2.610797e-10
 3.50    798.4859  44.6467 2.297791e-07    695.7280 -87.41     2.634     1.960   0.0016        178 3.323994e-10
 3.50    800.7193  46.6842  3.51824e-08     41.1647 -18.33     1.689     1.581   0.0073        179 2.356258e-10
 3.50    774.2924  46.5928 3.827286e-08   1427.3772  88.48     3.081     1.954   0.0102        180 3.586494e-10
 3.50    768.0104  49.4485 2.758114e-09    140.0022  29.10     0.802     0.798   0.0423        181 1.074414e-10
 3.50    742.8167  47.3561 1.894773e-08    556.2986 -51.07     1.489     1.428   0.0121        182 2.110108e-10
 3.50    738.1146  48.3466 7.609507e-09   1158.1176  46.44     1.225     1.129   0.0239        183 1.674354e-10
 3.50    736.0842  48.4152 7.143755e-09    649.8456 -39.65     1.205     1.119   0.0255        184 1.674354e-10
 3.50    726.6020  43.2250 8.511663e-07    848.5021 -62.01     2.251     2.182   0.0004        185 3.240253e-10
 3.50    727.4634  47.6694 1.419784e-08   1178.3024  -3.24     1.431     1.326   0.0154        186 2.016871e-10
 3.50    721.3871  48.8200 4.920195e-09   1394.9219  15.14     1.197     0.950   0.0339        187 1.537434e-10
 3.50    715.8635  47.4648 1.714211e-08    808.3734  37.59     1.458     1.406   0.0131        188 2.070663e-10
 3.50    708.9210  47.4370 1.758722e-08   1163.9026  23.87     1.483     1.421   0.0129        189 2.097042e-10
 3.50    704.7643  47.4473  1.74212e-08   1338.9906 -11.57     1.868     1.351   0.0367        190 5.883585e-10
 3.50    702.8041  46.8121 3.127186e-08    952.5430   0.31     1.622     1.592   0.0082        191 2.367894e-10
 3.50    699.0344  48.4031 7.223588e-09    582.7208   5.89     1.805     0.979   0.0293        192 1.947542e-10
 3.50    691.6802  48.2322 8.455006e-09   1213.7850  83.76     1.360     1.300   0.0765        193 5.954072e-10
 3.50    686.6818  48.5110 6.540218e-09   1213.8472 -46.38     1.257     1.110   0.0855        194  5.14767e-10
 3.50    685.6550  47.0119 2.601686e-08    644.3347 -63.54     1.584     1.571   0.0096        195 2.297195e-10
 3.50    687.6708  49.1140 3.753014e-09    131.0302  59.48     0.994     0.834   0.0378        196 1.305398e-10
 3.50    669.0709  49.2093 3.437683e-09   1221.6639 -15.26     1.032     0.757   0.0406        197 1.284171e-10
 3.50    666.6913  50.6724 8.933626e-10   1180.3314  43.85     0.566     0.339   0.0698        198 5.742987e-11
 3.50    648.2857  43.2569  8.26507e-07   1464.4146 -69.95     2.237     2.144   0.0004        199 3.171668e-10
 3.50    654.7162  48.4133 7.156118e-09    870.9242  64.89     1.237     1.141   0.0257        200  1.69069e-10
 3.50    645.6807  49.1494 3.632876e-09    653.0637 -74.57     0.996     0.752   0.0377        201 1.262587e-10
 3.50    641.2029  49.7468 2.095528e-09    276.8069 -45.82     0.756     0.566   0.0516        202 9.947145e-11
 3.50    630.7960  48.2869 8.039999e-09    806.0842  -4.55     1.209     1.166   0.0233        203 1.722896e-10
 3.50    623.3643  47.7222  1.35242e-08   1581.5470 -80.48     1.387     1.330   0.0159        204 1.975565e-10
 3.50    618.4223  48.9246 4.468562e-09   1151.2023  87.06     0.996     0.971   0.0347        205 1.426143e-10
 3.50    609.8008  49.6702 2.248616e-09    945.3684  32.66     0.728     0.644   0.0494        206 1.021972e-10
 3.50   1565.7418  47.3868 1.841988e-08    784.6863 -85.43     1.877     1.513   0.0144        207 2.447797e-10
 3.50    588.3376  50.6952 8.748074e-10   1139.6580  44.82     0.583     0.330   0.0713        208 5.742987e-11
 3.50   1566.7234  46.9677 2.709578e-08     22.0761 -40.04     1.579     1.562   0.0092        209 2.285199e-10
 3.50   1581.1973  50.0971 1.517668e-09   1414.4004  71.16     0.758     0.448   0.0581        210  8.12181e-11
 3.50   1558.0277  43.3800  7.37923e-07    487.6973 -66.89     2.184     2.116   0.0005        211 3.136814e-10
 3.50   1570.5460  47.2199 2.148093e-08     92.7300 -27.05     1.521     1.483   0.0110        212  2.17426e-10
 3.50   1542.6283  46.8005 3.160724e-08    654.7249  20.88     1.617     1.590   0.0079        213 2.309128e-10
 3.50   1561.3159  47.7333 1.338655e-08    861.4484  36.69     1.389     1.324   0.0160        214 1.975565e-10
 3.50   1541.8843  46.4378 4.414571e-08    135.1378  49.83     1.693     1.653   0.0059        215 2.413877e-10
 3.50   1550.7400  48.8284 4.882525e-09   1221.9857   3.70     1.073     1.044   0.0334        216 1.501254e-10
 3.50   1552.6075  44.2186 3.408482e-07    682.2737 -26.27     4.649     3.987   0.0020        217  6.26047e-10
 3.50   1532.5078  48.6911 5.540539e-09    415.7805   2.59     1.229     1.038   0.0328        218 1.674354e-10
 3.50   1546.0547  47.8024 1.256112e-08    863.5092  81.19     1.611     1.426   0.0191        219 2.211858e-10
 3.50    950.8601  48.0545  9.95883e-09    654.3577  71.42     1.560     1.346   0.0233        220    2.136e-10
 3.50   1535.6664  49.0227 4.082321e-09   1429.0676 -47.30     1.484     0.706   0.0390        221  1.46418e-10
 3.50   1528.6656  50.7740 8.135432e-10    733.3220  45.57     0.573     0.336   0.0767        222 5.742987e-11
 3.50   1522.6737  50.7769 8.114096e-10     14.3247  45.07     0.571     0.337   0.0769        223 5.742987e-11
 3.50   1498.4742  49.2303 3.371935e-09    844.4728 -44.54     0.909     0.902   0.0427        224 1.326286e-10
 3.50   1514.9272  45.5262 1.022153e-07    392.7084 -16.33     1.844     1.815   0.0028        225 2.673215e-10
 3.50   1507.2125  44.0373 4.027893e-07    269.3799 -52.59     2.106     2.065   0.0008        226  3.02076e-10
 3.50    947.7758  48.9773 4.256915e-09    445.3983  -8.59     0.983     0.947   0.0359        227 1.406739e-10
 3.50   1520.0922  49.4784 2.683151e-09   1100.8374  48.52     0.846     0.672   0.0445        228 1.099698e-10
 3.50    978.3757  48.8628 4.730221e-09    452.6606  48.37     1.057     0.956   0.0336        229  1.46418e-10
 3.50    965.0528  48.8232 4.906034e-09    416.4830  89.23     1.093     0.961   0.0320        230 1.445287e-10
 3.50   1482.4033  48.5145 6.519373e-09    575.0881 -45.33     1.528     1.003   0.0300        231 1.800894e-10
 3.50   1488.3083  49.4435 2.770844e-09     78.1086 -68.76     0.920     0.687   0.0450        232 1.148597e-10
 3.50   1504.2251  48.0381 1.011055e-08    723.3941 -13.99     1.332     1.262   0.0201        233 1.875652e-10
 3.50   1129.1748  48.3081 7.884463e-09    547.2965  24.49     1.238     1.141   0.0233        234  1.69069e-10
 3.50   1474.9358  48.9727 4.274929e-09    998.8033  -6.89     1.303     0.772   0.0367        235 1.445287e-10
 3.50   1066.6798  49.1955 3.481821e-09    569.0623 -72.68     1.026     0.751   0.0401        236 1.284171e-10
 3.50   1072.1155  46.9279 2.810884e-08   1219.0535 -73.85     2.162     1.834   0.0114        237 2.937731e-10
 3.50    982.2637  49.6996 2.188477e-09   1486.9866  -0.92     0.732     0.683   0.0507        238 1.021972e-10
 3.50   1065.6910  48.8111 4.960917e-09   1597.2566  13.37     1.091     0.968   0.0329        239 1.501254e-10
 3.50   1432.3461  48.7163 5.413515e-09    340.8521  16.57     1.246     0.977   0.0322        240 1.607353e-10
 3.50   1090.9934  48.2301 8.471109e-09    468.1367 -58.29     1.858     1.092   0.0262        241 2.043944e-10
 3.50   1096.9526  46.6425 3.655974e-08    782.3455  83.00     4.799     1.693   0.0374        242 1.259878e-09
 3.50   1415.3912  47.2725 2.046476e-08   1386.6116  70.94     1.502     1.398   0.0113        243 2.123094e-10
 3.50   1453.4999  50.0555 1.576851e-09    391.5071  45.57     0.501     0.499   0.0559        244  8.12181e-11
 3.50   1107.4945  45.6691 8.960838e-08    428.0595  80.62     1.848     1.822   0.0032        245 2.652572e-10
 3.50   1081.7887  45.3130 1.243941e-07   1148.2483 -82.03     1.894     1.842   0.0024        246 2.724138e-10
 3.50   1440.6130  46.1781 5.607509e-08   1089.6226  13.79     5.625     2.260   0.0345        247 1.783293e-09
 3.50   1438.6708  50.8075 7.888547e-10    647.3237  45.26     0.571     0.337   0.0791        248 5.742987e-11
 3.50   1110.8153  47.5072 1.648594e-08    479.0326   2.54     1.958     1.591   0.0168        249 2.546849e-10
 3.50   1439.7878  46.7406 3.340168e-08    619.2303 -79.54     1.595     1.587   0.0075        250 2.321001e-10
 3.50   1120.3093  46.8342 3.064229e-08    329.8856  56.89     2.503     1.707   0.0106        251  2.99334e-10
 3.50   1411.2059  48.1652 8.993579e-09    349.9285  51.94     1.468     1.213   0.0237        252 1.961604e-10
 3.50   1406.4260  48.5100  6.54662e-09    329.8638  20.66     1.199     1.071   0.0275        253 1.657858e-10
 3.50   1436.1415  49.5528 2.505384e-09   1347.1501 -46.78     0.822     0.676   0.0466        254 1.074414e-10
 3.50   1438.6510  48.8696 4.700804e-09   1271.3347  43.95     1.044     0.951   0.0338        255  1.46418e-10
 3.50   1130.1749  48.3450 7.621031e-09    219.7347 -15.28     1.289     1.146   0.0248        256 1.738776e-10
 3.50   1435.3020  46.3990 4.575106e-08    224.8024  -2.76     1.679     1.663   0.0058        257    2.459e-10
 3.50   1393.4249  43.0378 1.011268e-06    114.5201 -64.43     2.231     2.166   0.0003        258  3.19756e-10
 3.50   1408.2236  46.8097 3.134245e-08    308.3997 -28.23     1.612     1.599   0.0081        259 2.344565e-10
 3.50   1138.5443  44.0637 3.931216e-07    148.1206 -77.05     2.089     2.061   0.0008        260 3.002508e-10
 3.50   1400.5944  47.9022 1.145794e-08   1031.5181  61.48     1.463     1.377   0.0198        261 2.083895e-10
 3.50   1390.4530  46.7600 3.281009e-08    713.3170  74.46     1.612     1.594   0.0078        262 2.344565e-10
 3.50   1412.4319  49.3959 2.894903e-09      1.3827  89.77     1.447     0.486   0.0431        263 1.148597e-10
 3.50   1404.0016  50.7083 8.643198e-10   1363.0000  90.00     0.843     0.289   0.0779        264 6.203135e-11
 3.50   1330.4415  48.6643 5.679322e-09    386.8844  15.99     1.163     0.954   0.0284        265 1.482833e-10
 3.50   1262.1577  49.8436 1.916693e-09    216.1588  46.70     0.756     0.572   0.0564        266 9.947145e-11
 3.50   1259.3923  47.3756 1.860972e-08    432.6059 -24.83     1.907     1.843   0.0159        267 2.724138e-10
 3.50   1210.6951  44.7563 2.077127e-07   1279.0507  82.21     5.774     3.480   0.0034        268 6.535408e-10
 3.50   1388.7703  48.9690 4.289458e-09    806.5641   4.52     0.989     0.947   0.0356        269 1.406739e-10
 3.50   1392.2461  47.1637  2.26215e-08   1038.8998  78.82     1.495     1.474   0.0104        270 2.161582e-10
 3.50   1379.2985  49.6770 2.234525e-09    319.0005  -1.52     0.738     0.674   0.0497        271 1.021972e-10
 3.50   1388.7202  45.6157  9.41268e-08   1428.5387  35.03     1.801     1.782   0.0030        272 2.589656e-10
 3.50   1218.9030  45.3219 1.233814e-07   1195.0046  55.41     2.043     1.963   0.0025        273 2.881049e-10
 3.50   1278.0699  46.2210 5.390189e-08   1331.4550 -30.76     1.722     1.689   0.0050        274    2.459e-10
 3.50   1352.5813  48.8493 4.789564e-09    152.3815  48.14     1.104     0.986   0.0349        275 1.537434e-10
 3.50   1229.7469  48.0582 9.925117e-09    599.0538 -10.34     1.501     1.338   0.0227        276 2.070663e-10
 3.50   1372.5348  45.4112 1.136374e-07   1019.0459 -45.86     1.951     1.842   0.0027        277 2.774126e-10
 3.50   1277.6832  50.7742 8.134347e-10    343.6736 -44.52     0.567     0.339   0.0767        278 5.742987e-11
 3.50   1320.0629  44.0563 3.958164e-07    660.0339 -57.64     2.100     2.061   0.0016        279 5.729361e-10
 3.50   1291.7101  49.6839 2.220343e-09    546.0173  -4.72     0.736     0.682   0.0500        280 1.021972e-10
 3.50   1346.3475  49.2312 3.369111e-09    604.9486 -74.35     1.039     0.750   0.0414        281 1.284171e-10
 3.50   1332.8529  47.9443 1.102295e-08    107.4942  -4.90     1.303     1.257   0.0180        282 1.831164e-10
 3.50   1329.7792  46.3952 4.590977e-08    655.9270  -7.20     1.841     1.739   0.0125        283 5.290469e-10
 3.50   1319.3103  48.2730 8.143188e-09    264.0740 -85.46     1.234     1.194   0.0238        284 1.785567e-10
 3.50   1304.7229  48.0752  9.77064e-09    892.9640 -68.10     1.337     1.171   0.0204        285 1.831164e-10
 3.50   1307.5302  46.6669 3.574756e-08    669.7212 -29.14     1.626     1.576   0.0071        286 2.321001e-10
 3.50   1298.3651  42.1208 2.353325e-06    725.0308 -21.56     2.733     2.317   0.0002        287 3.647287e-10
 3.50   1272.7848  44.8898 1.836831e-07    610.0167 -58.07     4.203     2.569   0.0028        288 4.764718e-10
 3.50   1299.3424  49.2415 3.337304e-09     54.0705  76.08     1.002     0.756   0.0411        289 1.262587e-10
 3.50   1292.8123  47.8417 1.211458e-08    412.7213 -34.23     1.351     1.317   0.0172        290 1.919109e-10
 3.50   1265.4395  46.4830 4.234348e-08    807.9304 -46.83     1.678     1.627   0.0062        291 2.402464e-10
 3.50   1291.3861  45.6362 9.236453e-08    762.2468 -24.25     2.295     1.837   0.0035        292 2.974919e-10
 3.50   1262.3180  49.1125 3.758485e-09    855.3126  45.50     1.001     0.874   0.0389        293  1.34685e-10
 3.50   1228.5916  48.8401 4.830035e-09   1153.8062  18.41     1.046     0.950   0.0316        294 1.406739e-10
 3.50   1273.7571  49.3370 3.056303e-09    697.9984  88.96     0.930     0.758   0.0433        295 1.218271e-10
 3.50   1212.6770  47.2755 2.040755e-08   1429.4877  62.96     2.226     1.813   0.0155        296  2.91896e-10
 3.50   1237.0571  47.2707 2.049831e-08   1553.5908 -17.78     1.512     1.455   0.0112        297 2.123094e-10
 3.50   1237.6462  48.7467 5.263851e-09     48.2646  12.71     1.081     0.977   0.0313        298 1.519452e-10
 3.50   1234.4331  46.6892 3.501985e-08    304.8894  -8.19     1.659     1.572   0.0072        299 2.321001e-10
 3.50   1237.9984  49.9425 1.749774e-09    857.4980 -89.93     0.794     0.500   0.0582        300 9.378259e-11
 3.50   1207.5885  47.2624 2.065656e-08    838.9413 -85.09     1.508     1.459   0.0112        301 2.123094e-10
 3.50   1214.6283  44.8671 1.875598e-07    513.0677 -47.67     1.955     1.926   0.0016        302  2.82323e-10
 3.50   1200.8799  47.6884 1.395156e-08   1442.2610  68.72     1.645     1.508   0.0177        303  2.27314e-10
 3.50   1204.0409  49.8144 1.968888e-09   1217.4832  88.90     0.785     0.500   0.0517        304 9.378259e-11
 3.50   1195.0293  47.1358 2.321022e-08    124.1516 -82.02     1.984     1.752   0.0126        305   2.6937e-10
 3.50   1201.9038  47.2732 2.045178e-08    339.0985  38.42     1.530     1.456   0.0115        306  2.17426e-10
 3.50   1151.2582  47.4381 1.756947e-08     99.4489  -4.38     1.502     1.404   0.0130        307 2.110108e-10
 3.50   1176.6879  50.7991 7.950064e-10   1598.6704 -44.13     0.566     0.339   0.0785        308 5.742987e-11
 3.50   1181.8185  49.0520  3.97385e-09    176.3096  55.45     0.992     0.916   0.0368        309  1.34685e-10
 3.50   1181.0238  48.4594 6.858865e-09    549.3489  38.46     1.250     1.112   0.0270        310 1.706869e-10
 3.50   1153.5360  47.8198 1.236168e-08   1353.1355  12.80     1.523     1.468   0.0190        311 2.161582e-10
 3.50   1165.1516  43.5636 6.230932e-07   1299.8153 -67.52     2.185     2.128   0.0005        312 3.154289e-10
 3.50   1129.9989  44.7552  2.07937e-07    183.5905 -25.89     1.970     1.940   0.0015        313 2.852286e-10
 3.50   1161.8337  48.3228 7.778545e-09    887.8386  46.50     1.194     1.137   0.0236        314  1.69069e-10
 3.50   1167.1832  50.1874 1.396495e-09   1599.6096 -71.68     0.763     0.448   0.0577        315 7.414164e-11
 3.50   1157.8784  45.8691 7.453654e-08    236.4844  83.32     1.777     1.770   0.0038        316 2.600248e-10
 3.50   1131.0247  49.3614 2.988324e-09    359.2108   0.94     0.915     0.751   0.0434        317 1.195498e-10
 3.50   1086.3342  49.3530 3.011545e-09   1452.8779  69.54     0.935     0.690   0.0423        318 1.172282e-10
 3.50   1095.4419  47.9057 1.142188e-08   1526.6189  61.44     1.353     1.297   0.0182        319 1.919109e-10
 3.50   1079.9866  43.9979 4.176729e-07    512.1804 -62.45     2.114     2.080   0.0008        320 3.092693e-10
 3.50   1088.1781  49.7574 2.075133e-09    397.1693  46.82     0.765     0.571   0.0521        321 9.947145e-11
 3.50   1094.5323  49.1477 3.638505e-09   1136.4355  22.11     0.910     0.904   0.0396        322 1.326286e-10
 3.50    986.7169  47.5380 1.602531e-08    454.0857  64.37     1.736     1.543   0.0164        323 2.413877e-10
 3.50   1079.4354  48.6210 5.910275e-09    330.1952   2.37     1.171     0.992   0.0283        324 1.537434e-10
 3.50   1065.2772  47.6447 1.452454e-08   1563.1172 -67.12     2.052     1.437   0.0187        325  2.50331e-10
 3.50    998.1255  49.5096 2.607077e-09    233.3606 -21.16     0.892     0.691   0.0478        326 1.148597e-10
 3.50   1019.3249  50.6790 8.879529e-10   1154.6829  45.39     0.567     0.339   0.0702        327 5.742987e-11
 3.50    980.8235  47.8022 1.256316e-08    798.0411 -38.88     1.577     1.440   0.0191        328 2.211858e-10
 3.50   1040.5111  50.1722 1.416171e-09    467.4685  63.40     0.500     0.499   0.0623        329  8.12181e-11
 3.50   1040.2716  43.7254 5.368342e-07    633.1233 -69.60     2.153     2.100   0.0006        330 3.101567e-10
 3.50   1038.7004  45.4415 1.105046e-07    525.4697 -64.42     1.874     1.825   0.0026        331 2.673215e-10
 3.50    984.9083  44.1269 3.708755e-07    558.5106 -54.65     2.077     2.024   0.0009        332 2.984143e-10
 3.50   1030.4343  47.0698 2.466587e-08    302.7755  65.82     2.556     1.766   0.0135        333 3.065916e-10
 3.50   1009.7958  44.7215 2.144917e-07    813.7560 -28.32     1.992     1.972   0.0015        334 2.881049e-10
 3.50    999.9160  47.9542 1.092198e-08   1273.7262 -59.93     1.353     1.254   0.0188        335 1.890248e-10
 3.50   1025.6940  44.5693 2.467652e-07   1380.0282 -80.11     2.109     1.997   0.0013        336 2.965666e-10
 3.50   1014.6910  49.7567 2.076376e-09    453.0287  -3.34     0.736     0.683   0.0535        337 1.021972e-10
 3.50   1011.3735  46.7880 3.197534e-08    344.7769 -12.32     1.637     1.571   0.0079        338 2.321001e-10
 3.50   1001.4946  47.6462 1.450549e-08   1555.4277  47.87     1.388     1.317   0.0148        339 1.975565e-10
 3.50   1001.6960  46.6997 3.468354e-08    542.7075  24.73     1.660     1.593   0.0074        340 2.356258e-10
