#   1 KRON_RADIUS            Kron apertures in units of A or B                         
#   2 Y_IMAGE                Object position along y                                    [pixel]
#   3 MAG_BEST               Best of MAG_AUTO and MAG_ISOCOR                            [mag]
#   4 FLUX_BEST              Best of FLUX_AUTO and FLUX_ISOCOR                          [count]
#   5 X_IMAGE                Object position along x                                    [pixel]
#   6 THETA_IMAGE            Position angle (CCW/x)                                     [deg]
#   7 A_IMAGE                Profile RMS along major axis                               [pixel]
#   8 B_IMAGE                Profile RMS along minor axis                               [pixel]
#   9 MAGERR_BEST            RMS error for MAG_BEST                                     [mag]
#  10 NUMBER                 Running object number                                     
#  11 FLUXERR_BEST           RMS error for BEST flux                                    [count]
 3.50      6.7833  16.3124     49547.45    753.4195 -26.31     1.693     1.620   0.0013          1     59.53492
 3.50     32.0168  18.4115     7167.811    450.2256  86.65     1.260     1.155   0.0066          2     43.27259
 7.42     94.5299  17.1722     22444.06   1126.0465 -61.25     3.501     1.728   0.0090          3     186.6606
 8.02     67.8408  18.9594      4327.36   1463.0812 -33.83     1.259     0.872   0.0217          4     86.54517
 3.81     94.1452  16.6835     35205.35    917.4310  14.88     1.585     1.534   0.0019          5     60.37152
 4.50     93.6758  19.1996     3468.583    347.4099  46.39     1.140     1.015   0.0159          6     50.74161
 5.09    105.6125  19.5160     2591.799     47.7606 -12.90     1.107     0.945   0.0223          7     53.31241
 6.29    125.2587  19.5298     2559.172    301.4771  41.24     1.148     0.796   0.0260          8     61.19668
 0.00    124.6718  99.0000    -7.918701    357.6577 -44.41     0.579     0.332  99.0000          9     30.04697
 4.09    150.3836  17.5076     16480.49     46.1507  65.34     1.635     1.429   0.0042         10     63.60797
 7.57    158.5237  18.7544     5226.726     50.8306  18.38     1.181     1.093   0.0183         11     88.07706
 7.31    172.0959  19.2727     3242.814    556.8343  72.46     1.420     0.587   0.0227         12      67.9295
 3.80    184.3493  18.2630     8218.351    378.5194 -34.85     1.375     1.236   0.0068         13     51.39637
 6.48    182.9585  18.9166      4501.51   1263.3208  14.54     1.401     1.073   0.0196         14     81.36759
 3.50    211.2733  14.0571     395524.6    967.4832 -69.18     1.866     1.833   0.0002         15     65.93113
 5.44    192.6844  24.5388      25.3783    838.6912 -45.38     0.559     0.342   1.0786         16     25.20552
 6.27    205.2547  18.9424     4395.624     21.8521  59.72     1.337     1.165   0.0197         17     79.70686
 6.37    203.8773  19.3162     3115.372    986.0157  -0.32     1.075     0.834   0.0214         18     61.46927
 3.50    200.5236  20.9585     686.4642    185.5447 -71.37     0.500     0.498   0.0317         19     20.03132
 3.50    236.1223  14.6248     234473.1   1389.8429 -39.31     1.833     1.777   0.0003         20     64.90888
 3.59    223.8233  17.5110     16428.86   1093.4978 -34.27     1.495     1.464   0.0036         21     53.93597
 6.28    216.7570  21.0632     623.3086   1197.7780  72.53     0.841     0.346   0.0613         22     35.17384
 7.59    225.2516  17.9885     10583.23    975.8773  34.29     1.765     1.157   0.0114         23     110.9284
 5.97    216.5507  20.3346      1219.45   1020.3140   9.96     1.056     0.470   0.0385         24     43.27259
 6.91    217.5131  23.3317     77.14551   1562.4775  46.05     0.504     0.495   0.4605         25       32.711
 4.80    225.0000  24.1049     37.84729    860.9987   0.00     0.861     0.289   0.7233         26     25.20552
 4.91    235.9795  20.3413     1211.912    837.2560  88.88     0.678     0.436   0.0243         27     27.12253
 4.28    241.9200  18.8186      4926.82    566.7307  26.17     1.232     1.101   0.0110         28     50.07829
 4.84    246.7146  19.0794      3874.61    577.7823  -1.83     1.243     0.938   0.0149         29     53.31241
 4.08    257.7660  17.9758      10707.2   1426.8837  -6.92     1.391     1.253   0.0056         30     54.85802
 6.75    269.4035  19.4682      2708.48    140.1496  52.59     1.628     0.415   0.0228         31     56.95144
 4.58    277.9707  19.6631     2263.313   1129.1667 -87.78     1.246     0.759   0.0220         32     45.89751
 6.09    284.9347  17.7436     13260.11   1328.3116 -42.84     1.663     1.477   0.0080         33     97.62056
 6.03    280.2587  19.4309     2803.169    955.4565 -53.81     1.023     0.798   0.0215         34      55.4642
 6.90    285.3190  19.8786     1855.945    744.0028   9.08     0.730     0.652   0.0283         35     48.38022
 6.04    312.6142  18.8386     4836.801    792.7368  -8.48     1.104     0.991   0.0146         36     65.16595
 4.48    331.6496  18.4167     7134.039    789.4247  -1.93     1.296     1.194   0.0086         37     56.65712
 3.67    337.3596  17.3736      18644.4    596.4562 -52.84     1.529     1.487   0.0032         38     55.76482
 3.50    372.8106  14.5239     257303.3   1263.0996  51.75     1.814     1.786   0.0003         39       65.422
 5.42    359.9631  19.2421     3335.599    709.0217 -60.39     1.220     0.868   0.0187         40     57.53558
 5.23    362.7189  20.0371     1603.899    504.8946  20.82     0.716     0.677   0.0251         41     37.02634
 4.36    374.2651  18.3420     7642.208   1364.6586  -2.92     1.905     1.283   0.0098         42     69.14915
 7.38    371.2976  27.8127     1.244263    469.3978 -41.33     0.586     0.324  27.6438         43     31.67229
 5.01    388.0258  18.7729     5138.717   1463.8275  77.41     1.123     1.099   0.0121         44     57.24426
 3.95    391.6115  19.8313     1938.579   1318.2032 -75.10     0.974     0.844   0.0210         45     37.47516
 5.02    399.9806  18.7804     5103.132    825.2182 -61.04     1.582     1.146   0.0149         46      70.1096
 3.50    415.9862  17.2302     21276.68   1308.2938  23.66     1.516     1.425   0.0027         47     52.68147
 3.50    413.0386  17.5754     15482.48     67.7270  -3.32     1.569     1.337   0.0036         48     51.72063
 3.50    457.3289  15.8339      76988.5     12.9412  -7.96     1.701     1.582   0.0008         49     58.11383
 6.87    451.0990  18.3522     7570.329   1221.0300  71.70     1.343     1.036   0.0120         50     83.39702
 3.50    465.0982  16.5065     41436.33   1075.2172 -80.28     1.645     1.546   0.0015         51     56.95144
 7.01    461.7713  20.1878     1395.917    276.7593  17.23     0.858     0.350   0.0305         52     39.21911
 3.76    487.6075  18.3856     7340.902    574.5292  73.91     1.267     1.190   0.0070         53     47.33215
 3.94    504.3406  18.3756     7409.123   1142.3790  15.74     1.277     1.171   0.0072         54     49.40607
 3.50    498.6908  25.2239     13.50269    626.3044  45.28     0.554     0.344   1.1392         55     14.16428
 8.30    509.6959  20.5414     1007.985    999.3185  44.19     0.558     0.343   0.0404         56     37.47516
 6.56    535.8053  18.7388     5302.526    353.8041 -26.05     1.334     1.153   0.0172         57     83.99628
 3.87    546.8795  17.5583     15727.83    374.2849  16.25     1.446     1.339   0.0038         58     54.85802
 8.24    540.3218  20.4635     1082.928    674.3281 -44.70     0.570     0.337   0.0376         59     37.47516
 4.03    556.1749  17.5320     16113.21   1456.4642 -66.60     1.402     1.392   0.0039         60     58.11383
 3.66    560.6160  16.9488     27572.05    583.1944  -2.44     1.676     1.468   0.0023         61     58.11383
 3.50    565.6235  17.2442     21005.29    956.4192  86.61     1.451     1.440   0.0027         62     52.04288
 3.50    572.0057  17.2795     20332.97   1028.6418   6.28     1.523     1.419   0.0027         63     51.07003
 6.55    578.5235  19.7013     2185.185   1366.3136  41.35     1.239     0.645   0.0297         64     59.81509
 6.26   1010.3064  21.0063     656.8705    374.6631  43.49     0.567     0.339   0.0478         65     28.91271
 7.92   1574.3383  26.5274     4.064819   1374.2750 -48.75     0.553     0.343   9.6481         66     36.11197
 3.50    849.2397  16.4678        42942    215.1507 -35.43     1.576     1.543   0.0014         67     56.36126
 3.50    838.9365  14.3651     297814.9    275.7407  12.96     1.854     1.814   0.0002         68     65.93113
 5.02    804.9051  24.7906     20.12634   1082.0669 -46.54     0.833     0.527   1.8721         69     34.69526
 3.53    786.1812  17.1393     23135.34    527.8295   6.34     1.471     1.427   0.0025         70     52.68147
 3.50    775.8160  15.1189     148745.1    728.0626  -9.56     1.744     1.684   0.0004         71     61.46927
 7.07    779.6011  20.0880     1530.444    993.2560 -17.31     0.715     0.462   0.0293         72     41.29562
 3.50    770.0457  16.4931     41951.04    369.6897   1.33     1.599     1.516   0.0015         73     56.06383
 7.65    721.8531  16.1759     56188.89    199.0433  75.96     2.871     2.045   0.0037         74     190.0338
 4.23    708.5518  19.1504     3629.557   1354.6356  66.38     1.128     0.938   0.0134         75     44.79139
 4.59    701.5817  19.6226     2349.312   1040.1263 -76.81     0.999     0.737   0.0189         76     40.88875
 3.93    697.5711  18.3034     7918.758     97.0785  28.15     1.454     1.222   0.0074         77     54.24506
 3.50    663.3879  14.0658     392343.4   1486.9547   9.77     1.838     1.819   0.0002         78     65.67706
 4.01    667.5025  18.0525     9976.811   1090.4330  32.70     1.378     1.265   0.0058         79     53.31241
 4.55    653.2896  19.1951     3483.032    312.6598  48.80     1.221     0.914   0.0155         80     49.74331
 5.20    651.9135  19.3668     2973.595     16.6718  60.98     1.201     0.847   0.0198         81     54.24506
 0.00    641.6756  99.0000    -17.36121    211.3024  46.20     0.560     0.342  99.0000         82      16.3555
 5.63    634.6196  18.5315     6418.003    871.5801 -59.79     1.504     1.136   0.0128         83     75.83734
 7.01    611.2307  19.4074     2864.408    572.0879  65.10     0.972     0.774   0.0235         84     62.01086
 7.53    611.0481  19.2751      3235.54    590.2112  -5.04     0.933     0.751   0.0217         85     64.65079
 7.31    601.3771  19.9948     1667.528   1580.3748   7.31     1.020     0.633   0.0393         86     60.37152
 8.15   1580.3208  20.0872     1531.548    831.3478 -43.85     0.578     0.333   0.0266         87     37.47516
 4.31   1566.1853  18.6934     5528.665     19.7813  -0.54     1.283     1.104   0.0103         88     52.36315
 5.97   1558.3076  18.3151     7833.659   1362.1667  63.44     1.218     1.134   0.0100         89     71.99208
 3.50    861.1357  14.0764     388560.5   1395.7646 -56.72     1.942     1.924   0.0002         90     68.90695
 3.50    873.0208  19.1075     3775.572    448.2745 -57.95     1.157     0.986   0.0109         91     37.91867
 6.92   1529.4631  24.1465     36.42505   1221.4849  41.20     0.503     0.495   0.9753         92       32.711
 3.50    874.2851  19.3495     3021.393     39.7706  45.02     0.911     0.731   0.0110         93     30.59834
 4.73   1533.4241  18.1970     8733.636    875.5878 -34.95     1.433     1.359   0.0084         94     67.43546
 3.50   1509.1296  15.8863     73363.69   1282.0568  28.22     1.736     1.614   0.0009         95     59.25343
 4.16    878.1899  17.7878     12731.65   1341.2797 -81.45     1.308     1.265   0.0047         96     54.85802
 3.50   1460.5002  16.6688      35685.5    251.2835   5.61     1.654     1.493   0.0017         97     56.36126
 4.55   1486.6885  24.8523     19.01477    719.2939  46.09     0.550     0.346   1.1441         98     20.03132
 3.50   1414.7927  16.6849     35158.84    953.8018  16.79     1.588     1.463   0.0017         99     54.85802
 3.50   1464.8256  15.6941     87573.97    533.8793   8.77     1.726     1.631   0.0007        100     60.37152
 0.00   1438.3132  99.0000     -8.82312    478.3628 -42.98     0.581     0.330  99.0000        101     24.53325
 5.59   1418.5559  19.2495      3312.74   1050.3850   9.61     1.122     0.961   0.0193        102      58.9706
 4.76   1397.2233  18.2767      8115.32    899.5108  86.80     1.274     1.107   0.0077        103     57.53558
 3.50    879.0897  15.1939     138820.4    166.0865  41.27     1.744     1.670   0.0005        104     61.19668
 3.50    918.1933  16.0750     61657.43    620.4602 -10.14     1.669     1.561   0.0010        105      58.6864
 6.55    922.6434  20.8357     768.6471    508.3062  47.22     0.575     0.334   0.0425        106     30.04697
 3.50   1383.8290  16.0295     64301.07    907.5646 -29.03     1.679     1.625   0.0010        107     59.25343
 3.71   1227.7982  17.1917     22045.07   1333.7915 -23.30     1.488     1.402   0.0027        108     55.16194
 3.50    941.8470  16.6670     35742.83    690.0891 -31.36     1.585     1.524   0.0017        109     56.65712
 4.04    935.6761  18.9052     4549.002    841.9122 -69.53     1.312     1.290   0.0128        110      53.6251
 3.54   1365.7184  17.3632      18823.8   1439.2535  28.65     1.470     1.353   0.0030        111     51.72063
 3.50   1228.1296  19.1304     3696.889    319.4973  63.77     1.038     0.938   0.0103        112     35.17384
 3.50   1306.8788  18.9132     4515.809    133.7601 -10.61     1.269     1.098   0.0101        113     42.09755
 0.00   1327.5264  99.0000    -23.46008    458.5125  43.70     0.505     0.494  99.0000        114     20.03132
 3.50   1310.4937  15.4181     112913.4    923.8976   5.28     1.759     1.659   0.0006        115     61.74066
 7.57   1274.4218  19.8379     1926.743    570.1992  20.91     0.731     0.449   0.0255        116     45.16311
 3.50   1243.2957  15.9312     70388.95    570.4771   9.31     1.672     1.605   0.0009        117      58.9706
 4.70   1261.3463  24.3285     30.80334    470.3010 -47.19     0.568     0.337   0.7062        118     20.03132
 5.46   1276.7207  19.1045     3786.031    260.7224  42.87     1.013     0.864   0.0150        119     52.36315
 5.93   1267.5327  25.0881     15.30286   1562.4994 -42.84     0.507     0.492   2.2477        120     31.67229
 3.82   1247.6710  18.0063     10410.38     37.7784 -52.31     1.430     1.332   0.0056        121     53.31241
 5.63   1250.2047  18.9729     4273.962    492.4627  10.30     0.966     0.929   0.0137        122     53.93597
 6.24   1026.8057  18.5764     6157.808    607.6187 -18.49     1.433     0.855   0.0124        123     70.34767
 4.21   1236.0446  18.1959      8742.27    384.5432 -13.80     1.431     1.158   0.0068        124     54.85802
 7.43   1240.2915  19.5158     2592.331    865.0969  29.76     1.030     0.649   0.0259        125     61.74066
 3.50   1005.1924  19.5252     2569.871   1353.6735 -21.24     1.020     0.834   0.0142        126     33.71773
 3.50   1212.9338  14.9988     166137.7   1194.9965  44.05     1.804     1.776   0.0004        127     63.87027
 3.50   1237.0681  18.8984      4577.81   1246.3134 -29.54     1.381     1.191   0.0111        128     46.62035
 5.60   1041.7002  18.7741     5132.824    424.0800  32.55     1.245     0.990   0.0135        129     63.87027
 4.72    994.4263  18.1915     8778.089    145.0579 -12.80     1.464     1.253   0.0081        130     65.67706
 4.51   1020.4490  18.8117     4958.173    106.6252   5.18     1.232     0.958   0.0108        131     49.40607
 3.50   1000.2596  17.1044     23890.91    998.0823  45.51     1.490     1.421   0.0024        132     51.72063
 6.29   1039.7605  20.1071      1503.71     23.4234 -72.32     0.740     0.462   0.0271        133     37.47516
 5.97   1039.4113  19.6581     2273.895   1084.2495  -6.75     0.992     0.481   0.0207        134     43.27259
 7.23   1036.2368  20.1802     1405.808    208.0035  -0.16     0.690     0.425   0.0309        135     40.06263
 3.68   1192.5526  17.3959     18266.06   1031.3252 -22.69     1.501     1.366   0.0032        136     53.93597
 5.54   1178.3993  18.9049     4550.161      6.1971  20.57     1.178     0.869   0.0137        137     57.24426
 8.66   1045.3119  19.7178     2152.277   1382.3235 -44.40     0.564     0.340   0.0198        138     39.21911
 0.00   1170.3538  99.0000    -6.074463    839.3178 -46.50     0.579     0.332  99.0000        139     14.16428
 3.61   1153.1121  18.7026     5482.228    195.4326  50.02     1.116     0.999   0.0077        140     38.79048
 3.50   1089.1863  18.4672     6809.619    792.4478   6.83     1.352     1.074   0.0069        141     43.27259
 8.62   1124.4893  19.5494      2513.18     68.4893  44.98     0.502     0.498   0.0187        142     43.27259
 3.50   1129.4515  16.8916     29065.31    620.8256  15.83     1.581     1.485   0.0020        143     54.85802
 5.30   1109.7222  19.1766      3542.92   1267.4922  39.20     1.053     0.958   0.0166        144     54.24506
 6.27   1069.3116  20.5837     969.4097     62.6478  43.23     0.576     0.334   0.0330        145      29.4853
 6.97   1049.0215  19.9471     1742.387   1382.5255  58.33     0.809     0.309   0.0204        146       32.711
 3.50   1093.9700  18.1780     8887.923     16.2002   9.75     1.396     1.187   0.0056        147     45.89751
 4.11   1056.9001  18.3256     7758.409    239.6890  15.82     1.196     1.107   0.0070        148     49.74331
 5.90   1029.4553  19.6290     2335.578    766.3513 -70.12     0.929     0.814   0.0243        149     52.36315
