#   1 KRON_RADIUS            Kron apertures in units of A or B                         
#   2 MAGERR_APER            RMS error vector for fixed aperture mag.                   [mag]
#   3 Y_IMAGE                Object position along y                                    [pixel]
#   4 X_IMAGE                Object position along x                                    [pixel]
#   5 THETA_IMAGE            Position angle (CCW/x)                                     [deg]
#   6 FLUX_APER              Flux vector within fixed circular aperture(s)              [count]
#   7 A_IMAGE                Profile RMS along major axis                               [pixel]
#   8 B_IMAGE                Profile RMS along minor axis                               [pixel]
#   9 FLUXERR_APER           RMS error vector for aperture flux(es)                     [count]
#  10 MAG_APER               Fixed aperture magnitude vector                            [mag]
#  11 NUMBER                 Running object number                                     
 4.78   0.0071     53.0699     63.6729   5.60     34536.89     4.018     3.653     227.2549  16.7043          1
 4.70   0.0491     16.6790    984.9742 -88.37     5029.744     2.949     1.612     227.2549  18.7961          2
 4.64   0.0626     17.7365     91.2467  29.82     3944.896     1.585     1.564     227.2641  19.0599          3
 3.82   0.0260     14.6941   1445.5282 -33.47     9490.202     1.864     1.823     227.2919  18.1068          4
 6.96   1.1617     24.8550    367.3481  76.17     212.4628     1.077     0.413     227.2641  22.2318          5
 3.50   0.0055     59.7846   1078.2339  63.30     44604.89     2.318     2.255     227.3753  16.4265          6
 3.50   0.0058     80.1137    537.5026  22.50     42545.41     2.274     2.216     227.2549  16.4779          7
 5.72   0.1736     74.9609    127.8366  40.18     1422.003     1.269     1.228     227.3105  20.1677          8
 3.50   0.0039    121.7266    788.9883 -20.09     63703.41     2.362     2.343     227.3012  16.0396          9
 5.20   0.0990     96.3947     55.8314 -19.64     2493.388     1.351     1.259     227.3475  19.5580         10
 3.50   0.0069    162.3537   1468.0764 -48.36     35745.22     2.240     2.184     227.2456  16.6670         11
 3.52   0.0310    170.2823    877.1949 -21.19     7968.548     1.990     1.866     227.2549  18.2966         12
 6.63   0.2237    192.3161   1350.3054 -43.42     1103.167     0.961     0.761     227.2734  20.4434         13
 6.93   0.0574    210.5079    826.8788  -8.99     4297.939     2.129     1.474     227.2734  18.9668         14
 5.80   0.1639    206.2401    548.8522 -12.15     1506.387     1.228     1.170     227.3197  20.1052         15
 5.43   0.3114    212.1731   1305.9990  33.24      792.679     1.289     1.084     227.2919  20.8023         16
 4.31   0.1857    223.6748   1225.5410  21.48     1329.283     1.362     1.284     227.3012  20.2410         17
 3.50   0.0021    259.5799    997.2325 -12.05     119947.4     2.518     2.449     227.3568  15.3525         18
 7.55  99.0000    222.3089    774.6771  44.26    -169.6028     0.562     0.341     227.2827  99.0000         19
 7.86   0.0668    229.2374    561.4114  -5.38     3696.018     1.961     1.282     227.3753  19.1307         20
 3.50   0.0030    265.5658     67.4446   6.06      81578.8     2.440     2.402      227.329  15.7711         21
 7.61   0.1712    243.6204    112.7715  16.62     1442.424     0.964     0.645     227.3938  20.1523         22
 5.03   0.0762    255.0403    612.7062 -17.94     3238.872     2.020     1.618     227.2271  19.2740         23
 3.64   0.0132    287.4840   1486.1232 -68.22     18752.85     2.057     2.044     227.2734  17.3673         24
 4.47   0.0647    281.9365   1522.0270  12.36     3817.333     1.606     1.534     227.3105  19.0956         25
 3.71   0.0175    302.8096    201.5882 -10.72     14140.87     2.034     1.978      227.366  17.6738         26
 3.50   0.0292    321.7043    697.1205  -1.30     8444.459     1.978     1.790     227.2919  18.2336         27
 6.62   0.1516    327.1210    595.3193  77.23     1628.641     1.189     1.017     227.3012  20.0204         28
 7.82   0.2016    349.7188     54.6317 -19.52     1224.143     0.987     0.596     227.2364  20.3304         29
 3.87   0.0257    367.8108    760.9422 -23.13     9621.951     1.947     1.892      227.366  18.0918         30
 4.92   0.1716    360.8477   1500.0731  49.68      1438.48     1.286     1.166     227.2641  20.1552         31
 3.50   0.0053    394.8365    231.2965  41.77     46963.93     2.342     2.276       227.19  16.3706         32
 3.79   0.0405    396.8710   1460.8988  19.06     6094.934     1.856     1.733     227.2549  18.5876         33
 3.53   0.0354    397.8305    354.3654  44.79     6970.055     1.880     1.748     227.3753  18.4419         34
 5.31   0.2770    393.6917   1088.5494  89.56     891.0352     1.201     1.013     227.2919  20.6753         35
 3.55   0.0161    437.5111    251.9211  10.63     15317.24     2.046     2.000     227.3012  17.5870         36
 7.41   0.2412    420.7387    160.2448 -19.03     1023.215     0.875     0.354     227.2734  20.5251         37
 3.50   0.0018    460.6596    807.4059  -9.18       133642     2.536     2.442      227.329  15.2351         38
 5.14   0.2216    432.4911   1422.0449  46.46     1113.836     1.374     1.035     227.2827  20.4329         39
 4.26   0.0491    449.7294     21.2904 -30.48     5024.153     1.732     1.698     227.3012  18.7973         40
 7.70   0.5058    440.0000    306.0034   0.00     488.2792     0.851     0.289     227.3938  21.3283         41
 6.46   0.2252    444.0940    122.7514 -35.96     1095.893     1.097     0.521     227.2827  20.4506         42
 4.29   0.0441    457.3223     34.5136  41.73     5602.787     1.728     1.708     227.2919  18.6790         43
 6.42   0.0442    467.3464    850.1620  24.15     5588.415     4.168     1.533     227.3012  18.6818         44
 5.89   0.1474    463.3722    468.1685  79.67     1675.973     1.359     1.209     227.4215  19.9893         45
 4.92   0.1238    471.6060    735.0527 -58.35     1994.061     1.407     1.301      227.329  19.8007         46
 5.10   0.1756    470.9091    254.1991  49.03     1405.314     1.311     1.018     227.2271  20.1806         47
 5.03   0.0793    477.5140    922.9158  -6.96     3111.845     1.587     1.405     227.2734  19.3175         48
 6.20   0.3159    477.5089   1276.5143 -73.41     781.2078     1.022     0.733     227.2549  20.8181         49
 6.26   0.2298    483.7009   1070.2642  14.35     1074.232     1.125     0.991     227.2641  20.4723         50
 7.66   0.1412    495.1989     82.1738  72.36     1747.743     1.283     0.950     227.3105  19.9438         51
 8.53   0.1227    494.4341   1189.1519  78.86     2011.976     0.889     0.613     227.3105  19.7909         52
 6.31   0.4648    501.2008    863.6279 -73.08     531.0408     0.728     0.454     227.2919  21.2372         53
 5.17   0.0162    530.9677    518.7624  20.70      15278.4     3.402     1.962     227.3568  17.5898         54
 6.81   0.0894    514.9670   1460.7094  27.91     2761.092     2.253     1.208     227.2178  19.4473         55
 9.16   0.3280    513.5115   1178.5464 -51.68     752.4421     0.503     0.494     227.2641  20.8588         56
 4.60   0.1789    539.8800    999.7950  62.93     1379.282     1.209     1.168     227.2641  20.2009         57
 5.32   0.1099    558.6191   1041.6227 -49.67     2247.278     1.472     1.300      227.366  19.6709         58
 3.93   0.0267    580.0731    144.9285  70.03     9228.075     1.889     1.824     227.2364  18.1372         59
 4.08   0.0270    581.5791    319.2335  61.17     9129.867     1.924     1.874      227.366  18.1488         60
 6.84   0.1613    570.7509     45.9504  48.62     1529.785     1.416     1.002     227.2827  20.0884         61
 9.08   0.1482    570.5883   1447.2086 -20.05     1666.043     0.773     0.441     227.3753  19.9958         62
 6.18   0.0457    596.4893    782.4855  81.08     5403.724     2.181     1.972     227.2827  18.7183         63
 6.54   0.2170   1001.1887   1555.3247  19.94     1137.492     1.009     0.856     227.2641  20.4101         64
 3.50   0.0044   1557.4813    487.5983  82.38     56256.78     2.327     2.312     227.2734  16.1746         65
 6.03  99.0000   1560.4124    861.2794 -68.61    -185.2941     0.956     0.600     227.2456  99.0000         66
 4.66   0.1680   1542.0265    654.5806 -83.09     1469.392     1.466     1.245     227.3753  20.1322         67
 3.51   0.0078   1079.4902    512.2261  52.36     31672.96     2.272     2.250     227.2178  16.7983         68
 4.37   0.0284   1038.2451    525.3906  64.14     8689.858     1.940     1.862     227.3475  18.2025         69
 7.64   0.2227    999.8316   1273.8098  44.65     1108.517     0.774     0.572     227.3475  20.4381         70
 3.58   0.0087    984.3803    558.4131  38.19     28368.82     2.240     2.206      227.366  16.9179         71
 8.40   0.1403    986.5677    453.8015  -8.78     1759.634     1.032     0.475      227.329  19.9364         72
 5.08   0.1280    938.8494   1066.8739 -33.36     1928.894     1.335     1.210     227.2641  19.8367         73
 8.08   0.1866    928.0016   1322.3192 -89.59     1322.724     0.751     0.672     227.2734  20.2463         74
 7.49   0.5128    912.4890    838.6716 -89.47     481.3734     0.940     0.470     227.2827  21.3438         75
 3.90   0.0417    899.8823    302.7985  34.33     5914.237     1.806     1.751     227.2734  18.6203         76
 5.99   0.2035    896.3807    538.8925 -45.35     1212.706     1.258     0.848     227.2086  20.3406         77
 3.50   0.0022    880.0104   1592.4095  61.59       106844     2.500     2.434     213.4323  15.4781         78
 5.78   0.0963    869.0081   1103.1799 -33.97     2563.535     1.486     1.474     227.3475  19.5279         79
 7.24   0.2625    843.1048   1106.8746 -75.23     940.2112     0.977     0.710     227.2734  20.6169         80
 6.00   0.1761    836.2337    298.4426 -87.00     1402.193     1.213     1.019     227.3197  20.1830         81
 3.70   0.0425    822.4516    654.3922  62.20     5803.797     1.904     1.700      227.329  18.6407         82
 4.37   0.0464    802.7779   1378.5225 -60.86     5318.395     1.724     1.702     227.2641  18.7355         83
 3.77   0.0151    798.0681    695.6058  88.39     16345.82     2.554     2.009      227.366  17.5165         84
 4.77   0.1055    799.9539     41.0704  76.56     2340.151     1.478     1.355     227.2734  19.6269         85
 6.60   0.0932    774.1367   1427.0630 -85.17     2648.666     1.892     1.254     227.2734  19.4924         86
 5.37   0.1771    742.3917    556.7034  78.13     1393.316     1.276     1.149     227.2086  20.1899         87
 3.50   0.0038    726.2004    848.3846   5.29     64159.85     2.387     2.346     227.3475  16.0318         88
 5.94   0.3393    726.7937   1178.3159  -8.79      727.243     0.905     0.765     227.2364  20.8958         89
 5.27   0.2493    715.3685    808.1309 -14.16     990.2593     1.204     0.956     227.3012  20.5606         90
 5.02   0.2390    708.2617   1163.7618  76.33     1032.766     1.319     1.038     227.3012  20.5150         91
 7.18   0.1427    703.4435   1338.5858  50.36     1730.699     1.192     0.802      227.403  19.9544         92
 4.18   0.1093    702.1779    952.2958 -57.04     2257.253     1.515     1.367     227.1993  19.6660         93
 5.61   0.1187    685.3095    644.2097 -60.68     2078.229     1.359     1.289     227.1993  19.7558         94
 3.50   0.0039    648.0182   1464.2284  13.98     62712.82     2.373     2.348      227.366  16.0566         95
 5.20   0.3330    623.0888   1581.3657 -33.28     741.0128     1.049     0.838     227.2086  20.8754         96
 4.19   0.6511   1584.5095   1108.9585   4.45     379.0435     1.144     0.965     227.2641  21.6033         97
 5.94   0.0942   1569.9242     92.4716  -7.79      2621.01     1.285     1.194     227.2641  19.5038         98
 5.35   0.0766   1566.0743     21.9107  87.52     3224.201     1.514     1.200     227.2827  19.2789         99
 3.50   0.0043   1563.1904    304.0690  22.06     56898.29     2.296     2.239     227.3197  16.1623        100
 7.73   0.4187   1565.9939    784.4824 -27.52     589.4348     1.053     0.674     227.2549  21.1239        101
 4.19   0.0121   1552.2479    682.1069 -16.41     20341.97     3.495     3.226     227.2827  17.2790        102
 4.81   0.0618   1541.2142    134.9950  35.19     3994.741     1.596     1.481      227.366  19.0463        103
 3.62   0.0080   1506.6533    269.2621  13.58     30750.94     2.212     2.142     227.2734  16.8304        104
 3.53   0.0085   1094.5632    778.2180  54.25        28914     2.279     2.098     227.3845  16.8972        105
 4.26   0.0311   1514.2589    392.6498 -68.73     7928.095     1.858     1.829     227.2734  18.3021        106
 8.07   5.1955   1504.0000    723.0259   0.00     47.51246     0.838     0.289     227.3012  23.8580        107
 8.96   0.1294   1109.7919    478.5934  71.14     1908.321     0.771     0.447     227.3938  19.8484        108
 4.06   0.0387   1107.0256    428.0916  60.21     6371.432     1.938     1.741     227.2086  18.5394        109
 6.72   0.1086   1119.7235    329.5730  63.94     2271.536     1.763     1.198     227.2549  19.6592        110
 3.50   0.0083   1138.0656    148.1535  52.72     29818.88     2.318     2.274     227.2549  16.8638        111
 7.48   0.6376   1129.3524    219.6698  45.87     387.0935     0.584     0.329     227.2641  21.5805        112
 6.72   0.4707   1292.9857    412.3103 -84.44     524.1862     0.748     0.674     227.1993  21.2513        113
 9.22   0.2053   1259.5833    431.8011  19.69     1202.399     0.761     0.447     227.3475  20.3499        114
 4.45   0.0355   1291.0527    761.9366 -40.45     6955.007     1.946     1.766     227.2827  18.4443        115
 3.50   0.0033   1392.8568    114.4532  75.58     75645.18     2.420     2.376     227.2641  15.8530        116
 7.17   0.0867   1293.1210    742.0746 -54.42     2845.932     1.182     1.156     227.2919  19.4144        117
 8.85   0.3087   1304.5039    892.5346  49.55      799.703     0.503     0.496     227.2827  20.7927        118
 3.70   0.0027   1435.5669   1088.6056  44.99     93153.01     2.557     1.518     227.3475  15.6270        119
 4.51   0.0689   1434.7941    224.7793  59.57     3585.161     1.608     1.526      227.329  19.1637        120
 5.41   0.1406   1414.9445   1386.1927  58.70     1755.687     1.328     1.112     227.3382  19.9389        121
 4.13   0.1201   1439.2008    619.2315   9.90      2055.18     1.402     1.321     227.3197  19.7679        122
 4.15   0.0335   1388.3762   1428.3523  82.14      7373.36     1.903     1.793     227.3568  18.3808        123
 5.28   0.1082   1407.5312    308.2362 -44.17     2282.399     1.442     1.281     227.3012  19.6540        124
 3.50   0.0014   1298.0531    724.8838   7.23     178130.8     2.625     2.580     227.2641  14.9232        125
 4.91   0.0974   1389.8398    713.2196  22.48     2536.188     1.506     1.262     227.3753  19.5395        126
 3.86   0.0309   1372.0839   1018.8957  -8.96     8000.264     1.851     1.821     227.2919  18.2922        127
 3.91   0.1289   1391.7970   1038.7438  67.46     1914.428     1.303     1.097     227.3105  19.8449        128
 3.63   0.0085   1319.6772    659.9771 -46.23     29000.56     2.257     2.198     226.1965  16.8940        129
 6.77   0.3259   1332.1638    107.1231 -44.80     757.2161     0.822     0.689     227.2456  20.8519        130
 5.05   0.0575   1329.1886    655.9780 -73.88     4294.558     1.761     1.534     227.3475  18.9677        131
 8.95   0.5932   1318.5270    264.4885  41.73     416.0924     0.502     0.497     227.2734  21.5020        132
 5.50   0.0680   1307.2329    669.3615 -29.04     3632.432     1.668     1.455     227.3382  19.1495        133
 4.87   0.0199   1272.3130    610.1173 -46.83     12382.96     3.419     2.346     227.2919  17.8179        134
 4.20   0.0851   1264.9711    807.7076  45.98     2900.761     1.607     1.519     227.1993  19.3937        135
 4.35   0.0604   1277.7156   1331.1930  25.49     4084.368     1.709     1.595     227.2364  19.0222        136
 4.18   0.1270   1233.8519    304.6235  36.17     1943.433     1.448     1.297     227.3568  19.8286        137
 4.71   0.0201   1209.7463   1278.6859 -86.23     12277.55     4.313     2.794     227.2641  17.8272        138
 6.13   0.1961   1150.6638     99.5787  44.92     1258.382     1.035     0.884     227.2734  20.3005        139
 6.27   0.1395   1236.7913   1553.1951  35.94     1769.637     1.212     1.062     227.3938  19.9303        140
 8.72   0.2321   1153.6675   1353.6735 -45.27     1063.209     0.574     0.335     227.2734  20.4835        141
 4.46   0.0257   1218.5378   1194.7698 -23.65      9618.73     1.993     1.949     227.2919  18.0922        142
 3.64   0.0179   1214.2231    513.0854 -17.02      13771.4     2.069     1.988     227.2271  17.7026        143
 3.50   0.0052   1164.8165   1299.7355  51.77     47565.44     2.375     2.299     227.2919  16.3568        144
 6.20   0.1619   1206.9932    838.8483   0.27     1524.633     1.199     1.079     227.3197  20.0921        145
 5.33   0.2797   1201.3074    339.3056  -1.89     882.3235     1.243     1.068     227.2549  20.6859        146
 6.68   0.1867   1194.0555    124.2096   1.26     1322.623     1.227     0.985     227.3475  20.2464        147
 4.22   0.0458   1157.3247    236.5549  69.75     5382.892     1.809     1.722     227.2549  18.7225        148
 3.52   0.0165   1129.5792    183.6425  83.16     14926.81     2.106     2.071     227.3568  17.6151        149
 4.17   0.0257   1081.3923   1148.1611  68.20     9603.429     2.006     1.897      227.366  18.0939        150
 7.63   0.2216   1095.0028   1526.9939 -45.17     1114.205     0.912     0.531     227.3845  20.4326        151
 3.50   0.0061   1039.8917    633.0511  39.11     40560.73     2.366     2.272     227.2827  16.5297        152
 6.59   0.1053   1071.6583   1219.0597  79.90     2343.005     1.587     1.183     227.2456  19.6256        153
 7.94   0.1899   1029.6453    302.3516  63.82     1300.324     1.104     0.816     227.3197  20.2649        154
 3.79   0.0155   1009.4023    813.7109 -80.02      15944.9     2.082     2.027     227.2364  17.5434        155
 3.80   0.0132   1025.4409   1379.8496  72.80     18682.67     2.175     2.084     227.3197  17.3714        156
 5.17   0.1100   1010.7122    344.7850 -21.70     2243.526     1.428     1.290     227.1993  19.6727        157
 5.68   0.0911   1000.9541    542.7292 -56.82     2710.158     1.448     1.364     227.2734  19.4675        158
