#   1 KRON_RADIUS            Kron apertures in units of A or B                         
#   2 MAGERR_APER            RMS error vector for fixed aperture mag.                   [mag]
#   3 Y_IMAGE                Object position along y                                    [pixel]
#   4 X_IMAGE                Object position along x                                    [pixel]
#   5 THETA_IMAGE            Position angle (CCW/x)                                     [deg]
#   6 FLUX_APER              Flux vector within fixed circular aperture(s)              [count]
#   7 A_IMAGE                Profile RMS along major axis                               [pixel]
#   8 B_IMAGE                Profile RMS along minor axis                               [pixel]
#   9 FLUX_RADIUS            Fraction-of-light radii                                    [pixel]
#  10 FLUXERR_APER           RMS error vector for aperture flux(es)                     [count]
#  11 MAG_APER               Fixed aperture magnitude vector                            [mag]
#  12 NUMBER                 Running object number                                     
 3.91   0.0030     54.0677     63.6173  -6.96     28270.34     4.659     4.453      8.537     77.31852  16.9217          1
 3.72   0.0174     17.3630    984.8641 -88.08     4831.267     3.946     1.796      6.330     77.29229  18.8398          2
 3.50   0.0232     18.7792     91.0173 -64.27     3612.279     1.540     1.446      3.085     77.29229  19.1555          3
 3.50   0.0084     15.4457   1445.5848 -51.57     9977.928     1.657     1.523      3.106     77.30103  18.0524          4
 6.01   0.4256      7.9059   1469.7231 -62.96     197.1118     0.891     0.213      1.444      77.2398  22.3132          5
 3.50   0.6638      4.5543    960.5181  67.74     114.5861     1.221     0.204      2.418     70.03381  22.9022          6
 0.00  99.0000      5.0201     54.9799 -45.00    -93.34844     1.229     0.289    -10.182     71.62754  99.0000          7
 6.28   0.3239      4.2469    145.0632 -10.48     231.4532     1.031     0.624      2.887     69.03252  22.1388          8
 6.73   0.3242     10.5274   1183.3799  16.77     259.0704     0.842     0.456      2.588       77.336  22.0165          9
 5.10   0.2505     18.1513    384.1560  42.53     335.1416     0.978     0.838      2.798     77.30978  21.7369         10
 7.27   0.1873     24.4483    383.4137 -78.66     448.3119     1.489     0.404      3.934     77.31852  21.4210         11
 3.54   0.1127     25.4016    367.1154 -13.70      744.637     1.355     1.112      2.690     77.28354  20.8701         12
 3.50   0.0018     60.5800   1078.2439  79.77     45646.71     1.941     1.807      3.414     77.30978  16.4015         13
 7.07   1.5927     27.9201   1357.2933  87.28      52.6624     0.837     0.454   -103.950     77.23104  23.7462         14
 4.30   0.2230     31.3549   1108.9028  74.59     376.1529     0.853     0.705      2.708     77.22229  21.6116         15
 7.23   0.2476     34.4379    326.1240 -84.99     338.9392     1.041     0.952      3.179      77.2748  21.7247         16
 6.89   0.1684     35.2360   1110.4044 -67.05     498.4948     0.946     0.850      3.274     77.30103  21.3058         17
 4.25   0.2149     39.8006   1170.7745 -35.98     390.5943     1.362     0.566      2.218      77.2748  21.5707         18
 3.56   0.4176     38.8175   1521.2511  34.17     201.0269     1.138     0.596      2.187     77.29229  22.2919         19
 0.00   1.1707     36.6734    334.0000 -28.22     71.74971     0.910     0.211     -2.364     77.34474  23.4104         20
 3.50  99.0000     40.3349   1225.9261 -49.54    -27.21165     1.033     0.301      1.183     77.23104  99.0000         21
 4.30   0.2248     43.2110    915.4620 -36.27     373.5397     1.110     0.691      2.647     77.32726  21.6192         22
 3.50   0.0019     80.9682    537.4006 -63.20     44278.43     1.863     1.768      3.314     77.28354  16.4345         23
 7.59   0.2197     44.8832    441.2554  63.30     379.6018     0.870     0.216      2.364     76.80098  21.6017         24
 8.18   0.1414     43.3649     46.9432 -28.76     593.7119     0.927     0.207      2.576     77.30978  21.1161         25
 3.50   0.4842     47.1420    473.7140  63.43     173.1767     0.926     0.202      1.290     77.20478  22.4538         26
 7.45   0.1157     47.3210     47.5862  42.35     705.2476     0.603     0.311      3.109     75.15508  20.9291         27
 6.65  99.0000     47.3485     29.0000   0.00    -14.02348     0.807     0.477      3.467     77.34474  99.0000         28
 6.87   0.2634     48.2545    440.0000   0.00     318.9455     0.713     0.436      3.093     77.34474  21.7907         29
 6.12   0.4038     51.0359   1435.1760 -34.24      207.889     0.783     0.497      2.445     77.29229  22.2554         30
 7.31  99.0000     52.3333    266.6667  45.00    -12.99653     0.577     0.333      2.370      77.2398  99.0000         31
 3.92   0.0606     75.8943    127.6811 -33.15     1384.369     1.254     1.163      2.908      77.2398  20.1969         32
 0.00   1.3010     72.8091    953.8091  45.00     64.48951     1.181     0.289      7.086     77.25729  23.5263         33
 3.95   0.0911     92.0417    377.0394 -77.59     922.0577     1.893     1.601      4.508     77.31852  20.6381         34
 5.44   0.2163     82.9583    421.5509 -54.03     388.1814     1.270     0.623      2.899     77.31852  21.5774         35
 3.50   0.0013    122.5924    788.9217 -59.46        65518     1.960     1.816      3.402     77.30978  16.0091         36
 0.00  99.0000     83.6666    179.0219  27.82    -221.0516     0.932     0.206      5.589     77.30978  99.0000         37
 3.67   0.0379     97.3299     56.0065 -20.83     2209.889     1.351     1.269      2.977     77.07334  19.6891         38
 8.46   0.2898     92.1014    495.2714 -63.06     289.4679     0.886     0.214      2.216     77.24855  21.8960         39
 0.00  99.0000     94.3854     89.6815  47.31    -302.7089     0.592     0.322      0.000     77.30978  99.0000         40
 6.54   0.1292     99.1556    452.2040 -33.17     650.1507     1.373     0.783      3.710     77.32726  21.0175         41
 3.50  99.0000    107.9520    185.3654 -61.41    -55.83803     0.933     0.206      0.450     77.30978  99.0000         42
 7.17   0.5527    114.0206    270.3127 -89.22     151.8623     0.829     0.463      3.394     77.29229  22.5964         43
 7.21  99.0000    118.0000     66.5485  57.15    -44.16618     0.773     0.319      3.376     77.34474  99.0000         44
 3.50   0.0023    163.1416   1468.1309 -54.85     37106.63     1.857     1.772      3.324     77.26604  16.6264         45
 7.53   0.3179    132.0424    418.9576  45.00     264.0332     1.201     0.289      2.577     77.29229  21.9959         46
 3.50  99.0000    131.3821     62.3194 -47.19    -267.5255     0.591     0.323      0.416     77.31852  99.0000         47
 0.00  99.0000    141.0000    178.9659   0.00      -230.48     0.878     0.289     -4.608      77.2748  99.0000         48
 3.50   0.0099    171.1748    877.1526  75.95     8442.527     1.555     1.507      3.136     77.32726  18.2338         49
 7.08   0.4397    152.3333   1279.3936 -43.21     190.9992     0.602     0.315      1.832       77.336  22.3474         50
 3.89   0.0874    165.8038   1445.6473   5.08     961.1887     1.275     0.973      2.875       77.336  20.5930         51
 3.50  99.0000    163.1070    126.3048 -63.08    -258.0719     0.936     0.201      0.503     77.03825  99.0000         52
 6.79   0.6278    163.9584    629.0416  45.00     133.7263     1.223     0.289      5.900     77.30103  22.7345         53
 3.94   0.2780    167.4873    104.0908 -30.29     301.7208     1.111     0.868      2.779     77.22229  21.8510         54
 3.50   0.2178    170.9897   1368.0988 -45.99     385.2418     1.302     0.607      2.244     77.25729  21.5857         55
 6.94   0.2999    169.0000    651.7692 -90.00      279.822     0.679     0.421      2.788      77.2748  21.9328         56
 5.07   0.1438    181.0743    574.6081  50.74     584.1107     1.295     0.874      3.960     77.31852  21.1338         57
 7.51   0.1869    187.0535   1354.2334  56.76     449.1576     1.421     0.779      4.976     77.31852  21.4190         58
 4.23   0.0744    193.5168   1350.4445 -41.46     1127.148     1.303     0.927      2.989     77.26604  20.4200         59
 3.96   0.0232    211.6080    827.3951  -9.36     3617.159     3.727     1.897      7.251      77.2748  19.1541         60
 3.57   0.0428    207.4825    548.8376 -64.15     1962.285     1.395     1.179      3.041     77.28354  19.8181         61
 4.31   0.0266    230.9999    562.1114 -29.05     3156.216     3.227     2.771      7.969      77.2748  19.3021         62
 3.50   0.1235    211.3650    684.4688  86.20     679.8839     1.579     1.065      3.141     77.30103  20.9689         63
 3.50   0.0515    213.0156   1305.8960  64.25     1630.218     1.264     1.115      2.837     77.28354  20.0194         64
 6.31   0.2189    205.8939    937.1061 -45.00     383.0729     1.210     0.289      3.254     77.20478  21.5918         65
 3.69   0.0439    224.5114   1225.8744 -77.81     1908.709     1.414     1.210      3.066     77.22229  19.8482         66
 6.59   0.2232    219.0222    740.5000 -56.89     375.8146     1.456     0.611      4.940     77.23104  21.6126         67
 0.00  99.0000    211.5957    608.7021 -48.75   -0.7314057     0.589     0.322      0.000      77.2748  99.0000         68
 3.50   0.0007    260.5684    997.2297 -57.06     119689.6     1.967     1.850      3.353     77.31852  15.3549         69
 3.90   0.1026    223.1899    774.7099 -28.21     817.6283     1.146     0.906      2.612      77.2748  20.7686         70
 3.50   0.0010    266.6972     67.3778 -75.78     83240.09     1.967     1.876      3.379     77.25729  15.7492         71
 4.10   0.0848    244.3300    112.7148  74.17     989.5361     2.024     1.468      4.022      77.2398  20.5614         72
 0.00  99.0000    224.4766     84.0624 -32.38    -258.9482     0.789     0.315      0.000     77.24855  99.0000         73
 4.53  99.0000    232.0000     20.0350   0.00    -234.9175     0.831     0.289      0.911     77.25729  99.0000         74
 4.57   0.0235    256.4006    612.6793 -30.02      3577.58     2.266     1.670      5.248     77.30978  19.1660         75
 5.77   0.1138    239.8354    838.3702 -20.32     737.8851     1.451     0.794      4.260     77.30103  20.8800         76
 6.28   0.2205    250.8140    107.8768 -74.34     379.4169     1.569     1.055      3.174     77.02948  21.6022         77
 6.44   0.5133    240.3460   1478.8618 -47.85      163.473     1.076     0.282      2.339     77.26604  22.5164         78
 6.23   0.1458    253.0185   1372.5364  88.54     572.7481     0.934     0.498      2.782     76.87136  21.1551         79
 4.67   0.3378    254.2936   1352.3809  21.45     247.0676     0.819     0.369      1.911     76.84498  22.0680         80
 3.50   0.0042    288.3638   1486.2595 -50.05     19811.26     1.730     1.592      3.177     77.30103  17.3077         81
 0.00  99.0000    261.3333     84.2923 -47.25    -76.74307     0.559     0.342      0.000     77.25729  99.0000         82
 5.66   0.1821    270.6717   1273.9197 -40.63     460.6621     1.404     1.013      3.903     77.24855  21.3915         83
 3.50   0.0191    282.7120   1522.1971 -53.12     4397.398     1.396     1.295      2.959      77.2748  18.9420         84
 3.50   0.0058    303.9742    201.5955 -67.73     14481.49     1.660     1.554      3.151     77.29229  17.6480         85
 5.43   0.0721    294.2861   1475.5723 -56.07      1157.92     1.236     0.945      3.745     76.84498  20.3908         86
 3.70   0.0991    302.6453    563.4780  78.24     847.0534     1.226     1.002      3.105     77.25729  20.7302         87
 3.50   0.0085    322.8607    697.1563 -65.04     9878.236     1.561     1.501      3.215     77.30103  18.0633         88
 6.97   0.4625    308.2586     85.3358  -9.79     181.3907     1.278     0.681      3.176     77.25729  22.4035         89
 7.68   1.0058    312.6170     85.1514 -79.80      83.4608     0.987     0.661      3.023     77.30103  23.2463         90
 3.50   0.0860    322.0946    641.3367 -62.75     975.7886     2.440     1.055      4.081     77.26604  20.5766         91
 4.66   0.0454    328.1743    595.2106  73.06     1850.602     1.457     1.437      4.030     77.28354  19.8817         92
 3.50   0.5483    313.9999    326.0000  90.00     153.1358     0.857     0.289      2.383     77.30978  22.5873         93
 0.00  99.0000    331.2695    182.9999   0.00    -111.1497     0.855     0.444     -3.426     77.32726  99.0000         94
 7.80   1.1503    318.3265    226.3265 -45.00     72.92284     0.571     0.337      2.288      77.2398  23.3928         95
 4.76   0.8539    332.9469     93.2881 -11.73     98.22174     1.125     0.860      2.114     77.23104  23.0695         96
 4.07   0.1971    330.2740   1545.6710 -32.70     425.4402     0.997     0.657      2.407     77.22229  21.4779         97
 0.00  99.0000    340.3112    179.6888  45.00    -118.6332     0.558     0.343      0.000     77.20478  99.0000         98
 4.01   0.1341    350.8346     54.4693  76.80     626.1921     1.181     1.089      2.681     77.30103  21.0582         99
 3.50   0.0084    368.9971    760.8607 -60.62     9988.803     1.549     1.479      3.094     77.34474  18.0512        100
 7.01  99.0000    348.7852     42.1725 -15.91    -193.1187     0.890     0.343      1.466     77.30103  99.0000        101
 3.50   0.0436    362.0011   1500.1412   8.08     1927.838     1.306     1.171      2.854     77.34474  19.8373        102
 3.50   0.0017    396.0186    231.2769 -59.08     48637.64     1.809     1.766      3.274       77.336  16.3326        103
 3.50   0.1439    361.2874   1033.8175 -47.29      579.929     0.934     0.778      2.185     76.84498  21.1416        104
 0.00  99.0000    360.0423    151.0000  90.00    -111.1264     0.873     0.289     -0.399     77.30978  99.0000        105
 6.26   0.3300    369.5384    210.7692  82.98     254.3551     1.089     0.403      2.622     77.29229  22.0364        106
 4.32   0.1796    374.3805   1083.7491 -45.06     467.4316     1.277     0.931      3.237     77.30978  21.3757        107
 6.15   1.5855    371.2109     71.1750  -9.51     52.64078     1.433     0.706      2.368     76.85377  23.7467        108
 6.63   0.0858    377.0762    754.1251  38.19     972.1524     1.702     0.884      5.863     76.80978  20.5807        109
 3.50   0.0121    397.8548   1460.9972 -66.60     6950.566     1.529     1.479      3.105     77.35348  18.4449        110
 7.51   0.0792    372.6167    752.9357  28.61     1060.166     0.945     0.202      2.477     77.30103  20.4866        111
 3.50   0.0107    399.0069    354.3420 -79.02     7821.644     1.576     1.453      3.040     77.34474  18.3168        112
 3.50  99.0000    376.6897     86.1697  25.53    -165.6243     1.431     0.435      0.924     77.26604  99.0000        113
 5.34   0.2860    380.7073    126.0802  -7.83     293.3637     1.049     0.436      2.695     77.24855  21.8815        114
 3.50   0.0508    394.4662   1088.6558 -38.71     1652.436     1.345     1.286      3.050     77.26604  20.0047        115
 3.50   0.3539    385.1066    218.2978 -86.25     236.2385     0.832     0.455      1.367     76.97681  22.1166        116
 5.17   0.7315    389.7467   1195.3679 -81.63     114.7872     1.180     0.455      3.049     77.31852  22.9003        117
 6.94   0.8924    390.3333    260.3925 -43.23     94.11542     0.601     0.315      2.335       77.336  23.1158        118
 6.05   0.1103    397.9496    626.5803  25.15     761.3036     1.467     0.519      3.626     77.30978  20.8461        119
 6.16   0.2939    407.3262    281.8120  86.11     285.8027     1.028     0.385      2.653       77.336  21.9098        120
 8.37   0.1382    404.5683    526.5000   0.00     606.9529     0.500     0.495      3.000     77.21354  21.0921        121
 0.00   2.7455    408.9999    699.4050  89.99     30.55932     0.771     0.491     -2.739     77.25729  24.3371        122
 3.50   0.0053    438.7710    251.9372 -58.75     15909.91     1.695     1.560      3.196     77.29229  17.5458        123
 3.50   0.0006    461.8542    807.3655 -53.73     137955.3     1.998     1.892      3.378     77.29229  15.2007        124
 4.52   0.1093    421.7829    158.7665  48.54       768.11     1.506     1.389      3.739     77.30103  20.8364        125
 8.33   0.0975    412.2601      1.3008  69.98     638.6749     0.906     0.359      4.279     57.33977  21.0368        126
 0.00   0.6528    412.6538    198.9613  28.69     128.5915     0.914     0.210      5.481     77.29229  22.7770        127
 6.85   0.2135    415.6755    558.2351  47.73     393.1158     1.077     0.348      3.152      77.2748  21.5637        128
 7.88   0.6319    415.3739   1561.3536 -45.60     132.8963     0.603     0.315      2.571     77.32726  22.7412        129
 6.06   0.2516    419.4582   1204.6603 -19.80     333.4695     1.038     0.707      2.964     77.25729  21.7424        130
 5.49   0.1457    427.7241   1179.3151  16.88     575.6938     1.365     0.886      3.861     77.23104  21.1495        131
 6.73   0.1774    420.6666    133.9999  28.16     473.2708     0.919     0.209      2.826     77.32726  21.3622        132
 3.50   0.0634    433.7999   1421.7810  -3.23     1323.933     1.400     1.147      2.854     77.29229  20.2453        133
 5.78   0.1509    431.7544    717.7675  83.83     553.3177     1.303     1.115      4.549     76.88895  21.1926        134
 5.67   0.0415    426.3399    433.8217  -0.65     2022.363     1.618     0.697      4.476     77.31852  19.7854        135
 7.70   0.5116    425.2681   1064.0602 -27.55      164.013     0.861     0.219      2.307     77.25729  22.5128        136
 3.53   0.0166    451.1560     21.1324 -40.41     5058.471     1.586     1.454      3.081      77.2748  18.7900        137
 5.33   0.1664    434.9251    151.0956  33.14       504.03     1.042     0.753      3.028      77.2398  21.2939        138
 3.50   0.1261    440.7094    305.4552 -67.81     665.5294     1.234     0.946      2.683     77.24855  20.9921        139
 6.55   0.6847    436.3333    378.0375 -27.60     122.5852     0.940     0.203      5.640     77.29229  22.8289        140
 4.61   0.0201    468.6138    850.4859  22.29     4181.032     6.918     1.705     10.581     77.29229  18.9968        141
 3.64   0.0154    458.6819     34.3852 -68.71     5456.547     1.504     1.362      3.022     77.30978  18.7077        142
 5.24   0.1088    446.1402    122.2485 -40.13     771.1058     1.535     0.986      3.567      77.2748  20.8322        143
 0.00  99.0000    444.3414     32.6586  45.00    -67.66822     0.584     0.329      0.000     77.25729  99.0000        144
 7.72   0.4166    446.3051   1504.6737  43.88     201.3582     0.562     0.341      2.780     77.24855  22.2901        145
 3.53   0.0486    464.6877    468.4340 -68.06     1727.875     1.453     1.345      2.969     77.28354  19.9562        146
 3.50   0.3469    453.9789    838.6877 -89.20     241.9881     0.829     0.463      0.937     77.29229  22.0905        147
 7.02   0.2619    453.8300   1533.0110   0.29     320.5997     0.711     0.376      2.463     77.31852  21.7851        148
 5.39   0.1404    461.9751   1096.1796 -25.46     597.7229     0.895     0.833      3.094     77.30103  21.1087        149
 4.28   0.0550    471.9928    254.1263 -68.26     1527.601     1.378     1.145      3.176     77.32726  20.0900        150
 4.00   0.0379    472.9767    734.7629 -49.28     2212.262     1.302     1.161      3.007     77.30103  19.6879        151
 3.50   0.0291    478.8103    922.8269 -42.14     2884.281     1.387     1.317      2.829     77.30103  19.3999        152
 6.40   0.1996    462.5494    724.5518 -15.89     420.7829     1.098     0.412      3.252     77.31852  21.4899        153
 3.90   0.0699    478.8674   1276.7657 -61.05     1201.806     1.415     1.029      3.056     77.30978  20.3504        154
 6.36   0.1135    489.4743    839.6248  73.84     739.7103     1.966     0.666      5.221     77.29229  20.8773        155
 3.50   0.0706    484.9014   1070.4312 -49.44     1187.218     1.269     1.107      2.708     77.22229  20.3637        156
 4.51   0.4133    481.7586   1308.7125 -21.40     203.0275     1.068     0.925      2.692     77.26604  22.2811        157
 6.88   0.3147    476.7125   1167.9124  -5.70     266.4894     0.676     0.450      2.710     77.23104  21.9858        158
 5.21   0.4781    479.8539    682.4712  28.79     175.4771     0.982     0.433      1.991     77.25729  22.4394        159
 5.08   0.0400    496.8585     82.7381  -5.62     2099.638     2.096     1.775      5.697     77.25729  19.7446        160
 4.94   0.0428    496.3174   1187.4581  -3.91     1959.159     2.489     1.694      6.498     77.25729  19.8198        161
 4.02   0.0071    532.7239    518.8169  23.88     11750.58     3.814     2.534      7.218     77.32726  17.8749        162
 5.03   0.0685    505.2529    762.8248  71.04     1226.786     1.574     1.349      4.615       77.336  20.3281        163
 3.50   0.0320    516.3974   1461.3535  24.87     2622.824     3.655     1.596      6.002       77.336  19.5031        164
 4.19   0.1337    502.7437    863.3572  83.20     627.6877     1.102     1.026      2.843     77.28354  21.0556        165
 4.80   0.2016    498.9189    365.9335 -28.31     416.0607     1.085     0.793      3.058     77.23104  21.5021        166
 6.20   0.1157    510.6279    165.8426  11.51     726.0538     1.070     0.766      4.087     77.32726  20.8976        167
 7.23   0.6466    504.9778    324.6298 -88.81     129.8293     0.793     0.483      4.544     77.30103  22.7666        168
 3.98   0.1074    514.6561   1179.0906 -51.96     780.8297     1.211     0.892      2.774     77.24855  20.8186        169
 8.53   0.1129    511.6318    161.4211  -2.87     743.5844     0.958     0.481      4.640     77.29229  20.8717        170
 5.50   0.1415    520.2025    641.5090 -38.14      592.991     1.005     0.778      3.608     77.25729  21.1174        171
 3.50   0.2597    519.2086   1518.7914  31.81     323.1204     0.775     0.675      2.000     77.25729  21.7766        172
 3.50   1.4714    522.9825    182.0000 -44.02     57.04734     0.876     0.500      0.574     77.29229  23.6594        173
 0.00  99.0000    525.0416     54.0416  45.00    -16.09567     1.223     0.289      4.065     77.30103  99.0000        174
 3.82   0.0536    540.9442    999.7346 -65.40     1564.276     1.402     1.144      2.897     77.26604  20.0642        175
 7.29   0.1978    537.3212    405.2670  70.51     423.9328     0.841     0.363      2.635     77.23104  21.4818        176
 3.50   0.6069    535.3260    745.0220  -0.91     138.3596     0.821     0.469      1.395     77.31852  22.6975        177
 3.50   0.3956    546.6808    933.8734  -5.12     212.0201     0.818     0.462      1.816      77.2398  22.2341        178
 3.72   0.0360    559.8889   1041.4730 -32.05     2328.356     1.450     1.299      3.037     77.23104  19.6324        179
 4.40   0.0519    571.7235     45.7267  71.43     1616.194     1.855     1.238      4.275     77.24855  20.0288        180
 4.87   0.4190    556.0773    805.6732  62.82     200.2142     0.952     0.198      1.371     77.24855  22.2963        181
 3.50   0.0088    581.4415    144.8172 -73.98      9492.59     1.612     1.481      3.162     77.30103  18.1065        182
 6.90   0.3219    556.5573    778.4302 -45.46     260.9161     0.544     0.443      2.653     77.32726  22.0087        183
 3.50   0.0540    572.1415   1447.5883  21.34      1555.37     2.100     1.554      4.194     77.31852  20.0704        184
 4.37   0.1649    565.5607    139.7153 -61.31     508.8278     1.052     0.799      2.822     77.28354  21.2836        185
 3.66   0.0179    597.6909    782.6697 -13.56     4682.342     3.019     2.901      6.944     77.24855  18.8738        186
 3.50   0.0088    582.9792    318.9888 -22.99      9537.14     1.571     1.502      3.137     77.28354  18.1015        187
 6.43   5.9223    563.8055    905.2537 -13.51     14.18473     0.872     0.349      1.782     77.35348  25.1704        188
 6.10   0.4778    570.0448    113.0000  90.00     175.7496     0.865     0.289      2.425     77.32726  22.4378        189
 6.09   0.1483    577.2741   1001.4787 -49.91      565.919     1.480     0.783      4.501     77.25729  21.1681        190
 5.86   1.7059    579.9208   1104.9209  45.00     48.95522     1.174     0.289      4.325     76.89774  23.8255        191
 6.85   0.4309    579.5740    740.7037 -49.06     194.7375     0.595     0.315      1.862     77.26604  22.3264        192
 4.21   0.1056    585.4999     75.9834   3.10     794.8721     1.185     0.946      2.632     77.26604  20.7993        193
 3.50  99.0000    581.6816    897.6592 -43.99    -76.71667     0.574     0.335      3.444     77.25729  99.0000        194
 7.59   0.9827    585.9788   1101.0000  90.00     85.39462     0.878     0.289      1.675      77.2748  23.2214        195
 3.56  99.0000   1004.9223   1237.7094  53.03    -98.16769     1.052     0.491      1.299      77.2398  99.0000        196
 4.30   0.0862   1597.9526    655.1423 -49.37     820.9819     1.908     1.129      3.806      65.1848  20.7642        197
 6.44   0.3681   1599.0642     19.6310 -61.16     178.0722     0.927     0.207      1.304      60.3606  22.4235        198
 3.53   0.5400   1597.8390     32.1611 -45.00     132.0774     1.191     0.289      1.163     65.67037  22.7479        199
 5.36   0.1639   1595.7672    373.9221  31.21     476.8661     1.375     0.977      3.675     71.96648  21.3540        200
 5.97   0.4229   1581.3082   1414.3082  62.18     198.2373     1.138     0.482      3.494     77.20478  22.3070        201
 3.96   0.0388   1567.5634     22.0702 -33.11     2161.543     1.550     1.347      3.296     77.30103  19.7131        202
 4.45   0.0550   1566.7277    784.6791 -79.02     1526.282     1.726     1.112      3.867     77.24855  20.0909        203
 4.05   0.1618   1551.6348   1221.8518 -14.31     518.9504     0.821     0.737      2.353     77.31852  21.2622        204
 0.00   0.8300   1552.6969    131.9093 -27.08     101.0271     0.926     0.205      0.000     77.21354  23.0389        205
 3.50   0.0813   1547.0566    863.3163  86.36     1031.364     1.311     1.162      3.189     77.24855  20.5165        206
 7.52   0.9652   1542.0454    635.0454  45.00     86.98687     1.201     0.289      3.411     77.30978  23.2014        207
 7.38  21.2069   1542.3176    330.9529   1.85     3.956336     0.825     0.465      4.214     77.25729  26.5568        208
 3.50   0.2909   1537.1063   1429.5767 -58.05     288.4165     1.861     1.083      2.651     77.26604  21.8999        209
 7.87   8.5473   1539.6814    263.2966  46.29     9.810593     0.554     0.344      2.446     77.21354  25.5708        210
 0.00   2.2580   1539.6504     24.9756  28.39     37.19479     0.927     0.208     -4.165       77.336  24.1238        211
 4.71   1.2849   1522.0966    576.6367  32.06     65.26901     1.363     0.181      3.581     77.22229  23.5132        212
 5.89   0.5663   1520.2023     84.3736  78.66     148.2053     1.114     0.613      2.387     77.28354  22.6228        213
 4.71   0.2078   1515.5050    483.6837 -65.34     403.4975     1.213     0.808      2.819     77.19603  21.5354        214
 3.51   0.0109   1515.7380    392.7282 -44.44     7661.445     1.576     1.504      3.251     77.24855  18.3392        215
 8.24   0.0800   1510.0000    260.2902 -61.41     1037.456     0.859     0.219      2.830     76.39504  20.5101        216
 5.83  99.0000   1506.0000   1470.6666  61.84    -40.74615     0.919     0.209      2.298     77.32726  99.0000        217
 4.61   0.0903   1504.9624    723.4783  11.29     929.4163     1.169     1.011      3.172      77.2748  20.6295        218
 3.89   0.0206   1278.8848   1331.4534 -58.59     4069.719     1.470     1.370      3.292     77.24855  19.0261        219
 5.03   0.2604   1274.2249    698.3608 -58.12      322.481     1.289     0.832      3.799     77.31852  21.7787        220
 6.66  99.0000   1269.1691    361.5000 -74.69    -78.62384     0.848     0.463      2.124     77.21354  99.0000        221
 5.52   0.4545   1263.2411    215.6861  38.95     184.6627     0.526     0.349      1.956      77.2748  22.3841        222
 5.19  99.0000   1254.3495    506.0242  28.39    -63.97042     0.927     0.208      0.598       77.336  99.0000        223
 0.00  99.0000   1252.0455     81.3561  61.32    -125.0408     0.922     0.208      5.533     77.31852  99.0000        224
 0.00  99.0000   1250.9790   1304.7015  61.03    -156.2676     0.859     0.218      0.000     77.24855  99.0000        225
 6.00   0.3942   1238.4994    857.4747  45.04     211.4944     1.023     0.788      4.491     76.77457  22.2368        226
 4.19   0.0311   1235.1313    304.8505  51.97     2697.396     1.322     1.310      3.225     77.25729  19.4726        227
 0.00  99.0000   1217.6882   1558.9138 -27.12      -113.88     0.936     0.203      0.000      77.2398  99.0000        228
 0.00  99.0000   1213.5168   1389.5337  45.75    -146.7184     0.515     0.483      0.000     77.22229  99.0000        229
 3.95   0.0501   1208.5066    838.8428 -76.66     1673.811     1.272     1.128      2.893     77.22229  19.9907        230
 3.75   0.0588   1202.5293    339.0961 -80.37     1427.274     1.632     1.252      3.319     77.24855  20.1637        231
 5.26   0.0519   1195.6740    124.2792  83.25     1615.851     2.138     1.722      4.538     77.25729  20.0290        232
 5.94   0.3705   1182.4340    176.5399  10.29      226.561     1.285     0.915      3.096     77.30103  22.1620        233
 7.14   0.5196   1157.6039    568.9058  28.96     161.5008     0.942     0.202      2.676     77.26604  22.5296        234
 4.56   0.1016   1154.3538   1352.9138 -24.85     826.3335     1.602     1.366      3.527      77.2748  20.7571        235
 0.00  99.0000   1173.6432    268.0235   1.16    -31.79998     0.802     0.479      4.810     77.31852  99.0000        236
 4.76   0.0554   1152.1494     99.4870  13.81     1513.857     1.304     1.097      3.382     77.24855  20.0998        237
 0.00   0.3352   1133.6503    111.3251  46.01     250.2381     0.581     0.331      0.000      77.2398  22.0541        238
 4.98   0.1329   1130.8446    219.3437 -35.29     631.5165     1.440     0.937      3.198     77.28354  21.0490        239
 0.00  99.0000   1131.6533   1251.0399   1.86    -134.0561     0.808     0.475      4.846     77.29229  99.0000        240
 4.96   0.1106   1130.0153    547.5102 -54.19     758.6451     1.112     0.971      2.939     77.29229  20.8499        241
 3.50   0.6427   1130.3888    503.9585   2.48     130.6225     0.781     0.487      2.020     77.30103  22.7600        242
 3.50   0.8169   1129.3102    963.0695  -2.62     102.6736     0.828     0.461      4.236     77.23104  23.0214        243
 8.38   6.9889   1124.0000    918.3257  61.77     12.01316     0.909     0.212      0.421     77.30978  25.3509        244
 0.00  99.0000   1113.0000   1390.0215   0.00    -132.6355     0.828     0.289      4.967      77.2748  99.0000        245
 0.00  99.0000   1112.6870    827.0816  27.17    -34.57891     0.935     0.203      0.000     77.24855  99.0000        246
 3.50   0.0125   1108.2023    427.9747 -49.23     6687.025     1.562     1.475      3.239     76.94167  18.4869        247
 4.92   0.1003   1096.0582   1526.3983 -89.10     837.8585     1.227     1.127      3.270     77.34474  20.7421        248
 0.00  99.0000   1106.9767    200.3254  89.05    -25.25083     0.821     0.468      0.000     77.30103  99.0000        249
 3.50   0.0026   1080.7655    512.1357 -63.83     31978.86     1.742     1.652      3.322     77.29229  16.7878        250
 5.17   0.0494   1072.8773   1219.1770 -74.69      1698.56     2.145     1.588      4.802     77.29229  19.9748        251
 4.78   0.0859   1066.7205   1562.5006 -58.37     976.0604     2.406     1.314      5.230     77.21354  20.5763        252
 0.00  99.0000   1069.7163   1084.4326  40.11    -177.8099     0.591     0.316      0.000     77.29229  99.0000        253
 0.00  99.0000   1069.6588    900.0237 -28.48     -180.338     0.916     0.210    -16.940     77.32726  99.0000        254
 3.90   0.3278   1066.6433   1597.2023  30.34     224.8909     1.133     0.835      2.315     67.88716  22.1701        255
 4.65   0.2948   1067.5428    568.7208 -76.54     284.6462     1.207     0.581      2.261     77.26604  21.9142        256
 4.62  99.0000    975.3115   1443.6448  43.11     -56.3609     0.577     0.333      1.284     77.25729  99.0000        257
 0.00   8.6533    972.3511   1499.6312  44.45      9.70355     0.600     0.318      0.000     77.31852  25.5827        258
 3.50  99.0000    969.0248    620.6750  88.99    -185.2917     0.821     0.468      2.107     77.28354  99.0000        259
 4.95   0.1997    965.8400    416.3594 -23.72     420.5451     0.932     0.671      2.394     77.31852  21.4905        260
 3.50  99.0000    955.0853    303.2907 -87.14    -130.0817     0.839     0.453      5.032     77.23104  99.0000        261
 5.13   0.1054    952.0725    654.0963  53.15     796.0163     1.707     1.235      5.005      77.2398  20.7977        262
 5.76   1.1754    952.6729    887.3646  43.61     71.40611     0.588     0.326      2.495     77.28354  23.4157        263
 4.95   1.5004    951.5815    827.8556  -5.62     55.94926     1.408     0.476      7.263     77.30103  23.6805        264
 5.59   0.2109    950.4417    268.2458 -84.47     395.8325     1.143     0.418      2.948     76.87136  21.5562        265
 5.31   0.1193    948.7702    445.1740 -21.09      703.398     1.027     0.568      2.931     77.29229  20.9320        266
 4.08   0.0485    939.8657   1067.0358 -60.98     1729.375     1.397     1.121      3.040     77.30103  19.9553        267
 4.99   0.1272    937.9785    515.8426  68.73     660.1644     2.179     0.812      4.780     77.31852  21.0009        268
 6.31  99.0000    933.4297   1118.6074  43.23    -7.277514     0.997     0.547      1.753     77.30978  99.0000        269
 6.22   1.9071    933.5460   1027.5306  44.22     43.99322     0.520     0.476      2.332     77.25729  23.9415        270
 0.00   6.1261    932.7031   1006.0182  28.16     13.69874     0.880     0.217      0.000      77.2748  25.2083        271
 4.58   0.0873    929.1964   1322.3904 -72.76     961.5643     1.309     1.180      3.002     77.26604  20.5926        272
 3.50   1.9459    929.2764   1498.6666  41.56     43.09715     0.551     0.344      1.246     77.22229  23.9639        273
 7.74   0.8456    927.2894    934.1693  -5.81     99.22734     0.829     0.448      3.240     77.26604  23.0584        274
 6.49  99.0000    925.9583   1106.0000  90.00    -66.06877     0.849     0.289      1.358     77.30978  99.0000        275
 6.52   1.8285    926.0001     46.9569   0.00     45.66726     0.769     0.638      4.443     76.88895  23.9010        276
 0.00  99.0000    920.2390   1027.9854  50.95    -134.2798     1.019     0.291     -3.141     77.31852  99.0000        277
 4.91   0.0948    913.7161    838.4708 -59.18     884.5692     1.166     1.048      3.370     77.23104  20.6832        278
 7.94   0.9255    914.9566   1118.3767  87.58     90.72823     0.789     0.484      3.473     77.31852  23.1556        279
 3.84   0.1985    913.1606   1000.7858   8.85     423.0834     1.348     0.878      3.122     77.31852  21.4839        280
 6.21   0.2836    908.8943    658.6949 -63.07     295.5853     0.936     0.202      1.873     77.19603  21.8733        281
 3.50   0.0137    901.2242    302.8380 -64.59     6139.134     1.500     1.389      3.058     77.30103  18.5797        282
 0.00  99.0000    902.6824    875.9529  -1.85    -80.93496     0.825     0.465      0.000     77.25729  99.0000        283
 0.00  99.0000    900.7433    379.5900 -38.18      -6.1853     0.570     0.329      0.000       77.336  99.0000        284
 7.73   1.2855    898.5576    987.7576 -53.18      65.2981     0.572     0.322      2.361     77.29229  23.5127        285
 3.89   0.0595    896.8293    538.6411  -8.39     1410.238     2.029     1.362      4.273     77.31852  20.1768        286
 3.75  99.0000    897.3262   1127.1058  -4.43    -34.26958     0.816     0.466      4.234     76.80098  99.0000        287
 5.84   0.2129    894.7896   1425.7336 -39.03      394.441     1.144     0.840      3.622     77.32726  21.5600        288
 0.00  99.0000    892.3071   1453.3464 -43.17    -87.54772     0.571     0.336      0.000     77.24855  99.0000        289
 3.92   0.0925    889.7145    325.0487  30.18     907.0947     1.557     0.876      3.738     77.26604  20.6559        290
 3.50   0.0008    881.0616   1592.5116 -55.90     111019.9     1.931     1.812      3.348     77.24855  15.4365        291
 3.92   0.1192    886.5411   1500.3887  47.44     704.5898     1.300     1.102      3.043       77.336  20.9302        292
 3.50   0.1919    885.9303    339.0670 -71.13     434.7451     1.344     0.699      2.376     76.80098  21.4544        293
 4.59   0.2738    878.3832    960.8664  37.61     306.6766     1.144     1.033      2.526     77.32726  21.8333        294
 4.77   0.3162    877.5881    541.9119 -33.89     265.5008     0.733     0.330      1.758     77.30103  21.9898        295
 4.38   0.0343    870.2298   1103.7097 -73.38     2445.301     2.032     1.595      4.048     77.26604  19.5792        296
 4.52   0.0886    868.6579    939.4280  32.29     947.9911     2.150     1.335      4.582     77.31852  20.6080        297
 3.84   0.3231    870.4456    643.5138 -54.47     259.7432     1.142     0.764      2.847      77.2748  22.0136        298
 6.86   0.4811    867.6667    454.0000  28.15     174.5564     0.919     0.209      1.935     77.32726  22.4452        299
 3.56  99.0000    864.0000   1015.3038  30.52    -121.0121     0.904     0.558      1.873     76.83618  99.0000        300
 3.50   5.0692    862.8578    637.2549 -80.23     16.55309     0.906     0.718      1.071     77.26604  25.0028        301
 4.39   0.1335    859.2086   1339.7319 -75.87     622.0424     1.400     0.937      3.028     76.45695  21.0654        302
 3.50   0.2985    856.2928    544.9837  17.28      281.215     1.169     0.880      2.854     77.29229  21.9274        303
 8.21   0.2008    848.0262    359.4051  25.67     418.1653     1.131     0.450      3.877     77.30103  21.4966        304
 4.65   0.1798    845.9457   1063.5474 -53.21      466.779     1.214     0.924      2.961     77.28354  21.3772        305
 4.99   0.0806    844.0078   1106.1466  18.74     1042.624     1.539     1.224      3.599     77.35348  20.5047        306
 3.50   0.0621    837.4356    298.7454  -8.69     1351.657     1.235     0.998      2.707     77.30103  20.2228        307
 5.87   0.7160    837.5001   1520.6578  13.33     117.0828     0.825     0.475      2.368     77.19603  22.8788        308
 5.52   0.2834    836.7526    819.0479  -1.54      296.287     0.937     0.685      3.013     77.32726  21.8707        309
 0.00  99.0000    829.0397   1086.9603  45.00    -221.2418     1.211     0.289    -21.996     77.32726  99.0000        310
 3.63   0.0130    823.7004    654.3642 -43.70      6454.82     1.505     1.472      3.262     77.20478  18.5253        311
 6.75   0.7353    823.0000    329.9342   0.00     114.2301     0.859     0.289      1.831     77.34474  22.9055        312
 6.76   1.5454    821.0000   1398.1019   0.00     54.29196     0.767     0.289      1.327     77.25729  23.7132        313
 0.00  99.0000    819.2966    892.6593  42.74    -67.37432     0.564     0.339      0.000     77.23104  99.0000        314
 5.81   0.5250    819.4675    702.4685 -77.33     159.7779     0.906     0.654      3.341      77.2398  22.5412        315
 3.50  99.0000    823.6505   1039.6748 -46.00    -118.6937     0.581     0.331      1.400      77.2398  99.0000        316
 7.19   2.1061    810.8054    843.1613   0.92     39.86047     1.452     0.395      5.181     77.30103  24.0486        317
 0.00   2.0523    809.1948    616.4502  60.05      40.9288     0.936     0.197    -21.105     77.34474  24.0199        318
 3.50   0.0148    803.8774   1378.6176 -25.36     5681.842     1.603     1.509      3.105     77.31852  18.6638        319
 3.50   0.0053    800.1184    695.5565 -64.85     15869.16     1.926     1.710      3.516     77.26604  17.5486        320
 4.10   0.0268    795.4760    695.4899 -56.55     2895.156     1.203     1.128      2.630     71.32491  19.3958        321
 4.93  99.0000    805.0231    859.9769  45.00    -30.87051     1.209     0.289      1.506     77.30978  99.0000        322
 3.76   0.0301    801.5091     41.0886 -27.73     2786.107     1.413     1.194      3.036     77.22229  19.4375        323
 4.03   0.1728    794.2845    295.9999  28.64     485.6311     0.851     0.219      1.416     77.29229  21.3342        324
 0.00  99.0000    789.3176    872.3412 -43.94    -148.8808     0.574     0.335      0.000     77.24855  99.0000        325
 4.58   0.5056    786.2718   1348.8359  26.33     166.0285     0.915     0.203      1.712     77.30103  22.4995        326
 3.50   0.0355    774.7040   1427.5836 -75.40     2365.005     2.569     1.893      5.219     77.28354  19.6154        327
 8.24  99.0000    776.9769   1154.6436  61.72    -113.7806     0.936     0.205      0.322     77.30978  99.0000        328
 7.71   2.8362    774.6102    826.9153  28.89     29.59617     0.941     0.203      1.226     77.29229  24.3719        329
 6.75   0.1857    768.3767    140.7048 -64.73     451.8264     1.260     0.531      3.819      77.2748  21.4126        330
 4.58   0.5508    765.4047    567.7097  71.07     152.3228     1.181     0.257      1.419     77.25729  22.5931        331
 0.00  99.0000    764.9336    834.6593 -87.00    -2.152352     0.810     0.473      0.000     77.24855  99.0000        332
 0.00  99.0000    762.6816    957.0000  28.30    -135.0784     0.899     0.213      2.287     77.29229  99.0000        333
 3.50   3.5054    761.3489     41.9999   0.00     23.96204     0.807     0.477      1.196     77.34474  24.6012        334
 0.00   1.4546    759.6019   1020.3093  71.25      57.6811     1.220     0.259     -5.636     77.25729  23.6474        335
 8.40   0.2495    758.0253   1340.9747 -45.00     336.4818     1.197     0.289      3.134     77.30978  21.7326        336
 7.38   0.1643    754.7359    195.0281   1.28     510.8331     0.726     0.441      3.289     77.29229  21.2793        337
 4.48   0.0565    743.5812    556.2144 -23.74      1486.26     1.169     1.130      2.966     77.28354  20.1198        338
 4.25   0.1600    738.8983   1157.9391  -5.11     521.3395     1.189     0.975      2.671     76.80098  21.2572        339
 5.82   0.1335    736.9972    649.5864 -75.11     628.5547     1.041     0.923      3.193     77.26604  21.0541        340
 3.50   0.0013    727.4346    848.3109 -62.22     65911.84     1.939     1.833      3.346     77.26604  16.0026        341
 3.55   0.2181    722.0690   1394.6014 -54.17     384.9766     1.100     0.942      2.566     77.32726  21.5864        342
 4.37   0.0855    728.2220   1178.2739 -88.21     981.8749     1.259     1.184      3.115     77.32726  20.5699        343
 0.00  99.0000    720.0156   1198.6880  37.94    -49.72027     1.020     0.310      6.122     77.28354  99.0000        344
 3.85   0.0558    716.8208    808.2562 -62.02     1503.585     1.343     1.068      3.060     77.31852  20.1072        345
 4.71   0.0681    709.7173   1163.7421  29.71     1231.544     1.272     1.179      3.004     77.25729  20.3239        346
 0.00   7.3516    707.8647    794.4321  68.69     11.41915     0.611     0.475      0.000     77.30103  25.4059        347
 4.07   0.0535    705.0020   1339.0494 -26.07     1551.547     1.702     1.368      3.973      76.4658  20.0731        348
 0.00  99.0000    708.0000   1079.9551   0.00    -89.04009     0.847     0.289     -5.161     77.32726  99.0000        349
 3.93   0.0357    703.5070    952.4031  48.61     2349.732     1.412     1.372      3.219     77.25729  19.6225        350
 3.95   0.1387    699.6144    582.3786  -6.14     605.0453     1.750     1.076      3.808      77.2748  21.0955        351
 3.50  99.0000    699.6514   1104.0460 -28.80    -124.2643     0.912     0.210      3.245     77.32726  99.0000        352
 6.29   0.1005    692.6816   1213.4618 -13.18     835.0386     1.195     0.874      3.910      77.2398  20.7457        353
 6.53   0.1212    687.8627   1213.5134 -68.84     692.0602     1.594     0.708      4.472      77.2398  20.9496        354
 7.17   0.2538    692.9612    315.8242 -89.02      330.755     0.737     0.380      2.720     77.30978  21.7512        355
 3.50   0.7043    693.3105    275.0000  28.38     119.1198     0.888     0.215      1.786     77.25729  22.8600        356
 0.00   1.5175    692.0005    686.0005  45.00      55.3285     1.190     0.289      7.141     77.30978  23.6926        357
 3.64   0.0418    686.2928    644.1157  18.16     2007.306     1.386     1.258      3.097     77.22229  19.7935        358
 3.50   0.3194    688.1910    130.8397 -41.22      262.825     0.715     0.558      1.639     77.30978  22.0008        359
 0.00  99.0000    682.0001    711.3258 -61.77    -34.48305     0.909     0.212     -2.232     77.30978  99.0000        360
 0.00  99.0000    679.9164    873.2916  62.82    -36.63028     0.907     0.211      0.000     77.24855  99.0000        361
 0.00 122.4663    676.0003    863.6665 -61.84    0.6818314     0.919     0.209      5.516     76.88895  28.4658        362
 6.99   0.2159    669.6736   1221.2554 -61.15     386.3276     0.941     0.540      3.490     76.80978  21.5826        363
 7.29   0.5971    667.1979   1180.2960  -4.07     140.5694     0.991     0.393      3.914     77.28354  22.6803        364
 3.50   0.0013    649.1278   1464.2970 -60.36     65432.27     1.881     1.777      3.233      77.2398  16.0105        365
 4.52   0.1362    655.6266    870.9739  53.62     616.4527     1.000     0.763      2.643     77.29229  21.0753        366
 3.65   0.1914    647.0808    652.9033  50.72     438.1313     0.833     0.618      2.034     77.22229  21.4460        367
 3.50   0.2363    642.5601    276.5157  60.45     355.2298     1.468     0.756      2.600     77.28354  21.6737        368
 3.50   0.5813    639.1351    205.5991  81.18     144.5022     0.768     0.481      2.165     77.34474  22.6503        369
 3.50   0.3604    635.0000    106.0459   0.00     233.0779     0.874     0.289      1.430     77.34474  22.1312        370
 4.23   0.1171    631.4108    806.0190 -88.99     716.6446     1.270     0.959      2.936      77.2748  20.9117        371
 3.50  99.0000    629.7142    942.1138 -50.77    -57.00714     0.869     0.488      2.539     77.23104  99.0000        372
 0.00  99.0000    628.0646    868.6452  86.82    -131.4809     0.801     0.477      0.000     77.29229  99.0000        373
 3.98   0.0794    624.2649   1581.3937 -31.86     1058.289     1.221     0.954      2.728       77.336  20.4885        374
 7.04   0.2876    619.1565   1150.5021  76.45     289.9282     1.338     0.564      2.638     76.78338  21.8943        375
 0.00  99.0000    613.3334   1026.9771 -28.56    -155.0585     0.906     0.212      2.440     77.30978  99.0000        376
 7.28   1.3912    613.0000    995.0449   0.00     60.36532     0.882     0.289      2.869     77.32726  23.5980        377
 5.61   0.6096    610.2850    945.0278  80.89     137.6916     0.781     0.694      2.364     77.28354  22.7027        378
 5.29   0.7648    608.4229   1011.8737  31.56     109.7801     0.801     0.307      2.182     77.30978  22.9487        379
 3.50   0.0015   1564.5637    304.2741 -49.92     57267.19     1.844     1.738      3.416      77.2748  16.1552        380
 6.78   0.7530    588.9420   1139.6989 -62.51     111.3717     0.907     0.211      1.031     77.22229  22.9331        381
 6.82   1.0052    586.2841   1172.6737  42.47     83.44703     0.552     0.344      2.373      77.2398  23.2465        382
 6.88   0.3069   1594.3400   1383.3201 -45.89     267.2543     0.574     0.335      2.443     75.52294  21.9827        383
 3.65   0.0513   1571.3882     92.6983 -52.64     1635.995     1.348     1.198      3.011     77.24855  20.0155        384
 0.00 1035.5614   1586.6826      9.9761 -27.91   0.08105693     0.911     0.211      0.000     77.29229  30.7780        385
 5.47   0.0855   1566.3284    678.9268  27.22     980.6489     0.952     0.198      2.129     77.22229  20.5712        386
 4.92   0.2990   1592.7047    566.6732 -42.45     280.5241     1.137     0.680      3.451      77.2398  21.9301        387
 3.69   0.0728   1585.8879   1108.8694 -62.92     1151.618     1.227     1.086      2.786     77.23104  20.3967        388
 3.50   0.3090   1586.4115   1069.5790  -2.91     271.6276     1.034     0.490      2.172     77.28354  21.9651        389
 0.00   2.3949   1570.8909     33.8909  45.00     35.01012     1.199     0.289      0.000     77.20478  24.1895        390
 6.49   0.4357   1561.7128    385.2873  45.00     192.4938     0.536     0.350      2.051     77.23104  22.3390        391
 3.50   0.0792   1562.1267    861.5934  31.52     1060.619     1.172     1.030      2.704     77.32726  20.4861        392
 0.00   2.2686   1576.9572    503.6237 -87.62     37.01346     0.789     0.484      1.183     77.31852  24.1291        393
 0.00  99.0000   1571.6410   1338.6987 -47.59    -21.72324     0.574     0.334      0.000     77.22229  99.0000        394
 5.06   0.2477   1576.0000   1491.1226   0.00     338.9688     0.857     0.289      1.837     77.30978  21.7246        395
 7.06   0.8075   1561.6597   1568.2986  47.12     103.8699     0.565     0.339      1.659     77.23104  23.0088        396
 3.50   0.0049   1553.5050    682.1597 -30.41     17005.47     4.479     3.633      8.090     77.23104  17.4735        397
 3.50   0.0015   1558.8643    487.7159 -47.49     56751.53     1.801     1.716      3.409     77.24855  16.1651        398
 6.35   1.9394   1555.3480   1333.3260 -45.90     43.25181     0.580     0.331      0.910      77.2398  23.9600        399
 5.02   0.2096   1532.8790    415.9926 -15.18      400.516     1.620     1.145      4.049     77.30103  21.5434        400
 3.96   0.0282   1308.4155    669.6161  74.02     2971.479     1.434     1.345      3.298     77.29229  19.3676        401
 3.55   0.0339   1543.4832    654.6148 -49.77      2473.47     1.318     1.185      2.924     77.30978  19.5667        402
 3.55   0.0258   1542.7063    135.1601 -60.54     3252.169     1.452     1.311      3.167     77.21354  19.2696        403
 6.66   1.2656   1534.0240    457.6747  62.15     65.95637     0.922     0.209      1.305     76.86256  23.5019        404
 5.95   0.2624   1528.9998    733.1169  28.58     319.9113     0.939     0.578      2.420     77.29229  21.7874        405
 3.50   0.3510   1499.7466    844.1359 -48.28     239.0358     0.908     0.443      1.451     77.26604  22.1038        406
 6.24   0.2521   1525.5830    378.8531  22.24     333.1208     0.754     0.434      2.993     77.31852  21.7435        407
 6.25   0.2314   1521.7218   1100.9541 -75.95     362.5959     1.049     0.578      3.020     77.25729  21.6514        408
 5.56   0.2209   1515.9574   1546.9022  79.94     379.6353     1.466     1.003      4.186     77.23104  21.6016        409
 3.50  99.0000   1510.0651    958.3116 -87.53    -32.91369     0.828     0.462      1.585     77.25729  99.0000        410
 6.65   0.8733   1502.2192   1412.3424  16.00     96.13366     0.821     0.360      2.252     77.30103  23.0928        411
 7.79   0.3523   1523.1821     14.5840  60.01     238.2294     0.864     0.274      2.734     77.29229  22.1075        412
 3.50   0.0027   1508.0385    269.3915 -55.20     30770.97     1.701     1.598      3.360     77.30103  16.8296        413
 6.78   1.2941   1504.0844   1313.0000  90.00     64.86383     0.886     0.289      1.507     77.29229  23.5200        414
 6.20   0.3478   1489.3719     77.5806  85.85     241.3519     0.966     0.731      2.586     77.29229  22.0934        415
 4.99   0.2751   1292.1504    545.3427  -1.13     305.0824     1.120     0.644      1.856     77.28354  21.8390        416
 0.00   3.3284   1290.5000    132.7500  83.38     25.18228     1.124     0.416      0.000     77.17851  24.5473        417
 3.50  99.0000   1484.0216    719.6592  62.24    -77.15691     0.941     0.203      5.648     77.31852  99.0000        418
 4.71   0.1341   1483.4548    574.7575 -38.65     626.1072     1.757     0.894      4.529     77.29229  21.0584        419
 6.81   0.1618   1476.0735    998.6126 -82.11     516.0173     0.889     0.476      3.330     76.89774  21.2683        420
 7.52   1.5484   1477.9769    199.0000  90.00     54.19964     0.879     0.289      1.415      77.2748  23.7150        421
 6.61   1.5413   1387.9235   1384.7799  78.46     54.47833     1.020     0.829      2.670     77.31852  23.7094        422
 0.00  99.0000   1489.0229    432.0000  90.00    -149.6676     0.879     0.289      5.273      77.2748  99.0000        423
 3.50   0.0926   1293.9403    412.7856  26.42     906.8652     1.239     1.029      2.717     77.29229  20.6561        424
 7.11  99.0000   1448.3494     36.9759 -28.38    -31.74048     0.926     0.208      5.559       77.336  99.0000        425
 7.32  99.0000   1389.2616   1584.8925  26.84    -84.05429     0.875     0.216      5.251     77.25729  99.0000        426
 3.60   0.0250   1436.1575    224.7849 -42.72     3364.078     1.419     1.279      3.024     77.30103  19.2328        427
 4.11   0.0503   1416.4310   1386.5654  58.43     1665.301     1.480     1.276      3.115     77.15223  19.9963        428
 3.50  99.0000   1468.0000    555.9629   0.00    -12.01499     0.783     0.289      1.335      77.2748  99.0000        429
 5.48   0.1792   1443.3254   1071.9763  27.85     468.3687     0.922     0.209      1.691     77.30103  21.3735        430
 3.50  99.0000   1331.3258    555.6967  46.21    -2.268762     0.561     0.341      1.268      77.2398  99.0000        431
 3.50   0.6473   1437.3201   1346.9047  56.08      129.565     1.151     0.660      1.907     77.22229  22.7688        432
 0.00  99.0000   1451.0000   1263.0457   0.00    -130.7852     0.865     0.289      5.189     77.34474  99.0000        433
 5.92   0.3006   1439.5244    646.8512  46.12     279.0481     1.185     0.527      2.946      77.2398  21.9358        434
 7.69   4.5950   1450.7170     88.4736  73.12     18.25535     0.857     0.452      1.379      77.2398  24.8965        435
 3.84   0.0326   1440.6783    619.1797   6.10     2571.666     1.274     1.154      3.001     77.30103  19.5245        436
 0.00  99.0000   1455.6666    512.6857 -45.92    -17.79934     0.569     0.338      0.000     77.23104  99.0000        437
 3.50   1.7987   1419.6952    618.0643  27.39      46.6513     0.915     0.209      3.505     77.26604  23.8778        438
 7.19  99.0000   1454.9802    661.6469 -89.04      -6.8294     0.804     0.478      3.908     77.30978  99.0000        439
 3.50  99.0000   1442.0642    968.6452  86.85    -62.32552     0.801     0.477      0.423     77.29229  99.0000        440
 4.60   0.0878   1401.4495   1031.5944  30.83     957.0622     1.174     1.071      3.605     77.34474  20.5976        441
 3.50   0.0006   1435.4160   1090.2712  43.09       140605     1.761     1.634      3.356     77.34474  15.1800        442
 5.90   0.1810   1439.5901   1271.1183  77.35     463.5768     0.917     0.669      2.835     77.28354  21.3847        443
 5.91   0.2144   1432.8444    341.4587   2.64     391.3914     1.599     1.241      4.374     77.28354  21.5685        444
 6.90  99.0000   1399.2905     84.3548 -41.84     -41.8338     0.567     0.337      3.400      77.2398  99.0000        445
 0.00  99.0000   1434.6666   1456.9235 -27.17    -35.60625     0.960     0.195      0.000     77.22229  99.0000        446
 4.18   0.0331   1391.2625    713.2365  33.90     2534.044     1.340     1.244      3.269     77.29229  19.5405        447
 0.00  99.0000   1412.3408   1410.0446  28.89    -99.63535     0.903     0.212      5.416      77.2748  99.0000        448
 3.50  99.0000   1394.9998    993.6864  61.64    -144.6129     0.892     0.215      2.682      77.2748  99.0000        449
 4.84   0.2035   1407.0566    329.9244  75.74     412.4153     1.506     1.131      2.485      77.2748  21.5117        450
 0.00  99.0000   1423.6742    366.9551 -27.55    -50.42702     0.934     0.205      2.020     77.25729  99.0000        451
 0.00  99.0000   1425.9121   1568.0879 -45.00    -295.0714     1.196     0.289      0.000     77.22229  99.0000        452
 0.00  99.0000   1424.7158    273.1052   3.40    -14.27694     0.841     0.449      0.000     76.98559  99.0000        453
 3.50   0.0344   1409.0771    308.3878  15.13     2442.133     1.404     1.330      3.056       77.336  19.5806        454
 0.00  99.0000   1418.6593    195.3626  44.25    -184.2222     0.593     0.323      0.000     77.30103  99.0000        455
 5.57   0.1244   1412.0881    350.1978  48.06     674.4196     1.434     1.149      4.291      77.2748  20.9777        456
 6.22   0.1952   1414.7061      1.1895  79.63     320.7087     1.222     0.330      3.097     57.64546  21.7847        457
 5.93   0.2204   1331.1887    386.7251  -4.13     381.0647     1.356     0.916      3.307       77.336  21.5975        458
 0.00  99.0000   1348.0000    121.0000   0.00    -182.0319     0.857     0.289   -120.278     76.87136  99.0000        459
 3.50   0.0011   1394.2742    114.4737 -50.74     77438.81     1.885     1.760      3.432     77.25729  15.8276        460
 3.72   0.0117   1389.6078   1428.4995 -42.94     7170.611     1.478     1.438      3.124     77.25729  18.4111        461
 3.56   0.0573   1393.0746   1038.7236  47.33     1463.907     1.179     1.143      2.874     77.24855  20.1362        462
 0.00   2.0112   1400.3478   1312.6522  45.00     41.73583     0.590     0.325      0.000     77.29229  23.9987        463
 0.00  99.0000   1382.6744    693.9766 -27.85    -77.15298     0.922     0.209      5.532     77.30103  99.0000        464
 3.50  99.0000   1394.0149    410.8729  27.54    -35.10611     0.931     0.578      1.322     77.34474  99.0000        465
 5.39   0.1922   1389.8885    806.6842  63.83     436.5017     0.934     0.797      2.892      77.2398  21.4500        466
 7.29   0.4528   1380.4744    319.0000  31.14     185.4292     0.827     0.301      1.927     77.30978  22.3796        467
 7.44   0.4327   1386.1432   1275.5712 -60.71      191.852     0.949     0.197      1.751     76.44811  22.3426        468
 3.50   0.0099   1373.4695   1018.9439 -21.39     8493.204     1.599     1.509      3.261     77.25729  18.2273        469
 7.88   0.1596   1353.4500    152.7114 -80.35     522.5379     1.344     0.399      3.973     76.80978  21.2547        470
 7.36  99.0000   1371.3469    706.3060 -46.91    -61.08145     0.571     0.336      2.462     77.24855  99.0000        471
 0.00  99.0000   1380.3252   1357.9755  27.84    -71.21008     0.922     0.209     -4.048     77.28354  99.0000        472
 0.00  99.0000   1375.3109    728.0222  -0.83     -99.4602     0.830     0.463      0.000     77.28354  99.0000        473
 6.52   0.8570   1347.2411    194.2411  72.37     97.98475     0.871     0.353      1.643     77.32726  23.0721        474
 3.50   0.0029   1320.9097    659.9949 -46.41     29113.16     1.789     1.652      3.325     77.25729  16.8898        475
 7.60   0.8930   1369.3282    149.2370 -52.15     93.99458     0.530     0.347      2.584     77.29229  23.1172        476
 9.13   0.1787   1352.0409    150.6394 -61.47     467.3428     0.931     0.206      3.514     76.88015  21.3759        477
 5.03   0.3277   1346.3090    605.5245 -39.66     255.9548     1.104     0.807      3.207      77.2398  22.0296        478
 0.00  99.0000   1349.8796   1582.3936 -60.42    -256.7079     0.921     0.205   -111.165     77.29229  99.0000        479
 5.15   0.0993   1333.6509    107.5257 -35.84     845.1176     1.248     0.989      2.886      77.2398  20.7327        480
 0.00  99.0000   1323.0000   1076.0583   0.00    -71.76749     0.814     0.289     -2.869     77.34474  99.0000        481
 4.45   0.2645   1300.1038     54.2706 -30.47     317.1918     1.337     0.699      3.021     77.24855  21.7967        482
 4.51   0.1155   1305.6624    892.7546 -51.46     726.7781     1.117     0.967      2.952     77.26604  20.8965        483
 4.10   0.0216   1330.7677    655.8210   5.60     3881.768     1.565     1.428      3.754     77.26604  19.0774        484
 5.18   0.1706   1319.9031    264.2715 -51.80     491.7184     1.419     0.702      2.702     77.24855  21.3207        485
 5.52   0.0520   1294.3606    742.2517  57.16     1614.513     1.360     1.135      4.415     77.30103  20.0299        486
 4.47  99.0000   1308.0000    573.9778   0.00     -11.4162     0.887     0.289      1.645      77.2748  99.0000        487
 3.50   0.0005   1299.2573    724.8708 -45.09     181865.6     2.036     1.906      3.465     77.25729  14.9006        488
 3.80   0.0078   1273.5863    610.0238 -59.51     10754.91     4.041     2.359      6.665     77.28354  17.9710        489
 4.63  99.0000   1315.0791    501.0791  45.00    -57.27168     1.174     0.289      7.043     77.25729  99.0000        490
 0.00  99.0000   1303.2579   1075.2582  69.81    -32.70741     0.844     0.348      0.000     77.25729  99.0000        491
 3.57   0.0127   1292.1824    762.1163 -28.30     6620.778     2.015     1.511      3.562     77.30103  18.4977        492
 4.08   0.0664   1260.2583    432.3774 -69.20      1264.18     1.936     1.766      4.555     77.31852  20.2955        493
 6.26   0.7726   1278.2513    343.6308 -72.57     108.6675     0.820     0.435      3.430     77.30978  22.9598        494
 5.07   0.2048   1229.1622   1154.0223  -5.23     409.9428     1.207     0.877      3.178     77.30978  21.5182        495
 5.95   5.9715   1269.2751    382.8085  43.64     14.06292     1.139     0.352      3.285     77.32726  25.1798        496
 3.70   0.0091   1211.5781   1279.0295  81.79     9263.909     5.603     3.438      9.047     77.30103  18.1330        497
 4.70   0.5003   1244.9656    614.1666  26.96     167.8533     0.968     0.743      2.619     77.32726  22.4877        498
 3.66   0.0257   1266.2163    807.8798 -56.88      3264.12     1.458     1.386      3.173     77.30978  19.2656        499
 0.00  99.0000   1258.9531   1338.0000  90.00    -93.86167     0.865     0.289     -2.709     77.34474  99.0000        500
 5.64   0.1908   1262.9882    855.0235 -23.91     439.9344     1.063     0.721      3.097     77.28354  21.4415        501
 0.00  99.0000   1240.6968    254.3258  43.79    -22.05857     0.561     0.341      0.000      77.2398  99.0000        502
 7.87   1.0098   1232.9342    180.9342  45.00     83.06946     1.180     0.289      3.973      77.2398  23.2514        503
 5.85   0.2069   1238.4458     48.1274 -37.76     405.5359     1.093     0.970      4.188     77.25729  21.5299        504
 4.36   0.0518   1237.9348   1553.4390   8.62     1618.988     1.463     1.342      3.204     77.29229  20.0269        505
 0.00  99.0000   1209.0000    483.0223   0.00    -37.68696     0.835     0.289     -8.882      77.2748  99.0000        506
 0.00  99.0000   1243.3547   1580.0000 -27.94    -196.4137     0.947     0.202     -8.132     77.34474  99.0000        507
 3.50   0.0059   1215.4137    513.0160 -58.65      14225.6     1.622     1.535      3.220     77.29229  17.6673        508
 3.72   0.0091   1219.6714   1195.0002 -33.05     9238.735     1.696     1.569      3.361     77.32726  18.1360        509
 6.44   0.0978   1230.6921    599.3123   7.88     857.6498     1.457     1.283      5.162     77.22229  20.7167        510
 7.07   0.0625   1214.3230   1430.0413  24.67     1334.348     2.005     1.338      6.272     76.83618  20.2368        511
 3.50   0.1603   1181.8214    549.1692 -34.46     523.5549     1.262     0.910      2.484     77.29229  21.2526        512
 7.15   0.2305   1211.4623    829.1664 -77.55     364.1951     1.111     0.582      3.781     77.29229  21.6467        513
 3.50   0.8582   1205.4451   1217.0804 -43.31     97.76365     1.099     0.651      2.245     77.25729  23.0746        514
 6.99   0.0938   1212.2479   1431.1888 -42.58      890.499     3.016     2.153     14.093     76.88015  20.6759        515
 4.36   0.0835   1201.8033   1442.1141  61.01     1004.929     1.635     1.434      4.107     77.28354  20.5447        516
 0.00   0.9741   1214.3412     72.3177 -46.06     86.13636     0.574     0.335      0.000     77.25729  23.2120        517
 5.18  99.0000   1184.9764    211.0236  45.00    -25.69759     1.183     0.289      1.610     77.30978  99.0000        518
10.17  99.0000   1190.9773    534.3257  89.07    -9.540858     0.821     0.469      3.049     77.30103  99.0000        519
 5.29   1.4307   1185.6387    313.6807 -46.66     58.65031     0.583     0.329      1.367     77.26604  23.6293        520
 6.25   2.7847   1164.0001      3.0001  45.00     25.37663     1.165     0.289      0.343     65.07063  24.5389        521
 0.00  99.0000   1183.6313    148.9787  -1.13    -19.79176     0.794     0.482      4.376     77.29229  99.0000        522
 8.68   1.1945   1138.6825    876.0001 -28.31     70.27235     0.898     0.214      2.637     77.29229  23.4330        523
 5.88   0.4333   1158.0002    185.6608  61.91     193.8607     0.927     0.207      2.103     77.34474  22.3313        524
 3.62   0.0150   1158.7014    236.4605  16.11     5585.849     1.455     1.418      3.132     77.23104  18.6823        525
 6.99   0.3362   1167.9810   1600.0000  90.00     180.9843     0.855     0.289      2.567     56.02802  22.4059        526
 3.50   0.0017   1165.9758   1299.8174  86.14     48730.62     1.813     1.766      3.381     77.28354  16.3305        527
 5.26   0.2024   1162.6060    887.8896 -58.45     414.4615     1.377     1.026      3.074     77.25729  21.5063        528
 0.00  99.0000   1162.6899    827.6434 -42.99     -95.4864     0.577     0.333      0.000     77.25729  99.0000        529
 3.50   0.0028   1139.3357    148.0973 -35.03     30294.02     1.766     1.690      3.355     77.26604  16.8466        530
 3.50   0.0053   1130.7299    183.5773 -81.24     15992.02     1.598     1.564      3.263     77.32726  17.5402        531
 5.19   0.2729   1131.9857    358.7658 -25.89     307.5633     1.187     1.012      3.312     77.30103  21.8302        532
 4.74   0.2814   1088.0424    639.6243 -61.65     298.4753     0.949     0.201      1.854     77.32726  21.8627        533
 4.59   0.0381   1120.9690    329.7617  60.06     2204.683     2.154     1.643      5.073     77.30978  19.6916        534
 5.57   0.0624   1111.4358    479.1220  -8.48     1345.565     2.185     1.546      7.241      77.2748  20.2277        535
 3.63   0.6992   1116.7325   1170.2500  44.31     120.0164     1.106     0.353      1.296     77.26604  22.8519        536
 3.50   0.0029   1095.6849    778.2009 -17.24     28871.42     1.750     1.708      3.300     77.28354  16.8988        537
 5.36   0.4403   1095.3679   1136.3704 -66.26     190.7256     0.948     0.793      2.197     77.31852  22.3490        538
 5.40   0.2602   1085.9332   1452.5042  86.19     320.6983     0.794     0.498      3.137     76.82738  21.7848        539
 0.00  99.0000   1105.6193    602.7209 -49.62    -21.13187     0.571     0.333      0.000     77.30978  99.0000        540
 0.00  99.0000   1100.9541   1366.6666 -88.02    -23.52253     0.816     0.471      0.000     77.28354  99.0000        541
 4.36   0.0542    987.5645    454.0034 -84.23     1547.744     1.724     1.239      4.532     77.30103  20.0758        542
 3.50   0.0092   1082.6125   1148.1832 -78.89     9129.301     1.612     1.518      3.162     77.28354  18.1489        543
 5.82   0.1044   1091.4381    468.3971 -62.60     804.2501     1.708     0.832      4.511     77.28354  20.7865        544
 3.50  12.6536   1074.6165    915.3459  46.10     6.635913     0.603     0.314      2.408     77.31852  25.9952        545
 5.09   0.2757   1079.9874    329.9958 -46.54     304.3696     1.032     0.826      2.359     77.25729  21.8415        546
 5.47   1.8488   1021.2866   1154.5532  40.27     45.39256     0.596     0.310      1.394      77.2748  23.9075        547
 3.83   0.2797    976.9110    794.2963  62.89     298.0909     0.916     0.208      1.425     76.76577  21.8641        548
 7.78   1.1782    977.7546   1280.7546  71.48     71.26192     0.859     0.351      3.029     77.30978  23.4179        549
 6.27   0.1372    979.1784    452.8413 -65.67     611.9493     0.888     0.802      3.463     77.30978  21.0832        550
 0.00  99.0000   1056.0653   1021.6884  87.52    -150.1198     0.828     0.462      0.000     77.26604  99.0000        551
 4.68   1.4354    982.9170   1487.0117 -62.85     58.48626     0.831     0.504      1.930     77.30103  23.6324        552
 5.30   0.0872    981.6188    797.8758 -35.27     962.8611     1.410     1.126      4.056     77.32726  20.5911        553
 3.50   0.0029    985.6562    558.4438 -55.76     28652.05     1.715     1.611      3.306     77.28354  16.9071        554
 6.93   0.2768    999.2666    232.6800  41.32     303.0808     0.541     0.347      2.239      77.2398  21.8461        555
 0.00  99.0000   1001.6257   1025.6871 -47.35    -199.9796     0.585     0.327      0.000     77.28354  99.0000        556
 0.00  99.0000    984.3691    762.6739  46.56    -102.9435     0.589     0.325      0.000      77.2748  99.0000        557
 7.45  99.0000   1049.0681    960.6970  62.65    -64.87341     0.915     0.209      1.373     77.26604  99.0000        558
 3.50   0.0101   1039.5236    525.3901 -39.08     8282.249     1.506     1.434      3.107       77.336  18.2546        559
 3.50   0.0020   1041.0369    633.0378 -47.26     41521.51     1.790     1.678      3.353     77.34474  16.5043        560
 4.78   2.2859   1042.6060   1095.0000   0.00     36.70337     0.778     0.489      2.529     77.25729  24.1382        561
 7.68   0.2841   1041.4164    467.0417 -31.63      295.514     0.795     0.309      2.220     77.30978  21.8736        562
 0.00  99.0000   1001.6949    872.5889 -41.58     -21.9185     0.594     0.317      0.000     77.26604  99.0000        563
 3.50   0.0045   1026.5736   1379.9995 -66.16     18731.77     1.764     1.651      3.270      77.2748  17.3686        564
 3.50   0.0476   1031.1125    302.6948  69.31     1760.649     2.541     1.701      4.957     77.20478  19.9358        565
 7.01  99.0000   1019.6667    899.3333  45.00    -38.02602     0.577     0.333      1.843      77.2398  99.0000        566
 4.54   0.1106   1000.7357   1273.7418 -65.17     758.3996     1.240     1.101      2.894     77.26604  20.8503        567
 0.00  99.0000   1026.3267   1028.4069 -42.70    -142.8034     0.603     0.312      0.000     77.32726  99.0000        568
 3.50   0.0052   1010.6215    813.6618 -63.49     16136.88     1.712     1.611      3.296     77.31852  17.5305        569
 3.64   0.0359   1011.9659    344.7171 -70.11     2334.764     1.372     1.135      2.989     77.28354  19.6294        570
 3.54   0.0754   1002.3831   1555.3813 -79.67     1113.877     1.259     1.135      2.801     77.29229  20.4329        571
 3.74   0.0309   1002.4560    542.4586  62.69     2711.086     1.377     1.265      3.139     77.25729  19.4671        572
 8.21   0.4168   1014.6600    453.6802 -45.91     201.3064     0.574     0.335      3.041     77.26604  22.2904        573
 6.57   0.2532   1012.6345    267.1779 -74.01      331.498     1.490     0.546      4.861     77.30103  21.7488        574
 0.00  99.0000   1009.6518   1324.0000  28.01    -141.8886     0.939     0.204    -32.246     77.34474  99.0000        575
