#   1 KRON_RADIUS            Kron apertures in units of A or B                         
#   2 Y_IMAGE                Object position along y                                    [pixel]
#   3 MAG_BEST               Best of MAG_AUTO and MAG_ISOCOR                            [mag]
#   4 FLUX_BEST              Best of FLUX_AUTO and FLUX_ISOCOR                          [count]
#   5 X_IMAGE                Object position along x                                    [pixel]
#   6 THETA_IMAGE            Position angle (CCW/x)                                     [deg]
#   7 A_IMAGE                Profile RMS along major axis                               [pixel]
#   8 B_IMAGE                Profile RMS along minor axis                               [pixel]
#   9 MAGERR_BEST            RMS error for MAG_BEST                                     [mag]
#  10 NUMBER                 Running object number                                     
#  11 FLUXERR_BEST           RMS error for BEST flux                                    [count]
 3.50      8.5337  16.3663     47150.46    753.8251  60.49     1.375     1.363   0.0011          1      49.0665
 3.98     33.6869  18.3686     7456.791    450.4712 -45.79     1.232     1.145   0.0071          2     48.72457
 8.71     69.8053  19.2622     3274.328   1463.4071 -71.30     0.761     0.450   0.0175          3     52.68147
 9.38     96.1218  17.8784     11712.13   1125.8981 -76.47     0.992     0.705   0.0074          4     80.12527
 3.72     95.9752  16.7274     33809.14    917.6512   8.18     1.345     1.282   0.0016          5     50.07829
 3.67     95.3703  19.4062     2867.521    347.6633 -41.15     0.970     0.857   0.0128          6     33.71773
 6.46    107.2876  19.5466     2519.754     47.8193 -73.14     1.074     0.656   0.0240          7     55.76482
 5.82    126.5465  19.9305     1769.357    301.4945  36.21     0.502     0.495   0.0188          8     30.59834
 3.50    151.7228  17.6182     14884.58     46.1761  12.84     1.247     1.146   0.0032          9     43.27259
 0.00    144.6546  99.0000    -8.622192    213.2779  48.77     0.557     0.341  99.0000         10     28.32856
 6.89    159.4227  19.0656     3924.151     50.8405  64.72     1.123     0.576   0.0155         11     56.06383
 3.50    213.1703  14.0734     389629.8    967.8254   6.11     1.690     1.644   0.0002         12     59.53492
 3.72    186.2118  18.3414     7646.109    378.7480  -8.72     1.115     1.041   0.0059         13     41.29562
 8.58    184.6100  19.2115     3430.778   1263.2317 -17.68     0.736     0.455   0.0161         14     50.74161
 4.25    205.7045  19.7018      2184.07    986.0535   7.47     0.713     0.672   0.0147         15      29.4853
 3.77    206.9375  19.2595     3282.361     21.8411  -5.76     0.908     0.735   0.0105         16     31.67229
 3.50    238.2898  14.6523     228605.1   1390.1582  -3.69     1.593     1.538   0.0003         17     56.06383
 3.50    225.9340  17.6051     15064.15   1093.7515  -6.04     1.211     1.140   0.0030         18     41.29562
 8.08    219.6556  20.1600     1432.134   1021.6714 -45.65     0.580     0.332   0.0284         19     37.47516
 6.60    227.1519  18.9426     4395.028    975.7388  23.84     0.947     0.665   0.0133         20      53.6251
 6.70    237.4840  19.9947     1667.715    837.9660   0.46     0.799     0.500   0.0277         21     42.49284
 4.65    243.6980  18.8516     4779.126    567.0759   5.73     1.012     0.867   0.0101         22     44.41655
 4.93    248.5117  19.1196     3733.798    578.0966  76.98     0.974     0.870   0.0137         23      46.9776
 4.06    259.9771  18.0271     10212.79   1427.0297  32.54     1.079     1.060   0.0048         24     45.16311
 6.18    287.5581  17.8058     12522.01   1328.6306 -75.04     1.710     1.123   0.0076         25     87.31448
 6.90    279.9722  20.1876     1396.259   1129.0000  90.00     0.842     0.289   0.0250         26     32.19584
 3.50    282.1113  19.7402     2108.172    955.6761  18.33     0.884     0.682   0.0143         27      27.7321
 4.51    314.7289  19.0939     3823.457    793.1882  -7.86     1.095     0.833   0.0125         28     44.03853
 7.99    324.9998  21.5154     410.9792    290.0000  90.00     0.820     0.289   0.1070         29      40.4778
 3.98    333.7581  18.4938      6644.67    789.7813 -85.07     1.149     1.032   0.0073         30     44.41655
 3.85    339.0500  17.3972     18244.15    596.8334  21.31     1.347     1.203   0.0030         31     50.07829
 3.50    374.9164  14.5472       251832   1263.4199 -11.08     1.642     1.558   0.0003         32     58.11383
 6.01    362.1308  19.3893     2912.469    709.0848 -45.63     0.858     0.668   0.0174         33     46.62035
 5.33    361.2755  21.3429     481.7523    640.6434  40.68     0.560     0.339   0.0553         34     24.53325
 6.53    364.4894  20.0201     1629.146    504.5386 -48.87     0.504     0.494   0.0218         35       32.711
 6.31    375.8721  18.2651     8202.759   1364.7144 -44.39     1.518     1.170   0.0114         36     85.96368
 5.69    373.6692  24.1472     36.40112   1563.6791 -45.47     0.571     0.337   0.7715         37     25.86032
 4.26    390.4198  18.9165      4502.07   1463.5830 -51.15     1.057     0.829   0.0099         38     40.88875
 4.41    393.4999  20.2690     1295.376   1318.5051 -45.08     0.505     0.495   0.0194         39     23.13017
 7.72    402.7296  19.1497     3631.633    825.3961 -72.26     0.749     0.454   0.0138         40     46.26034
 3.50    414.5235  17.6371     14627.73     67.9640 -88.51     1.241     1.170   0.0032         41     43.27259
 3.50    418.0926  17.2746     20424.93   1308.7546   3.31     1.335     1.217   0.0024         42     45.89751
 0.00    434.0663  99.0000     -42.6593    658.3311  82.38     0.744     0.644  99.0000         43     24.53325
 3.50    458.7441  15.8648     74829.63     13.2296 -37.37     1.492     1.401   0.0007         44     51.39637
 6.71    452.7018  18.5924     6067.775   1221.1836  40.36     1.095     0.694   0.0109         45     60.92287
 3.50    466.9967  16.5483     39871.89   1075.5585 -20.62     1.427     1.273   0.0013         46      49.0665
 3.50    489.1604  18.4983       6617.5    574.9230 -19.29     1.101     1.035   0.0062         47     37.91867
 4.24    506.3505  18.4182     7123.651   1142.7244  14.55     1.038     0.914   0.0065         48     42.88449
 0.00    509.2778  99.0000    -32.75732   1563.6588  41.37     0.555     0.342  99.0000         49     24.53325
 6.40    530.2516  24.3478      30.2605    212.6039 -72.48     0.755     0.454   1.3608         50     37.91867
 3.50    548.4669  17.6367     14632.91    374.6524 -51.27     1.288     1.176   0.0032         51     43.27259
 8.55    538.6262  19.1668     3574.913    353.7966  17.85     0.770     0.444   0.0155         52     51.07003
 3.74    558.4240  17.5939     15221.16   1456.6426   6.24     1.280     1.147   0.0033         53     46.62035
 3.50    562.7390  17.0639     24798.54    583.6765 -16.93     1.355     1.223   0.0020         54     46.62035
 3.50    567.6361  17.2680     20549.81    956.5933  15.22     1.442     1.242   0.0026         55     48.72457
 3.73    573.9706  17.2978     19993.44   1028.8879  38.10     1.257     1.245   0.0026         56     48.03341
 7.00    580.9031  19.6855     2217.157   1366.3043  23.29     0.899     0.675   0.0275         57     56.06383
 0.00   1015.3428  99.0000    -33.34839   1447.2975 -47.29     0.565     0.339  99.0000         58     28.91271
 3.50    943.5165  16.7164     34153.34    690.0786  44.57     1.322     1.305   0.0015         59     46.26034
 4.62    937.6874  18.9437     4390.646    842.4064  48.68     1.018     0.918   0.0113         60     45.53179
 3.50    920.0018  16.1039        60040    620.5195 -33.60     1.483     1.397   0.0009         61     51.07003
 3.50    914.4984  24.1662       35.771    471.5129 -45.48     0.505     0.495   0.6081         62     20.03132
 0.00    912.5112  99.0000     -114.155    567.6704  18.28     1.466     0.550  99.0000         63     50.07829
 3.50    880.6385  15.2163     135985.2    166.1975 -41.67     1.558     1.488   0.0004         64     55.16194
 3.50    880.5171  17.8763     11734.54   1341.4749   9.62     1.209     1.098   0.0039         65     41.69851
 6.80    875.4247  19.0848     3855.658     39.7761  86.87     0.956     0.724   0.0163         66     57.82543
 5.55    874.3450  19.0145     4113.535    448.3039  43.81     0.990     0.862   0.0140         67     52.99788
 3.50    863.2215  14.1001     380140.1   1395.8429 -43.35     1.804     1.772   0.0002         68     64.39167
 3.50    850.7582  16.5056     41473.59    215.2323 -15.35     1.419     1.270   0.0013         69     48.72457
 3.50    840.5008  14.3941     289981.5    275.8560  -5.60     1.631     1.541   0.0002         70     56.36126
 3.85    829.3097  25.7465     8.344482    910.3375 -43.66     0.569     0.338   2.4960         71     19.17852
 7.29    795.2935  22.0310     255.6317    936.6273  41.56     0.575     0.332   0.1346         72     31.67229
 3.50    787.8984  17.1860     22162.09    528.0440  -7.80     1.357     1.174   0.0022         73     45.89751
 3.50    777.6007  15.1431       145465    728.2275 -17.65     1.551     1.487   0.0004         74     54.24506
 3.59    771.6260  16.5297     40561.27    369.8672 -20.92     1.358     1.285   0.0013         75     48.38022
 0.00    729.6534  99.0000    -16.43408   1577.3302  45.66     0.582     0.331  99.0000         76     26.49894
 7.36    723.1130  16.6786     35362.45    199.3556  77.08     1.775     1.505   0.0038         77     123.4813
 4.80    710.7004  19.1469     3641.313   1354.8799  30.74     0.982     0.870   0.0134         78     44.79139
 0.00    711.4685  99.0000    -22.67285    555.9477 -79.89     0.747     0.662  99.0000         79     24.53325
 5.92    703.1860  19.6083     2380.634   1040.1483 -39.52     0.792     0.684   0.0206         80     45.16311
 3.78    698.8950  18.3893     7316.288     97.0887 -20.52     1.115     1.020   0.0061         81     40.88875
 3.54    669.6442  18.2313     8462.517   1090.6628   8.72     1.047     1.002   0.0048         82     37.02634
 3.50    665.5748  14.0867     384866.6   1487.1353 -35.97     1.683     1.600   0.0002         83     58.40082
 3.50    655.1586  19.3966         2893    312.7132 -16.37     0.942     0.825   0.0119         84     31.67229
 5.95    654.0309  19.4198     2831.864     16.6808 -78.37     0.721     0.673   0.0166         85     43.27259
 6.22    637.3861  18.5938     6060.266    871.4728 -25.80     1.153     0.959   0.0120         86     67.18707
 7.31    614.4613  19.8371      1928.17    572.5083 -37.94     0.502     0.496   0.0216         87     38.35705
 4.70    612.9728  20.0583     1572.864    590.0347   3.86     0.616     0.604   0.0196         88     28.32856
 0.00    586.6627  99.0000    -11.11938    389.6753 -45.56     0.575     0.334  99.0000         89     20.03132
 0.00   1576.1272  99.0000    -52.11206   1129.8270 -45.15     0.714     0.555  99.0000         90     23.13017
 0.00    990.9874  99.0000    -26.17639    213.5000  88.54     0.780     0.500  99.0000         91     42.49284
 4.21   1567.7410  18.7705     5150.009     19.5486 -16.06     0.948     0.896   0.0084         92     40.06263
 5.70   1560.4543  18.3529     7565.295   1362.2059 -55.20     1.014     0.892   0.0080         93      55.4642
 3.64   1462.3051  16.6964     34789.38    251.3973 -29.15     1.361     1.283   0.0015         94     49.40607
 6.87   1525.6722  24.3372     30.55774   1294.9987  28.23     0.911     0.211   1.0678         95     30.04697
 6.33   1524.5082  20.7433     836.9338   1515.4877 -45.11     0.511     0.488   0.0424         96       32.711
 4.20   1535.6650  18.3207     7793.335    875.8801  -6.41     1.177     0.918   0.0062         97     44.79139
 3.50   1511.4844  15.9219     70996.96   1282.0679 -12.86     1.396     1.325   0.0008         98     49.40607
 3.50   1466.7014  15.7228      85287.9    534.0131   7.30     1.485     1.406   0.0007         99     52.04288
 6.98   1473.5054  20.1976     1383.376   1563.5198  45.70     0.507     0.492   0.0261        100     33.21818
 4.57    996.0776  18.2369     8418.416    145.2588 -57.67     1.157     1.067   0.0068        101     52.68147
 3.50   1416.8661  16.7093     34377.79    953.8477 -14.13     1.338     1.256   0.0015        102      46.9776
 3.50   1002.2164  17.1481     22949.49    998.0946 -24.76     1.272     1.210   0.0021        103     44.79139
 6.76   1421.0579  19.2797     3222.027   1049.7332 -84.33     0.734     0.667   0.0161        104     47.68407
 5.22   1007.1936  19.3753     2950.508   1353.1521  11.97     0.930     0.677   0.0155        105     42.09755
 5.30   1021.9153  18.7754     5126.936    106.6269  18.07     1.213     0.932   0.0122        106     57.82543
 6.91   1028.5962  18.5472     6325.969    607.5695 -21.97     1.473     0.868   0.0139        107     80.74882
 3.50   1399.4707  18.4992     6611.577    899.5739 -11.32     1.124     0.939   0.0060        108     36.57201
 3.50   1385.8469  16.0691     61994.88    907.5899 -24.23     1.459     1.308   0.0009        109     49.74331
 7.29   1341.2932  26.6974     3.475586    390.3075 -44.10     0.548     0.346   9.8965        110     31.67229
 3.50   1037.6610  21.7475     331.8878    208.6505 -44.61     0.587     0.327   0.0463        111     14.16428
 6.29   1029.7521  19.9604     1721.194    310.5815 -19.83     0.986     0.572   0.0314        112     49.74331
 8.74   1041.5128  19.9854     1682.128     23.5005  44.65     0.507     0.493   0.0289        113     44.79139
 3.50   1368.0732  17.4182     17894.19   1439.2480   4.56     1.202     1.170   0.0026        114     42.09755
 4.19   1040.8652  20.0060     1650.466   1084.6525 -77.15     1.067     0.424   0.0194        115      29.4853
 3.97   1238.0380  18.2484     8330.174    384.3324 -47.75     1.162     0.969   0.0056        116     43.27259
 4.52   1239.3766  18.9009     4566.933   1246.1620  83.09     1.113     0.816   0.0104        117     43.65724
 5.55   1308.5393  18.8396     4832.465    133.5595 -25.13     1.015     0.999   0.0127        118     56.36126
 3.50   1312.5579  15.4449     110166.4    923.8445 -14.76     1.515     1.403   0.0005        119     52.99788
 5.81   1278.6492  19.1342     3683.955    260.9317 -60.73     0.875     0.681   0.0138        120      46.9776
 6.60   1276.3993  19.9224     1782.568    569.8483 -19.92     0.734     0.448   0.0231        121     37.91867
 3.50   1285.5226  25.2416     13.28467   1127.4628 -47.20     0.505     0.493   1.6375        122     20.03132
 4.28   1249.1250  18.0522     9980.076     37.9862 -30.12     1.104     0.982   0.0050        123     45.53179
 4.32   1252.7129  19.1071     3777.249    492.8547  79.93     1.093     0.705   0.0110        124     38.35705
 6.90   1242.5549  19.5758     2452.887    865.7887  77.15     0.838     0.621   0.0225        125     50.74161
 3.50   1215.0698  15.0320     161145.9   1195.0428 -78.16     1.476     1.470   0.0004        126     53.93597
 3.50   1245.1102  15.9630     68361.87    570.5760 -22.37     1.442     1.362   0.0008        127     50.41104
 0.00   1111.9489  99.0000    -1.245239      1.8598 -42.34     0.807     0.612  99.0000        128     23.13017
 3.50   1229.8593  17.2431     21026.53   1333.8658  -9.71     1.293     1.205   0.0023        129     45.16311
 4.20   1229.8514  19.0819     3865.644    319.1284 -41.42     0.857     0.839   0.0101        130     36.11197
 3.50   1187.1475  24.7738     20.44019     31.4201 -20.18     0.857     0.651   1.4410        131     27.12253
 4.66   1132.9907  25.1505     14.44775    529.0000  90.00     0.781     0.289   1.7921        132     23.84204
 3.92   1194.6493  17.4167     17919.48   1031.4041 -23.51     1.276     1.133   0.0030        133      49.0665
 4.26   1179.7045  18.9766     4259.485      6.4451 -61.55     0.997     0.933   0.0108        134     42.49284
 4.19   1174.6692  24.2173     34.12512   1126.6654 -44.84     0.577     0.334   0.6375        135     20.03132
 0.00   1142.4834  99.0000    -15.12805    937.0837  -1.92     0.719     0.499  99.0000        136     23.13017
 0.00   1146.6865  99.0000     -19.2605    720.6721 -44.28     0.566     0.339  99.0000        137     36.11197
 4.08   1154.6710  18.6374     5821.317    195.5327   4.60     1.130     0.937   0.0081        138     43.27259
 3.50   1131.2783  16.9261     28155.37    620.9372 -10.55     1.352     1.281   0.0018        139     47.33215
 5.02   1111.6760  19.2186     3408.514   1268.2570 -43.85     1.055     0.848   0.0155        140     48.72457
 4.08   1043.7810  18.9160     4504.126    424.6862   0.46     1.163     0.829   0.0101        141     41.69851
 3.50   1091.0695  18.4868     6687.817    792.6173  57.02     1.128     1.058   0.0062        142     38.35705
 3.50   1095.6605  18.2415      8383.23     16.4552  68.25     1.076     1.007   0.0049        143     37.47516
 4.46   1058.5704  18.3362      7682.46    239.6436 -28.15     1.108     0.998   0.0068        144     48.03341
 7.05   1031.4886  19.7738     2044.003    765.5862 -57.52     0.505     0.487   0.0184        145     34.69526
