#   1 KRON_RADIUS            Kron apertures in units of A or B                         
#   2 MAGERR_APER            RMS error vector for fixed aperture mag.                   [mag]
#   3 Y_IMAGE                Object position along y                                    [pixel]
#   4 X_IMAGE                Object position along x                                    [pixel]
#   5 THETA_IMAGE            Position angle (CCW/x)                                     [deg]
#   6 FLUX_APER              Flux vector within fixed circular aperture(s)              [count]
#   7 A_IMAGE                Profile RMS along major axis                               [pixel]
#   8 B_IMAGE                Profile RMS along minor axis                               [pixel]
#   9 FLUX_RADIUS            Fraction-of-light radii                                    [pixel]
#  10 FLUXERR_APER           RMS error vector for aperture flux(es)                     [count]
#  11 MAG_APER               Fixed aperture magnitude vector                            [mag]
#  12 NUMBER                 Running object number                                     
 3.50   0.0002    182.7405   1107.2815 -34.01     508853.9     5.694     4.919      6.587     77.58652  13.7835          1
 3.89   0.0028     54.0678     63.6179  -6.92      29790.4     4.656     4.450      8.510     77.65679  16.8648          2
 3.68   0.0168     17.3637    984.8643 -88.08      5008.16     3.945     1.796      5.939     77.63045  18.8008          3
 3.50   0.0213     18.7794     91.0175 -64.26     3960.033     1.540     1.445      2.700     77.63045  19.0558          4
 3.50   0.0083     15.4458   1445.5846 -51.60     10191.27     1.656     1.523      2.646     77.63923  18.0294          5
 5.58   0.4568     10.2966   1183.4696  -2.39     184.5102     0.786     0.714      1.822     77.60409  22.3849          6
 5.93   0.9460      7.9055   1469.7234 -62.96     89.06075     0.891     0.213      1.490     77.57773  23.1758          7
 6.09   1.0175      5.0201     54.9799 -45.00      76.7823     1.229     0.289      4.331     71.94092  23.3368          8
 6.28   0.2087      4.2469    145.0632 -10.48     362.0067     1.031     0.624      2.793     69.57997  21.6532          9
 5.18   0.2302     18.1515    384.1561  42.53     366.2998     0.978     0.838      2.145     77.64801  21.6404         10
 4.30   0.0031    235.8859    403.0980 -62.15     27355.91     5.675     4.962     11.563     77.54256  16.9574         11
 7.30   0.2222     24.4480    383.4140 -78.67     379.6284     1.489     0.404      4.595     77.65679  21.6016         12
 3.50   0.0018     60.5787   1078.2400  78.50     48042.29     1.980     1.820      2.795     77.64801  16.3459         13
 3.63   0.0999     25.4014    367.1157 -13.67     843.9301     1.355     1.112      2.571     77.63045  20.7342         14
 7.62   1.1321     27.9211   1357.2938  87.31     74.41824     0.837     0.454      4.490     77.57773  23.3708         15
 4.76   0.5311     31.3545   1108.9049  75.04     158.5937     0.854     0.706      2.067     77.56014  22.5493         16
 7.29   0.1684     34.4380    326.1239 -84.93      500.468     1.042     0.952      4.359     77.61288  21.3016         17
 6.89   0.2377     35.2352   1110.4044 -83.18     354.7774     1.143     0.792      3.635     77.63923  21.6751         18
 5.47   0.2804     39.7402   1170.7202 -35.51     300.5716     1.312     0.617      2.955     77.60409  21.8551         19
 3.50   0.9203     38.8173   1521.2510  34.17     91.62947     1.138     0.596      1.705     77.64801  23.1449         20
 3.50   0.4211     36.6734    334.0000 -28.22     200.3238     0.910     0.211      1.457     77.68313  22.2957         21
 3.50   1.7999     42.5088   1233.0178 -63.10     46.83437     1.201     0.496      1.844     77.62167  23.8736         22
 5.60   3.7944     40.1198   1225.9401 -56.84     22.21096     1.032     0.386      1.950     77.60409  24.6836         23
 4.62   0.3539     43.1543    915.5667 -39.00     238.3081     1.055     0.712      2.209     77.66557  22.1072         24
 3.50   0.0018     80.9682    537.4006 -63.19     45767.85     1.863     1.768      2.723     77.62167  16.3986         25
 7.60   0.3832     44.8834    441.2556  63.30     219.8514     0.870     0.216      1.896     77.57773  22.1947         26
 8.16   0.1267     43.3650     46.9430 -28.77     665.7822     0.927     0.207      2.538     77.64801  20.9917         27
 3.50   0.7004     47.1420    473.7140  63.43     120.2932     0.926     0.202      1.288     77.58652  22.8494         28
 7.42   0.1005     47.3209     47.5859  42.35     839.1291     0.603     0.311      2.239     77.65679  20.7404         29
 6.53   0.2182     47.3486     29.0000  -0.00     386.6685     0.807     0.477      2.553     77.68313  21.5817         30
 6.90   0.3529     48.2545    440.0000   0.00     239.0597     0.713     0.436      2.180     77.68313  22.1037         31
 6.11   0.7783     51.0360   1435.1759 -34.24     108.3206     0.783     0.497      2.309     77.63045  22.9632         32
 7.35   0.5733     52.3333    266.6667  45.00     146.9633     0.577     0.333      2.420     77.57773  22.6320         33
 5.25   3.1005     56.3026   1263.6053  41.67     27.18519     0.588     0.324      1.662     77.61288  24.4642         34
 3.92   0.0529     75.8943    127.6812 -33.15      1593.13     1.254     1.163      2.296     77.57773  20.0444         35
 5.26   1.6350     72.8095    953.8096  45.00     51.54052     1.181     0.289      2.179     77.59531  23.7696         36
 4.18   0.1012     92.0422    377.0393 -77.55     833.5668     1.894     1.601      3.781     77.66557  20.7476         37
 5.50   0.2630     82.9585    421.5509 -54.03     320.6571     1.270     0.623      2.670     77.65679  21.7849         38
 3.50   0.0012    122.5924    788.9217 -59.46     67925.03     1.960     1.816      2.746     77.64801  15.9699         39
 5.81   4.3104     83.6667    179.0218  27.82     19.56331     0.932     0.206      1.741     77.64801  24.8214         40
 3.64   0.0364     97.3301     56.0065 -20.83      2318.33     1.350     1.269      2.452     77.66557  19.6371         41
 8.43   0.4405     92.0239   1075.6587 -61.52     191.4796     0.916     0.210      4.212     77.66557  22.3447         42
 8.46   0.4599     92.1013    495.2714 -63.06      183.178     0.886     0.214      2.123     77.57773  22.3928         43
 8.59   0.7701     94.3855     89.6816  47.31     109.5032     0.592     0.322      2.773     77.64801  22.9514         44
 6.58   0.1495     99.1556    452.2036 -33.18     564.2234     1.374     0.783      5.083     77.67435  21.1714         45
 6.57   0.6180     96.5928   1075.6500  22.40     136.4818     1.188     0.206      1.641     77.66557  22.7123         46
 3.50   0.0003    194.4159    317.8738 -63.56     291316.7     2.296     2.048      2.753     77.68313  14.3891         47
 3.50   1.4785    107.9521    185.3652 -61.41     57.03484     0.933     0.206      1.305     77.64801  23.6596         48
 7.24   0.3394    114.0205    270.3128 -89.22     248.4197     0.829     0.464      2.299     77.63045  22.0620         49
 7.18   0.3130    118.0000     66.5487  57.15      269.516     0.773     0.319      2.368     77.68313  21.9735         50
 3.50   0.0022    163.1416   1468.1309 -54.85     38438.36     1.856     1.772      2.706     77.60409  16.5881         51
 6.41   0.3980    132.4888    418.1703 -25.83     211.7336     1.473     0.469      2.439     77.60409  22.2355         52
 3.50   3.1404    131.3822     62.3194 -47.20     26.85464     0.591     0.323      0.872     77.65679  24.4775         53
 3.50   2.0377    141.0000    178.9660   0.00     41.36432     0.878     0.289      1.042     77.61288  24.0084         54
 3.50   0.0097    171.1748    877.1529  75.67     8719.456     1.557     1.509      2.622     77.66557  18.1988         55
 7.25   0.4650    152.3333   1279.3923 -43.23     181.4178     0.601     0.315      2.218     77.67435  22.4033         56
 7.27   0.1109    160.4779   1148.2367  15.26     759.8992     1.493     0.914      7.123     77.61288  20.8481         57
 3.90   0.1285    165.8038   1445.6472   5.07     656.5001     1.275     0.973      2.349     77.67435  21.0069         58
 5.62   0.0559    172.4979    324.9993  86.12      1507.96     1.358     1.232      3.630     77.59531  20.1040         59
 3.50  99.0000    163.1070    126.3048 -63.08    -64.35026     0.936     0.201      1.117     77.55135  99.0000         60
 6.78   0.6696    163.9584    629.0416 -45.00     125.9263     1.223     0.289      1.615     77.64801  22.7997         61
 3.91   0.1547    167.4874    104.0908 -30.28     544.4943     1.111     0.868      2.203     77.56014  21.2100         62
 3.50   0.7518    166.0419    274.0000  90.00     112.1604     0.849     0.289      1.173     77.64801  22.9254         63
 3.86   0.4234    170.9909   1368.0988 -45.99     199.0244     1.303     0.607      2.167     77.59531  22.3027         64
 6.93   0.5261    169.0000    651.7692  90.00     160.2006     0.679     0.421      2.260     77.61288  22.5383         65
 5.11   0.2812    181.0742    574.6080  50.74     299.9236     1.296     0.874      3.226     77.65679  21.8575         66
 7.63   0.1786    187.0528   1354.2338  56.77     472.2689     1.421     0.779      4.263     77.65679  21.3645         67
 4.35   0.0900    193.5174   1350.4446 -41.44     936.2076     1.305     0.928      2.411     77.60409  20.6216         68
 4.08   0.0228    211.6083    827.3955  -9.36     3698.876     3.731     1.899      6.409     77.62167  19.1298         69
 3.60   0.0490    207.4825    548.8375 -64.15     1721.699     1.396     1.179      2.596     77.62167  19.9601         70
 6.41   0.2659    196.2269    267.9209   3.76     317.0451     0.670     0.417      2.325     77.63045  21.7972         71
 4.39   0.0264    231.0004    562.1113 -29.07     3195.196     3.228     2.772      6.955     77.61288  19.2888         72
 5.63   0.0745    209.3964    349.7953  42.44     1131.821     1.540     1.144      4.310     77.60409  20.4156         73
 7.54   0.2892    196.6142   1159.6317 -45.43     291.5995     0.614     0.304      3.159     77.64801  21.8880         74
 7.66   0.1278    205.2521    301.1124  75.49     659.0713     1.533     0.512      5.649     77.57773  21.0027         75
 3.50   0.1700    211.3650    684.4688  86.20     495.9637     1.579     1.065      3.161     77.63923  21.3114         76
 3.50   0.0525    213.0156   1305.8958  64.26     1606.316     1.267     1.116      2.384     77.62167  20.0354         77
 5.43   0.3204    204.3531    250.7012  59.54     262.7469     0.717     0.627      1.972     77.52497  22.0012         78
 6.65   0.3730    205.8955    937.1046 -45.00     225.6925     1.210     0.289      2.067     77.52497  22.1662         79
 5.65   0.0311    229.7400    414.9763 -37.42     2710.698     1.751     1.628      6.835     77.65679  19.4673         80
 6.99   0.1644    207.3063    415.3468 -43.11     512.6976     0.571     0.336      2.069     77.59531  21.2753         81
 3.85   0.0381    224.5091   1225.8743 -77.75     2212.215     1.418     1.212      2.618     77.58652  19.6879         82
 6.29   0.0903    223.5637    345.8375 -52.05     934.6218     1.667     1.442      5.879     77.68313  20.6234         83
 6.63   0.2921    219.0222    740.5000 -56.89     288.3585     1.457     0.611      3.342     77.56894  21.9002         84
 3.50  99.0000    211.5958    608.7021 -48.74    -58.54562     0.589     0.322      0.921     77.61288  99.0000         85
 8.31   0.0925    217.0000    414.5498 -90.00     912.2034     0.741     0.498      4.324     77.68313  20.6498         86
 3.50   0.0008    260.5682    997.2298 -57.01     103019.6     1.971     1.854      2.738     77.65679  15.5177         87
 3.96   0.1456    223.1898    774.7103 -28.21     578.8731     1.147     0.906      2.146     77.62167  21.1435         88
 8.02   0.1386    219.0000   1126.6863 -61.65     608.3096     0.893     0.215      2.711     77.61288  21.0897         89
 3.50   0.0010    266.6972     67.3779 -75.77     86985.79     1.966     1.875      2.700     77.59531  15.7014         90
 4.10   0.0610    244.3301    112.7150  74.17     1381.449     2.024     1.468      3.866     77.57773  20.1992         91
 3.67  16.5540    224.4765     84.0626 -32.38     5.089958     0.789     0.315      1.127     77.58652  26.2832         92
 4.34   0.4068    232.0000     20.0353   0.00     207.1454     0.831     0.289      1.352     77.59531  22.2593         93
 4.59   0.0243    256.4008    612.6790 -30.02     3475.849     2.267     1.671      4.656     77.64801  19.1973         94
 5.94   0.1673    239.8350    838.3710 -20.31     503.9713     1.451     0.794      3.345     77.63045  21.2940         95
 6.27   0.1348    250.8141    107.8769 -74.34     625.9659     1.569     1.055      4.900     77.68313  21.0586         96
 6.44   2.2931    240.3460   1478.8618 -47.85     36.75242     1.076     0.282      1.826     77.60409  24.1368         97
 3.50   0.0002    313.2050    439.2146 -58.88     356279.6     2.225     2.052      2.715     77.60409  14.1705         98
 7.47   0.1716    253.0191   1372.5363  88.52      491.506     0.935     0.498      3.527     77.64801  21.3212         99
 4.78   0.8113    254.2934   1352.3800  21.43     103.8856     0.819     0.369      1.634     77.61288  23.0086        100
 3.50   0.0041    288.3638   1486.2595 -50.06     20319.19     1.730     1.592      2.660     77.63923  17.2802        101
 5.48   0.2500    261.3333     84.2922 -47.26     337.0697     0.559     0.342      1.075     77.59531  21.7307        102
 5.94   0.1952    270.6706   1273.9196 -40.56     431.6293     1.404     1.014      4.010     77.58652  21.4622        103
 3.50   0.0198    282.7119   1522.1971 -53.12      4266.97     1.396     1.295      2.414     77.61288  18.9747        104
 3.98   0.0473    290.4916    514.7990 -75.95     1780.333     1.798     1.477      3.520     77.60409  19.9237        105
 3.50   0.0056    303.9724    201.5991 -71.10     15055.42     1.677     1.559      2.595     77.61288  17.6058        106
 3.50   0.0014    319.4947    905.2546 -62.41     59745.98     1.905     1.795      2.713     77.57773  16.1092        107
 3.91   0.0454    294.7829   1327.3722  22.05     1856.984     1.246     1.243      2.414     77.63923  19.8780        108
 3.83   0.0877    298.4533   1413.6970 -37.05     961.0414     2.489     1.309      4.525     77.56894  20.5931        109
 3.50   0.0003    352.2306    890.5782 -55.05     314858.9     2.185     2.027      2.760     77.63045  14.3047        110
 5.46   0.1628    294.2862   1475.5724 -56.07     517.8281     1.236     0.945      3.142     77.62167  21.2645        111
 3.50   0.4757    285.7057    430.6276 -41.61     177.1476     0.575     0.332      1.051     77.59531  22.4292        112
 3.50   0.0003    352.2426   1345.7185 -50.78     303673.9     2.162     2.010      2.747     77.61288  14.3440        113
 3.80   0.1347    302.6447    563.4781  78.23     625.7848     1.226     1.003      2.802     77.60409  21.0589        114
 3.50   0.0085    322.8607    697.1566 -65.12     9866.021     1.562     1.502      2.569     77.63045  18.0646        115
 7.29   0.1742    308.2585     85.3362  -9.80     483.8702     1.278     0.681      4.028     77.59531  21.3382        116
 3.50   0.1067    322.0946    641.3365 -62.74     789.5818     2.440     1.055      3.811     77.60409  20.8065        117
 4.71   0.0488    328.1742    595.2105  73.58     1726.452     1.458     1.438      3.560     77.62167  19.9571        118
 5.18   0.1599    310.7306    421.6347 -39.96     527.4022     0.561     0.338      1.530     77.63923  21.2446        119
 3.50   0.6504    314.0000    326.0000  90.00     129.6605     0.857     0.289      1.225     77.64801  22.7680        120
 3.50   6.4415    331.2698    183.0000   0.00     13.09393     0.855     0.444      1.183     77.66557  25.2573        121
 7.84   0.9747    318.3266    226.3266 -45.00     86.43848     0.571     0.337      2.440     77.57773  23.2082        122
 3.81   0.0154    356.5799    431.6029 -76.34     5463.083     1.846     1.569      3.085     77.62167  18.7064        123
 6.20   0.8031    323.0000    968.9377   0.00     105.0436     0.852     0.289      2.231     77.68313  22.9966        124
 3.80   0.0125    347.1124    866.9248 -32.94     6738.943     1.695     1.476      2.706     77.56894  18.4785        125
 5.47   0.3121    335.7198   1440.2043  84.72     270.1709     1.131     0.665      2.120     77.63923  21.9709        126
 4.72   0.1995    332.9469     93.2883 -11.73     422.3743     1.125     0.860      2.462     77.58652  21.4858        127
 4.12   0.5877    330.2740   1545.6711 -32.71     143.3107     0.997     0.657      1.867     77.56014  22.6593        128
 7.04   0.6400    339.9679    803.0641 -46.74     131.7445     0.904     0.491      1.500     77.63923  22.7507        129
 3.52  99.0000    339.3253   1453.3494 -44.01    -30.61247     0.581     0.331      1.064     77.57773  99.0000        130
 3.50   0.9921    340.3113    179.6887  45.00     84.88513     0.558     0.343      1.012     77.54256  23.2279        131
 3.94   0.0987    350.8347     54.4691  76.81     854.3342     1.181     1.089      2.259     77.63923  20.7209        132
 3.51   0.0083    368.9974    760.8605 -60.60     10222.83     1.551     1.481      2.526     77.68313  18.0261        133
 7.14   0.2304    351.0782    920.1328 -13.25     365.6307     0.988     0.607      3.568     77.56894  21.6424        134
 6.94   0.5459    348.7854     42.1722 -15.90     154.4617     0.890     0.343      1.986     77.64801  22.5779        135
 3.57   0.2783    359.9514    532.6904  36.10     302.7499     1.656     1.032      2.788     77.57773  21.8473        136
 3.50   0.0515    362.0010   1500.1412   8.09     1636.689     1.306     1.171      2.444     77.68313  20.0151        137
 3.71   0.0222    368.2740    442.6691 -49.15     3786.615     1.494     1.273      2.523     77.56894  19.1044        138
 3.50   0.5562    353.2529    349.8478 -18.72     151.5717     1.225     0.679      1.844     77.63045  22.5985        139
 3.50   0.0017    396.0186    231.2769 -59.08     50373.14     1.810     1.767      2.638     77.67435  16.2945        140
 3.56   0.3050    361.2871   1033.8175 -47.32     276.4212     0.935     0.779      1.849     77.62167  21.9461        141
 3.50  99.0000    360.0421    151.0000  90.00    -100.0516     0.873     0.289      1.591     77.64801  99.0000        142
 6.36   0.3795    369.5382    210.7691  82.98     222.1375     1.090     0.403      2.018     77.63045  22.1834        143
 4.57   0.2530    374.3807   1083.7490 -45.04     333.3224     1.277     0.931      2.428     77.64801  21.7428        144
 4.09   0.1752    373.8611    992.1259  74.32      481.168     1.049     0.879      2.283     77.60409  21.3443        145
 7.43   0.1977    371.0736     71.6402  18.67     426.4511     0.950     0.681      3.916     77.62167  21.4753        146
 6.78   0.1364    377.0766    754.1260  38.20      617.772     1.702     0.883      4.893     77.58652  21.0729        147
 3.50   0.0125    397.8547   1460.9972 -66.73     6760.206     1.530     1.480      2.550     77.69191  18.4751        148
 7.65   0.1562    372.6172    752.9365  28.61     539.8135     0.945     0.202      2.137     77.64801  21.2194        149
 3.50   0.0103    399.0069    354.3418 -79.11     8195.576     1.578     1.455      2.543     77.68313  18.2661        150
 6.92   0.2742    376.7931     86.0456  27.46      307.576     1.524     0.222      2.080     77.66557  21.8301        151
 3.50   0.0534    394.4658   1088.6558 -38.77     1577.416     1.346     1.287      2.506     77.60409  20.0551        152
 3.50   0.0018    420.3878    433.1454 -56.35     46231.12     1.876     1.736      2.658     77.66557  16.3877        153
 3.50  99.0000    385.1057    218.2981 -86.27    -12.20875     0.832     0.455      0.726     77.54256  99.0000        154
 5.09   1.1130    389.7463   1195.3679 -81.62     75.77506     1.180     0.455      1.565     77.65679  23.3512        155
 3.50   0.0038    416.4534    837.1935 -73.05     22210.09     1.731     1.675      2.656     77.70068  17.1836        156
 7.03   0.5523    390.3333    260.3919 -43.24     152.7557     0.601     0.315      1.955     77.68313  22.5900        157
 6.08   0.5817    397.0396    977.8889  -2.00     144.8858     1.138     0.537      2.460     77.60409  22.6474        158
 6.18   0.1360    397.9491    626.5798  25.15     619.8392     1.466     0.519      2.892     77.64801  21.0693        159
 6.33   0.3580    407.3269    281.8119  86.10     235.6557     1.028     0.385      2.693     77.67435  22.1193        160
 6.00   0.4153    404.9796    814.3265  89.16     203.1031     0.820     0.469      1.690     77.67435  22.2807        161
 8.41   0.2066    404.5678    526.5000   0.00     407.6555     0.500     0.495      3.000     77.55135  21.5243        162
 6.63  99.0000    409.0000    699.4041  90.00    -72.17279     0.772     0.491      1.930     77.63045  99.0000        163
 3.50   0.0051    438.7709    251.9374 -58.79     16375.43     1.697     1.562      2.597     77.63923  17.5145        164
 3.50   0.0006    461.8540    807.3651 -53.71     142871.4     2.000     1.895      2.704     77.63923  15.1626        165
 4.61   0.0985    421.7827    158.7669  48.52      855.781     1.506     1.389      3.490     77.64801  20.7191        166
 7.87   0.1596    412.2602      1.3011  69.97     397.7839     0.906     0.359      3.697      58.4719  21.5509        167
 3.72   0.0209    425.0006    926.1539 -23.12     4035.375     1.446     1.338      2.570     77.68313  19.0353        168
 6.46   1.1586    412.6539    198.9616  28.69     72.76538     0.914     0.210      1.086     77.63045  23.3952        169
 6.93   0.4539    415.6761    558.2352  47.71     185.6808     1.077     0.348      2.478     77.61288  22.3781        170
 7.90   1.8905    415.3738   1561.3535 -45.60     44.61466     0.603     0.315      2.500     77.66557  23.9263        171
 5.85   0.4690    419.4586   1204.6608 -19.76     179.6905     1.038     0.707      2.580     77.59531  22.4137        172
 3.50  99.0000    418.0000   1425.9369   0.00    -250.4008     0.843     0.289      0.463     77.68313  99.0000        173
 5.24   0.2006    427.7235   1179.3151  16.90     419.9321     1.364     0.886      2.583     77.56014  21.4921        174
 6.74   0.1957    420.6667    134.0000  28.16      430.945     0.919     0.209      2.512     77.66557  21.4639        175
 3.50   0.0761    433.8001   1421.7810  -3.23     1107.814     1.400     1.148      2.500     77.63045  20.4388        176
 6.14   0.1954    431.7533    717.7677  83.86     431.5967     1.303     1.115      5.561     77.66557  21.4623        177
 7.66   3.5409    425.2677   1064.0605 -27.55      23.7983     0.860     0.219      1.657     77.59531  24.6086        178
 5.37   0.1692    434.9251    151.0960  33.14     497.8155     1.042     0.753      2.312     77.57773  21.3073        179
 3.60   0.0160    451.1159     21.1307 -28.99     5275.137     1.573     1.407      2.602     77.57773  18.7444        180
 3.51   0.1671    440.7083    305.4556 -67.83     504.3121     1.236     0.947      2.172     77.59531  21.2933        181
 6.43   1.3401    432.9384   1307.6188 -86.47     62.91707     0.785     0.484      2.285     77.63923  23.5531        182
 4.06   0.0953    448.7227    884.3640 -35.62     884.2487     2.127     1.306      4.041     77.61288  20.6836        183
 6.71  99.0000    436.3333    378.0371 -27.61    -54.96338     0.940     0.204      1.743     77.63045  99.0000        184
 4.73   0.0202    468.6122    850.4824  22.29     4182.524     6.922     1.706     11.337     77.64801  18.9964        185
 3.71   0.0146    458.6747     34.3954 -77.18      5794.47     1.477     1.351      2.537     77.67435  18.6425        186
 5.25   0.0998    446.1402    122.2486 -40.13     844.2667     1.535     0.986      3.108     77.62167  20.7338        187
 7.76  99.0000    446.3053   1504.6737  43.88    -65.71553     0.562     0.341      2.132     77.58652  99.0000        188
 3.66   0.0463    464.6884    468.4339 -68.02     1818.971     1.455     1.347      2.767     77.62167  19.9004        189
 3.50   0.8005    453.9791    838.6875 -89.21     105.3201     0.829     0.463      1.196     77.63045  22.9937        190
 7.05   0.8521    453.8297   1533.0110   0.29     98.96768     0.711     0.376      2.024     77.64801  23.0613        191
 5.15   0.2106    461.9737   1096.1793 -25.12     400.2689     0.893     0.832      2.370     77.63045  21.5441        192
 4.39   0.0540    471.9914    254.1268 -68.29     1562.572     1.380     1.146      2.587     77.65679  20.0654        193
 4.12   0.0361    472.9775    734.7632 -49.31     2337.259     1.304     1.164      2.502     77.63923  19.6282        194
 3.50   0.0292    478.8101    922.8268 -42.08     2886.437     1.386     1.316      2.472     77.63045  19.3991        195
 6.59   0.2257    462.5501    724.5497 -15.88     373.7712     1.098     0.412      2.513     77.66557  21.6185        196
 3.72   0.0863    478.8665   1276.7662 -61.04     977.4781     1.412     1.028      2.386     77.64801  20.5747        197
 6.48   0.1489    489.4742    839.6249  73.85     566.2231     1.967     0.666      4.578     77.63045  21.1675        198
 3.50   0.0729    484.9024   1070.4305 -49.51     1156.196     1.266     1.104      2.343     77.56894  20.3924        199
 4.14   0.4358    481.7586   1308.7133 -21.46     193.4272     1.068     0.925      2.054     77.61288  22.3337        200
 6.68   0.5880    476.7118   1167.9108  -5.84     143.2322     0.676     0.450      2.513     77.55135  22.6599        201
 4.20   0.0056    533.8306    518.5675  33.39     15055.11     3.745     3.288      7.418     77.65679  17.6058        202
 5.46   0.3622    479.8537    682.4716  28.83     232.6305     0.983     0.433      2.034     77.58652  22.1333        203
 3.50   0.0070    513.3150   1302.2297 -61.95     12010.03     1.739     1.634      2.672     77.63045  17.8511        204
 5.05   0.0407    496.8585     82.7383  -5.61     2071.113     2.095     1.775      4.892     77.59531  19.7595        205
 4.52   0.0421    496.3172   1187.4573  -5.93     2001.517     2.518     1.698      5.077     77.59531  19.7966        206
 5.25   0.0719    505.2542    762.8261  70.94     1172.969     1.576     1.351      4.333     77.66557  20.3768        207
 3.50   0.0345    516.3976   1461.3540  24.87     2442.298     3.657     1.596      6.210     77.67435  19.5805        208
 4.25   0.1157    502.7435    863.3569  83.13     728.5316     1.102     1.026      2.104     77.62167  20.8939        209
 5.09   0.2918    498.9187    365.9331 -28.31     288.6678     1.087     0.794      2.456     77.56894  21.8990        210
 6.24   0.1201    510.6279    165.8429  11.50     702.1944     1.070     0.766      3.717     77.66557  20.9339        211
 5.36   0.2574    502.2211   1310.0114 -40.76      327.476     0.885     0.626      2.191     77.62167  21.7621        212
 4.14   0.0613    514.1871   1310.0648  67.84     1376.836     1.321     1.208      2.804     77.66557  20.2028        213
 7.43   2.1899    504.9781    324.6303 -88.83      38.4981     0.794     0.483      3.926     77.63045  24.0864        214
 4.12   0.1331    514.6473   1179.0461 -54.74      633.708     1.215     0.860      2.238     77.65679  21.0453        215
 8.54   0.1750    511.6317    161.4211  -2.86     481.8804     0.959     0.481      4.382     77.63045  21.3427        216
 5.69   0.1978    520.2023    641.5094 -38.14     426.1232     1.005     0.778      2.756     77.59531  21.4762        217
 3.50   3.0871    519.2086   1518.7914  31.83     27.29657     0.775     0.675      1.973     77.59531  24.4597        218
 3.50   1.2767    522.9827    182.0000 -44.02     66.03291     0.876     0.500      1.254     77.63045  23.5006        219
 3.50  99.0000    525.0419     54.0419  45.00    -19.45411     1.224     0.289      7.341     77.63045  99.0000        220
 3.50   0.0003    588.6831   1315.8579 -53.18       326391     2.147     2.005      2.733     77.59531  14.2657        221
 3.77   0.0527    540.8998    999.7103 -60.25     1597.191     1.386     1.105      2.551     77.53377  20.0416        222
 7.35   0.6041    537.3206    405.2668  70.52     139.4416     0.841     0.363      2.165     77.56894  22.6890        223
 3.50  99.0000    535.3262    745.0215  -0.89    -212.3666     0.821     0.469      0.969     77.67435  99.0000        224
 3.50   0.0002    632.4907    483.0338 -31.90     358826.9     2.824     2.589      3.414     77.59531  14.1628        225
 3.50   0.0114    573.4323   1242.7062 -71.56     7387.278     1.605     1.494      2.616     77.58652  18.3788        226
 3.60   0.0367    559.8713   1041.4833 -17.01     2297.269     1.392     1.288      2.573     77.56894  19.6470        227
 4.33   0.0568    571.7242     45.7268  71.42     1483.717     1.854     1.237      3.545     77.57773  20.1216        228
 5.14  17.3554    556.0762    805.6731  62.81     4.854927     0.951     0.198      1.665     77.58652  26.3345        229
 3.50   0.0087    581.4414    144.8173 -74.00     9697.159     1.613     1.482      2.578     77.63923  18.0834        230
 7.03   0.7106    556.5564    778.4312 -45.45     118.6912     0.543     0.444      1.782     77.66557  22.8640        231
 3.50   0.0556    572.1414   1447.5884  18.73     1516.989     2.026     1.558      4.351     77.65679  20.0975        232
 4.42   0.2257    565.5605    139.7155 -61.30     373.4361     1.052     0.799      2.468     77.62167  21.6195        233
 3.90   0.0175    597.6890    782.6691 -13.37     4804.539     3.025     2.906      6.822     77.56894  18.8459        234
 3.50   0.0087    582.9789    318.9885 -22.80     9726.821     1.574     1.504      2.564     77.62167  18.0801        235
 5.51   0.0613    575.6917   1336.6508 -58.26     1375.785     1.344     1.090      3.439     77.60409  20.2036        236
 6.95   0.5052    564.0000    905.0739   0.00     166.9474     0.905     0.289      1.965     77.66557  22.4936        237
 6.11  99.0000    570.0448    113.0000  90.00    -33.97776     0.865     0.289      1.405     77.66557  99.0000        238
 5.58   0.2139    577.2756   1001.4764 -49.95     393.8798     1.479     0.782      2.726     77.59531  21.5616        239
 5.50   1.1907    576.2576    549.4323 -38.17     70.82209     0.577     0.322      1.601     77.64801  23.4246        240
 4.68  99.0000    579.9186   1104.9186  45.00    -20.88721     1.173     0.289      1.891     77.59531  99.0000        241
 7.03   0.2605    579.5756    740.7031 -49.01     323.5673     0.595     0.315      1.864     77.60409  21.7751        242
 4.16   0.1322    585.4998     75.9832   3.10     637.3724     1.185     0.945      2.609     77.60409  21.0390        243
 3.50  99.0000    581.6818    897.6591 -43.98    -105.7773     0.574     0.335      0.866     77.59531  99.0000        244
 7.33   0.8349    585.9781   1101.0000  90.00      100.952     0.878     0.289      2.441     77.61288  23.0397        245
 5.49   0.6237   1009.6518   1324.0001  28.01     135.2693     0.939     0.204      1.215     77.68313  22.7220        246
 4.16   0.0936   1597.9541    655.1415 -49.34     759.8845     1.907     1.129      3.329     65.46999  20.8481        247
 6.44   1.9859   1599.0642     19.6310 -61.16     33.45825     0.927     0.207      1.727     61.18448  24.2387        248
 3.52  99.0000   1597.8390     32.1611  45.00    -2.734745     1.191     0.289      1.236     65.95769  99.0000        249
 5.36   0.1085   1595.7672    373.9221  31.21     725.5607     1.375     0.977      3.484     72.50739  20.8983        250
 4.27   0.0660   1566.7288    784.6782 -79.03     1277.455     1.722     1.111      3.210     77.57773  20.2841        251
 3.76   0.3490   1552.6969    131.9093 -27.08     241.2955     0.926     0.205      1.517     77.55135  22.0936        252
 3.50   0.1296   1547.0565    863.3168  86.37     649.9522     1.311     1.162      2.486     77.58652  21.0178        253
 7.32   8.8256   1542.0460    635.0460  45.00     9.556843     1.201     0.289      2.008     77.66557  25.5992        254
 7.38   0.6962   1542.3176    330.9529   1.85     121.0473     0.825     0.465      2.815     77.59531  22.8426        255
 7.87   0.3290   1539.6814    263.2965  46.29     255.9897     0.554     0.344      2.689     77.55135  22.0294        256
 3.50   0.6190   1539.6504     24.9756  28.39     136.2766     0.927     0.208      0.984     77.67435  22.7139        257
 5.89   0.1859   1520.2021     84.3736  78.66      453.433     1.114     0.613      3.064     77.62167  21.4087        258
 4.69   0.1570   1515.5050    483.6837 -65.34      536.425     1.213     0.808      2.523     77.53377  21.2262        259
 3.51   0.0102   1515.7380    392.7282 -44.44     8254.762     1.575     1.504      2.550     77.58652  18.2582        260
 4.12   0.1071   1505.0243    723.4653  10.72     787.5984     1.179     0.918      2.082     77.63923  20.8092        261
 3.50  99.0000   1250.9791   1304.7014  61.04     -38.0872     0.859     0.218      2.960     77.57773  99.0000        262
 3.50   0.0001   1222.1958    995.1822 -29.72     615336.4     6.316     5.134      6.675     77.60409  13.5772        263
 6.34   0.0887   1230.6919    599.3118   7.98     949.2277     1.456     1.283      5.744     77.56014  20.6066        264
 5.11   0.5857   1184.9763    211.0236 -45.00     143.9709     1.183     0.289      1.956     77.64801  22.6543        265
 5.50   0.1742   1183.6479    673.2463  14.64     484.2327     1.251     0.749      2.965     77.65679  21.3374        266
 8.47   0.1727   1230.7001    913.0201  28.10     487.9084     0.885     0.216      2.289     77.57773  21.3292        267
 3.50   0.2049   1181.8446    549.0359 -36.53     411.7103     1.198     0.854      2.242     77.66557  21.5135        268
 5.92   0.1599   1182.4340    176.5399  10.29     527.2807     1.285     0.915      3.000     77.63923  21.2449        269
 4.35   0.0138   1173.2797    757.9658 -79.98     6120.396     3.389     3.272      7.195     77.61288  18.5830        270
 7.62   0.1043   1179.3232    971.4334 -74.58       808.19     0.810     0.463      3.513     77.61288  20.7812        271
 4.76   0.0563   1152.1494     99.4870  13.81     1496.532     1.304     1.097      2.609     77.58652  20.1123        272
 7.00   0.2846   1167.9810   1600.0000  90.00     218.1839     0.855     0.289      2.409     57.17473  22.2029        273
 3.50   0.0027   1139.3308    148.1031 -31.59     31649.82     1.754     1.684      2.587     77.60409  16.7991        274
 8.54   0.1084   1141.9038    714.2844 -46.00     777.0458     1.254     0.724      6.828     77.53377  20.8239        275
 7.05   0.1707   1141.7671    661.9088 -21.65     493.6058     1.177     0.730      3.724     77.59531  21.3165        276
 6.66   0.2781   1134.7821    607.4400  -6.85     303.2031     0.940     0.750      3.408     77.65679  21.8457        277
 3.50   0.0051   1130.7299    183.5773 -81.17      16530.3     1.597     1.563      2.556     77.66557  17.5043        278
 5.17   0.2267   1131.9856    358.7660 -25.89     371.8485     1.187     1.012      2.291     77.63923  21.6241        279
 4.94   0.1139   1130.8446    219.3437 -35.29     740.1842     1.439     0.937      2.972     77.62167  20.8766        280
 3.50   1.3701   1131.6534   1251.0398   1.86      61.5333     0.808     0.475      1.424     77.63045  23.5772        281
 5.03   0.1109   1130.0151    547.5107 -54.19     760.5392     1.113     0.971      2.561     77.63045  20.8472        282
 3.50   0.4823   1130.3884    503.9588   2.46     174.8105     0.781     0.487      1.426     77.63923  22.4436        283
 3.50   0.8765   1129.3101    963.0701  -2.63     96.12084     0.828     0.461      1.118     77.57773  23.0930        284
 8.31   0.4624   1124.0000    918.3257  61.77     182.3643     0.909     0.212      2.583     77.64801  22.3976        285
 5.77   0.1087   1115.3094    674.5095  84.49     774.7792     1.342     1.099      3.908     77.54256  20.8271        286
 3.50   0.6524   1113.0000   1390.0214   0.00     129.2025     0.828     0.289      1.352     77.61288  22.7718        287
 5.59   0.7044   1112.6877    827.0841  27.14     119.6123     0.935     0.203      1.363     77.58652  22.8556        288
 3.50   0.0119   1108.2020    427.9749 -49.25     7085.078     1.563     1.476      2.563     77.62167  18.4241        289
 3.89   1.0842   1106.9767    200.3254  89.04     77.76796     0.821     0.468      1.097     77.63923  23.3230        290
 5.94   0.1025   1091.4374    468.3976 -62.58     822.1168     1.709     0.832      4.229     77.62167  20.7627        291
 3.50   0.0078   1105.3206    751.8403 -51.43     10746.19     1.584     1.481      2.542     77.59531  17.9719        292
 5.06   0.1760   1079.9875    329.9959 -46.55      478.861     1.031     0.826      2.207     77.59531  21.3495        293
 6.56   0.2935   1080.7024     52.5954 -41.23     287.2096     0.589     0.322      2.467     77.61288  21.9045        294
 5.17   0.0443   1072.8773   1219.1769 -74.69     1904.052     2.145     1.588      4.889     77.63045  19.8508        295
 3.50   0.3813   1074.6160    915.3461  46.10     221.1508     0.604     0.314      1.029     77.65679  22.1883        296
 4.82   0.0798   1066.7207   1562.5005 -58.37     1054.773     2.406     1.314      5.199     77.55135  20.4921        297
 6.02   0.6599   1069.7161   1084.4321  40.13     127.7635     0.591     0.316      1.642     77.63045  22.7840        298
 3.92   0.2564   1066.6434   1597.2023  30.34      288.747     1.134     0.835      2.122     68.18417  21.8987        299
 4.84   0.2744   1067.5416    568.7209 -76.53     307.1509     1.208     0.581      2.609     77.60409  21.8316        300
 6.00   0.1410   1063.8567      7.2529  89.49     591.9521     0.863     0.755      2.596      76.8802  21.1193        301
 6.35   0.2169    979.1786    452.8419 -65.60     388.7181     0.889     0.802      3.211     77.64801  21.5759        302
 7.77   0.5965    977.7546   1280.7546  71.48     141.3737     0.859     0.351      2.115     77.64801  22.6741        303
 4.64   0.5407    975.3115   1443.6448  43.11     155.8493     0.577     0.333      0.879     77.59531  22.5682        304
 7.65   0.9990    972.3511   1499.6312  44.45     84.42065     0.600     0.318      2.865     77.65679  23.2339        305
 3.50  99.0000    969.0247    620.6750  88.99    -133.4249     0.821     0.468      0.536     77.62167  99.0000        306
 5.12   0.2761    965.8401    416.3604 -23.78     305.4909     0.932     0.672      2.552     77.66557  21.8375        307
 3.50  99.0000    955.0853    303.2907 -87.14    -117.9703     0.839     0.453      1.004     77.56894  99.0000        308
 5.02   0.1139    952.0719    654.0964  53.10     740.0268     1.706     1.234      3.883     77.58652  20.8769        309
 4.79   0.3853    952.7904     61.2708 -41.63     218.9563     1.224     0.667      2.255     77.67435  22.1991        310
 5.56   0.4756    952.6730    887.3650  43.60      177.262     0.588     0.326      0.984     77.62167  22.4285        311
 7.84   0.6334    951.6251    826.9586  -2.28     133.1584     0.790     0.483      2.767     77.66557  22.7391        312
 5.58  99.0000    950.4416    268.2458 -84.47    -42.79375     1.143     0.418      2.431     77.64801  99.0000        313
 5.51   0.3905    948.7700    445.1736 -21.05     215.9031     1.029     0.568      2.065     77.63923  22.2144        314
 3.50   1.0403    947.7188    133.5208  71.15     80.99306     0.725     0.466      1.563     77.58652  23.2789        315
 3.50  99.0000    944.3251     76.6502  43.99     -8.84188     0.581     0.331      0.597     77.57773  99.0000        316
 4.18   0.0421    939.8646   1067.0360 -61.06      2002.68     1.399     1.122      2.540     77.63045  19.7960        317
 5.49   0.1487    937.9736    515.8405  68.76     567.1115     2.181     0.812      3.446     77.66557  21.1658        318
 3.50   0.0055    930.5154   1178.4441 -85.08     15341.54     1.665     1.614      2.650     77.60409  17.5853        319
 6.38   0.8210    933.5454   1027.5303  44.23     102.6359     0.519     0.477      1.340     77.59531  23.0218        320
 6.64   1.3701    932.7028   1006.0181  28.16     61.52113     0.880     0.217      1.543     77.61288  23.5774        321
 4.57   0.0667    929.1963   1322.3903 -72.77     1263.514     1.309     1.180      2.761     77.60409  20.2960        322
 3.50  99.0000    929.2763   1498.6666  41.56    -88.94937     0.551     0.344      1.167     77.56014  99.0000        323
 6.48   0.3380    933.4293   1118.6073  43.25     249.4648     0.997     0.547      2.511     77.64801  22.0575        324
 7.75   0.3141    927.2894    934.1692  -5.81     268.3116     0.829     0.448      2.772     77.60409  21.9784        325
 6.70   0.4958    925.9588   1106.0000  90.00     170.0909     0.849     0.289      1.508     77.64801  22.4733        326
 5.60   0.6804    926.0001     46.9569   0.00     123.9684     0.769     0.638      1.829     77.66557  22.8167        327
 5.82   0.4626    920.2391   1027.9855  50.94     182.3162     1.020     0.291      3.938     77.65679  22.3979        328
 7.75   0.2424    918.3492    252.6746  45.98     347.5906     0.581     0.331      2.535     77.57773  21.6973        329
 4.75   0.0867    913.7162    838.4712 -58.89       971.47     1.164     1.047      2.714     77.56894  20.5814        330
 8.04   0.2155    914.9571   1118.3761  87.62     391.4524     0.789     0.484      3.890     77.66557  21.5683        331
 3.99   0.1613    913.1610   1000.7853   8.81     522.9442     1.350     0.879      2.423     77.65679  21.2539        332
 6.12   0.3832    908.8936    658.6951 -63.08     219.7762     0.936     0.202      1.800     77.55135  22.1950        333
 4.75   0.5037    908.0001    157.2937 -61.45     167.3148     0.865     0.218      1.380     77.59531  22.4912        334
 5.55   0.1521    905.2256   1315.1576  44.53     554.6515     1.371     0.915      3.585     77.67435  21.1899        335
 3.50   0.0130    901.2242    302.8381 -64.60     6477.409     1.501     1.389      2.481     77.63923  18.5215        336
 6.25   0.7052    902.6825    875.9526  -1.86     119.5011     0.825     0.465      1.343     77.59531  22.8566        337
 3.50   0.0003    882.8229    183.6518 -35.41       316001     3.980     3.531      5.009     77.67435  14.3008        338
 7.97   0.1030    897.2171    158.2609  15.95     818.2726     0.855     0.352      3.649     77.63045  20.7678        339
 5.80   0.2040    894.7897   1425.7336 -39.05     413.4175     1.144     0.840      2.916     77.66557  21.5090        340
 4.40   0.0204    881.5032    224.4157  87.65     4131.055     5.848     1.887      9.743     77.62167  19.0098        341
 4.01   0.1413    889.7144    325.0488  30.19     596.5848     1.557     0.877      2.841     77.59531  21.1108        342
 4.87   0.0960    886.7603   1304.8337  74.27     878.3972     1.807     1.226      4.062     77.64801  20.6908        343
 3.50   0.0007    881.0616   1592.5116 -55.90     114654.5     1.931     1.812      2.643     77.58652  15.4015        344
 5.85  99.0000    900.7428    379.5905 -38.23    -36.44719     0.570     0.329      1.599     77.69191  99.0000        345
 3.87   0.1039    886.5408   1500.3883  47.44     811.4605     1.299     1.101      2.508     77.65679  20.7768        346
 3.50   0.4156    885.9301    339.0668 -71.14     202.6989     1.344     0.699      2.296     77.57773  22.2829        347
 5.24   0.0657    879.0587   1177.2458  61.56     1282.158     2.084     1.695      5.212     77.62167  20.2801        348
 7.81   0.3349    898.5586    987.7567 -53.11     251.7874     0.572     0.322      2.522     77.64801  22.0474        349
 4.73   0.1228    878.3835    960.8666  37.49     686.7888     1.144     1.033      2.946     77.66557  20.9579        350
 4.19   0.0595    896.8283    538.6429  -8.38     1418.258     2.032     1.364      3.737     77.65679  20.1706        351
 4.94   0.5186    877.5875    541.9125 -33.88     162.5756     0.734     0.330      1.499     77.63923  22.5224        352
 4.52   0.0287    870.2298   1103.7103 -73.44     2938.945     2.037     1.597      3.947     77.60409  19.3795        353
 3.50   0.0003    860.0765   1224.5005 -48.03     294348.6     2.206     2.040      2.742     77.56014  14.3778        354
 3.73   0.4543    870.4454    643.5135 -54.48     185.5179     1.142     0.764      2.143     77.60409  22.3790        355
 7.02   0.1709    901.3706    151.0746  29.02     493.3394     0.923     0.207      2.183     77.62167  21.3171        356
 3.50   2.9797    892.3071   1453.3464 -43.16     28.27736     0.571     0.336      1.115     77.58652  24.4214        357
 6.98  13.7017    867.6667    454.0001  28.15     6.155789     0.919     0.209      1.376     77.66557  26.0768        358
 6.64   0.5713    897.3264   1127.1046  -4.38     147.4816     0.816     0.466      3.369     77.58652  22.6282        359
 4.39   2.3847    864.0000   1015.3030  30.59     35.34489     0.904     0.559      1.732     77.61288  24.1792        360
 7.11   0.4398    863.7709    269.5084  74.74     191.5954     0.859     0.462      3.090     77.59531  22.3440        361
 3.50   0.4952    862.8576    637.2549 -80.21     170.1955     0.906     0.718      1.818     77.60409  22.4726        362
 4.33   0.0870    860.3510   1157.4426   1.63     969.5663     1.314     1.198      2.951     77.64801  20.5836        363
 8.45   0.1498    864.2909    219.3545 -41.88     562.3902     0.567     0.337      3.250     77.57773  21.1749        364
 4.65   0.1303    859.2015   1339.6395 -72.99     647.3118     1.379     1.041      2.894     77.63923  21.0222        365
 7.01   0.0484    871.5024    224.8528  87.48     1741.876     2.994     1.073      9.513     77.55135  19.9475        366
 3.50   1.0625    856.2928    544.9838  17.22     79.34431     1.169     0.880      2.044     77.63045  23.3012        367
 6.98   0.2223    855.0227    224.9773 -45.00     379.1634     1.209     0.289      3.051     77.63045  21.6029        368
 4.66   0.0761    868.6576    939.4283  32.30     1107.538     2.151     1.336      4.176     77.65679  20.4391        369
 8.25   0.2774    848.0260    359.4051  25.67     303.9893     1.131     0.450      3.528     77.63923  21.8429        370
 6.95   0.0794    845.4634   1206.2610   9.83      1061.93     1.403     0.993      5.778     77.60409  20.4848        371
 4.88   0.1312    845.9462   1063.5466 -53.17      642.553     1.216     0.925      2.652     77.63045  21.0302        372
 5.15   0.0632    844.0069   1106.1471  18.76     1335.296     1.541     1.225      4.007     77.69191  20.2361        373
 5.84   0.0377    839.0446   1246.8259 -45.31     2237.175     2.504     1.684      7.488     77.66557  19.6757        374
 6.32   0.3774    845.3188   1168.9346  27.33     223.2297     0.935     0.204      1.978     77.56894  22.1781        375
 3.50   0.0718    837.4356    298.7454  -8.66     1174.596     1.236     0.999      2.240     77.63923  20.3753        376
 5.80   4.6706    837.5001   1520.6576  13.33     18.02786     0.825     0.475      1.955     77.53377  24.9101        377
 5.41   0.1866    836.7518    819.0476  -1.49     452.1104     0.936     0.684      2.002     77.66557  21.4119        378
 7.98   2.0502    829.0392   1086.9608 -45.00     41.13146     1.211     0.289      1.893     77.64801  24.0146        379
 3.63   0.0127    823.7006    654.3640 -43.74     6638.927     1.505     1.471      2.570     77.55135  18.4948        380
 6.83   1.2619    823.0000    329.9346   0.00     66.85544     0.859     0.289      1.851     77.68313  23.4872        381
 6.74   1.1880    821.0000   1398.1022   0.00     70.93068     0.767     0.289      1.875     77.59531  23.4229        382
 5.69   0.3564    819.4669    702.4687 -77.34     236.3741     0.906     0.654      1.919     77.56894  22.1160        383
 7.62   3.4047    819.2968    892.6594  42.75     24.74215     0.564     0.339      2.878     77.56894  24.5664        384
 4.10   0.8219    823.6507   1039.6747 -45.98     102.5011     0.581     0.331      0.667     77.57773  23.0232        385
 7.14   0.3913    810.8054    843.1619   0.92     215.4268     1.452     0.395      2.991     77.63045  22.2167        386
 3.52   2.0186    809.1946    616.4501  60.05     41.79388     0.936     0.197      1.352     77.68313  23.9972        387
 3.50   0.0138    803.9039   1378.6149 -20.19     6105.514     1.583     1.483      2.579     77.62167  18.5857        388
 3.50   0.0054    800.1184    695.5565 -62.97     15469.97     1.908     1.713      2.821     77.60409  17.5763        389
 4.11   0.0243    795.4760    695.4899 -70.35     3460.911     1.259     1.084      2.478     77.57773  19.2020        390
 4.92   0.4945    805.0230    859.9770  45.00     170.5305     1.209     0.289      1.505     77.64801  22.4705        391
 3.74   0.0299    801.5092     41.0885 -27.74     2812.722     1.412     1.193      2.398     77.56014  19.4272        392
 4.21   0.7301    794.2848    295.9999  28.64      115.473     0.852     0.219      1.237     77.63045  22.8938        393
 5.41  99.0000    790.3035    407.9999  28.45    -110.3941     0.878     0.217      1.304     77.61288  99.0000        394
 3.50   1.0128    789.3176    872.3412 -43.94     83.19315     0.574     0.335      0.854     77.58652  23.2498        395
 4.52  99.0000    786.2717   1348.8356  26.32    -37.17469     0.915     0.203      1.222     77.63923  99.0000        396
 3.50   0.0363    774.7050   1427.5829 -75.43     2321.684     2.568     1.892      4.894     77.62167  19.6355        397
 8.29   0.3541    776.9772   1154.6438  61.72     238.1527     0.936     0.205      4.333     77.64801  22.1079        398
 7.72   0.4713    774.6102    826.9153  28.88      178.884     0.941     0.203      2.144     77.63045  22.4186        399
 3.83  99.0000    773.0837    500.0000  90.00    -159.9991     0.878     0.289      1.270     77.63045  99.0000        400
 3.50   0.0668    767.4979    391.7724  87.57     1261.317     1.507     1.092      2.400     77.59531  20.2979        401
 6.77   0.2479    768.3767    140.7048 -64.73     339.9637     1.260     0.531      3.786     77.61288  21.7214        402
 4.69  99.0000    765.4050    567.7098  71.08    -74.50348     1.181     0.257      1.460     77.59531  99.0000        403
 6.44   3.6417    764.9337    834.6593 -87.00     23.13711     0.810     0.473      2.634     77.58652  24.6392        404
 4.43   0.3678    762.6815    957.0001  28.30     229.1897     0.899     0.213      1.345     77.63045  22.1495        405
 3.50  99.0000    761.6746    362.9761  -0.98    -37.83998     0.821     0.468      1.033     77.63923  99.0000        406
 3.50  99.0000    761.3489     42.0000   0.00    -103.3674     0.807     0.477      1.591     77.68313  99.0000        407
 8.01   0.2848    759.6014   1020.3090  71.26     295.8747     1.220     0.259      2.001     77.59531  21.8722        408
 6.43   0.3765    754.7154    433.6240 -40.88      223.901     0.572     0.333      2.308     77.62167  22.1749        409
 7.41   0.3686    754.7360    195.0280   1.27     228.7217     0.726     0.441      2.962     77.63045  22.1517        410
 4.49   0.0560    743.5812    556.2143 -23.67     1505.377     1.169     1.130      2.489     77.62167  20.1059        411
 7.81   0.1459    742.7152    387.3576  41.36     577.6536     0.565     0.338      2.633     77.61288  21.1458        412
 3.50   0.0002    724.9375    404.7084 -51.03     400187.9     2.269     2.062      2.718     77.60409  14.0443        413
 4.32   0.1393    738.8983   1157.9392  -5.09      604.833     1.189     0.975      2.555     77.56894  21.0959        414
 3.50   0.0012    727.4346    848.3108 -62.23     68823.92     1.940     1.833      2.722     77.60409  15.9557        415
 9.22   0.1219    729.0000    387.2788 -61.30     691.9796     0.843     0.220      3.101     77.64801  20.9498        416
 3.50   0.3153    722.0692   1394.6014 -54.18     267.5088     1.100     0.942      2.074     77.66557  21.9817        417
 5.85   0.1036    736.9974    649.5864 -75.14      813.494     1.041     0.923      3.126     77.60409  20.7741        418
 4.39   0.0717    728.2222   1178.2740 -88.23      1176.84     1.259     1.184      2.653     77.65679  20.3732        419
 6.87   0.5560    720.0156   1198.6881  37.94     151.6018     1.020     0.310      3.242     77.62167  22.5982        420
 3.81   0.0650    716.8065    808.1864 -61.94     1296.146     1.400     1.131      2.514     77.57773  20.2684        421
 4.67   0.0531    709.7144   1163.7175  35.68     1585.057     1.260     1.180      2.640     77.56894  20.0499        422
 5.30   0.5097    707.8643    794.4329  68.73     165.4186     0.612     0.475      1.342     77.63045  22.5035        423
 4.23   0.0561    705.0021   1339.0493 -26.08     1504.951     1.702     1.368      3.297     77.68313  20.1062        424
 3.91   0.0319    703.5070    952.4028  48.68      2639.49     1.412     1.372      2.690     77.59531  19.4962        425
 4.09   0.1419    699.6138    582.3784  -6.14     593.8191     1.751     1.076      3.755     77.61288  21.1159        426
 3.50  99.0000    693.7501   1315.9832  -0.81     -26.1822     0.695     0.433      1.158     77.64801  99.0000        427
 6.25   0.1008    692.6816   1213.4618 -13.18     836.2109     1.195     0.874      3.757     77.57773  20.7442        428
 6.48   0.1073    687.8628   1213.5135 -68.83     785.3729     1.594     0.708      5.233     77.57773  20.8123        429
 7.34   1.6346    692.9616    315.8236 -89.02     51.58768     0.737     0.381      2.570     77.64801  23.7686        430
 3.50  99.0000    693.3108    275.0000  28.38    -115.1898     0.889     0.215      1.340     77.61288  99.0000        431
 3.50  99.0000    692.0004    686.0004  45.00    -106.9605     1.190     0.289      1.388     77.64801  99.0000        432
 5.66   0.0426    684.3461    472.4061  38.47     1981.812     2.643     2.083      7.205     77.70068  19.8073        433
 4.77   0.0479    682.3437    543.4695 -76.00     1758.291     1.951     1.352      4.247     77.59531  19.9373        434
 3.50   3.8525    682.0001    711.3259 -61.77      21.8886     0.909     0.211      1.065     77.64801  24.6995        435
 3.50  99.0000    679.9166    873.2916  62.82    -3.226576     0.907     0.211      1.537     77.58652  99.0000        436
 3.69   0.0423    686.2920    644.1158  18.15     1991.198     1.388     1.259      2.533     77.56894  19.8022        437
 3.50  99.0000    688.1910    130.8397 -41.23    -2.783417     0.715     0.558      1.337     77.64801  99.0000        438
 3.50  99.0000    676.0004    863.6665 -61.84    -95.13792     0.919     0.209      3.948     77.66557  99.0000        439
 6.93   0.2315    669.6745   1221.2551 -61.16     364.0576     0.941     0.540      3.330     77.59531  21.6471        440
 7.18   0.2625    667.1979   1180.2952  -4.06     321.1166     0.990     0.393      5.402     77.62167  21.7833        441
 3.50   0.0013    649.1277   1464.2970 -60.35     66895.95     1.880     1.776      2.681     77.57773  15.9865        442
 3.65  99.0000    657.3133    525.3934 -42.28    -70.69962     0.592     0.321      1.206     77.62167  99.0000        443
 4.54   0.1538    655.6267    870.9739  53.62     548.2348     1.000     0.763      2.237     77.63045  21.2026        444
 6.40   3.4139   1555.3479   1333.3260 -45.90     24.67857     0.580     0.331      2.235     77.57773  24.5692        445
 3.50   0.0081    640.5852    536.7446 -82.77     10373.99     1.596     1.515      2.596     77.65679  18.0101        446
 3.50   0.4532    642.5608    276.5155  60.43     186.0173     1.468     0.756      2.127     77.62167  22.3761        447
 3.50  99.0000    639.1344    205.5995  81.25    -100.7981     0.768     0.481      1.178     77.68313  99.0000        448
 3.50  99.0000    635.0000    106.0459   0.00    -35.17054     0.874     0.289      0.791     77.68313  99.0000        449
 4.32   0.1204    631.4093    806.0199 -89.03      700.019     1.272     0.961      2.378     77.61288  20.9372        450
 3.50   0.0009    630.0000    483.0770  -1.13     89531.25     1.537     0.535      2.073     77.64801  15.6701        451
 3.50  99.0000    629.7132    942.1152 -50.72    -54.78907     0.870     0.488      1.668     77.56894  99.0000        452
 5.96  99.0000    628.0646    868.6452  86.82    -19.44281     0.801     0.477      1.363     77.63045  99.0000        453
 3.99   0.0872    624.2648   1581.3938 -31.86     967.0168     1.221     0.954      2.333     77.67435  20.5864        454
 7.52   0.1940    620.0558   1153.0000 -88.99     434.9151     1.301     0.582      4.563     77.70068  21.4540        455
 6.63   0.1674    619.1547   1150.5011  88.81      503.015     1.090     0.500      3.086     77.55135  21.2960        456
 5.31   0.8600    616.5001   1234.7808  17.68     97.96719     0.887     0.442      1.818     77.57773  23.0723        457
 3.93   0.5109    647.0811    652.9031  50.68     164.8409     0.833     0.618      1.750     77.55135  22.5073        458
 3.50  99.0000    613.3334   1026.9763 -28.57    -157.0374     0.906     0.212      2.399     77.64801  99.0000        459
 7.08   0.8917    613.0000    995.0459   0.00     94.61518     0.882     0.289      2.427     77.68313  23.1101        460
 5.27   0.5270    610.2855    945.0281  80.74      159.985     0.780     0.694      1.903     77.63045  22.5398        461
 4.68  99.0000    608.4211   1011.8708  31.56    -157.0891     0.800     0.307      1.415     77.66557  99.0000        462
 4.04   0.0799    606.3718    586.1050   2.68     1054.512     1.259     1.040      2.493     77.59531  20.4924        463
 3.50   0.0014   1564.5637    304.2741 -49.92     60318.36     1.844     1.738      2.596     77.61288  16.0989        464
 6.57   0.1338    601.2082   1300.2982 -35.15     629.9859     0.503     0.348      2.606     77.59531  21.0517        465
 5.02   0.1385   1532.8790    415.9925 -15.18     608.6646     1.620     1.145      3.428     77.63923  21.0891        466
 3.65   0.0493   1571.3882     92.6983 -52.64     1710.617     1.348     1.198      2.561     77.58652  19.9671        467
 5.55   0.2900   1581.2239   1414.2240  64.13     290.7908     1.155     0.498      2.594     77.64801  21.8910        468
 5.30   0.2584   1566.3282    678.9262  27.21     326.0053     0.952     0.198      1.184     77.56014  21.7669        469
 6.46   1.7292    588.9406   1139.6997 -62.53     48.71068     0.907     0.211      1.175     77.56014  23.8309        470
 5.09   0.3480   1592.7048    566.6732 -42.44     242.0702     1.137     0.680      2.605     77.57773  22.0901        471
 6.88   0.2726   1594.3400   1383.3201 -45.89     302.2105     0.574     0.335      2.398     75.85336  21.8492        472
 7.06   0.2962   1561.6597   1568.2986  47.12     284.4036     0.565     0.339      1.793     77.56894  21.9152        473
 3.83   0.0709   1585.8881   1108.8702 -62.88     1187.709     1.229     1.087      2.346     77.56894  20.3632        474
 7.69   0.5768   1586.6826      9.9761 -27.91     146.1567     0.911     0.211      1.802     77.63045  22.6380        475
 5.04   0.4844   1576.0000   1491.1226   0.00     174.0806     0.857     0.289      1.614     77.64801  22.4481        476
 3.96   0.0356   1567.5634     22.0702 -33.11     2367.637     1.550     1.347      2.747     77.63923  19.6142        477
 3.70  99.0000   1586.4114   1069.5791  -2.91     -11.5953     1.034     0.490      1.678     77.62167  99.0000        478
 6.49   0.3637   1561.7128    385.2873  45.00     231.6276     0.536     0.350      2.334     77.56894  22.1380        479
 3.50   0.0951   1562.1268    861.5934  31.51       886.67     1.172     1.030      2.199     77.66557  20.6806        480
 6.59   0.5809   1576.9572    503.6237 -87.62     145.1815     0.789     0.484      3.273     77.65679  22.6452        481
 6.24   1.1729   1571.6411   1338.6986 -47.58     71.81624     0.574     0.334      1.963     77.56014  23.4094        482
 5.14   0.3499   1570.8909     33.8909  45.00     240.6759     1.199     0.289      3.793     77.54256  22.0964        483
 3.92   0.2450   1551.5569   1221.8110  35.83     344.0925     0.832     0.789      1.918     77.63923  21.7083        484
 3.50   0.0047   1553.5067    682.1590 -30.40     17838.64     4.469     3.626      7.618     77.55135  17.4216        485
 3.50   0.0014   1558.8643    487.7159 -47.49     59875.04     1.801     1.716      2.555     77.58652  16.1069        486
 4.65  99.0000   1489.0229    432.0000  90.00    -13.05045     0.879     0.289      1.195     77.61288  99.0000        487
 3.50   0.0363   1543.4835    654.6154 -49.72     2321.073     1.316     1.183      2.348     77.64801  19.6358        488
 3.50   0.1939   1537.1063   1429.5767 -58.05     434.6208     1.861     1.083      3.102     77.60409  21.4547        489
 3.55   0.0231   1542.7063    135.1601 -60.54     3649.009     1.451     1.311      2.499     77.55135  19.1446        490
 6.66   0.4705   1534.0240    457.6747  62.15     179.1885     0.922     0.209      2.419     77.63923  22.4167        491
 4.49   0.8720   1522.0972    576.6375  32.06     96.59044     1.364     0.181      1.951     77.56014  23.0877        492
 3.50  99.0000   1499.7462    844.1355 -48.30    -20.30271     0.908     0.443      1.607     77.60409  99.0000        493
 6.24   0.2793   1525.5830    378.8531  22.24     301.9669     0.754     0.434      2.173     77.65679  21.8501        494
 6.61   0.4356   1521.7194   1100.9550 -75.91     193.4362     1.050     0.578      3.200     77.59531  22.3337        495
 6.20   0.2319   1489.3719     77.5806  85.86      363.526     0.966     0.731      2.850     77.63045  21.6487        496
 5.81   0.5287   1506.0000   1470.6666  61.84     159.5363     0.919     0.209      1.711     77.66557  22.5429        497
 5.54   0.1689   1515.9574   1546.9021  79.94     498.6468     1.466     1.003      3.438     77.56894  21.3055        498
 3.50  99.0000   1510.0638    958.3121 -87.57     -153.424     0.827     0.462      1.379     77.59531  99.0000        499
 6.66   1.8442   1502.2192   1412.3424  16.00     45.72082     0.821     0.360      1.526     77.63923  23.8997        500
 7.79   0.2997   1523.1821     14.5840  60.01     281.2864     0.864     0.274      2.210     77.63045  21.9271        501
 3.50   0.0026   1508.0385    269.3915 -55.20     32589.69     1.701     1.598      2.546     77.63923  16.7673        502
 6.83   0.3730   1504.0840   1313.0000  90.00     225.9985     0.886     0.289      2.040     77.63045  22.1647        503
 8.23   0.2397   1510.0000    260.2902 -61.41     351.6966     0.859     0.219      2.695     77.61288  21.6846        504
 7.79   0.7724   1256.3108    911.9326   2.54     109.0924     0.828     0.462      4.478     77.58652  22.9555        505
 5.10   4.8022   1254.3495    506.0243  28.39     17.56574     0.927     0.208      0.868     77.67435  24.9383        506
 7.21   0.4607   1252.0455     81.3561  61.32     183.0639     0.922     0.208      4.170     77.65679  22.3935        507
 5.18   0.1434   1483.4835    574.6194 -42.18     587.8863     1.736     0.877      3.992     77.63923  21.1268        508
 7.06   0.3042   1476.0719    998.6124 -82.28     277.3381     0.889     0.477      2.618     77.68313  21.9425        509
 5.50   0.3372   1263.2410    215.6861  38.95     249.9441     0.526     0.349      1.441     77.61288  22.0554        510
 7.52   0.2509   1477.9769    199.0000  90.00     336.0043     0.879     0.289      2.297     77.61288  21.7341        511
 5.83   0.2289   1274.2544    698.6299 -77.15     368.4686     1.145     0.628      2.743     77.64801  21.6340        512
 8.88   0.0817   1259.7471   1015.4485 -12.09     1032.498     1.294     0.724      6.388     77.63045  20.5153        513
 7.31   0.0912   1262.0000   1016.0001  -4.96     924.1258     1.292     0.656      4.769     77.64801  20.6357        514
 7.11   0.5191   1448.3494     36.9759 -28.38     162.5149     0.926     0.208      4.290     77.67435  22.5228        515
 3.50   0.0002   1367.0525   1159.7625 -46.91       338918     3.193     2.937      4.101     77.63923  14.2248        516
 3.50   0.7160   1468.0000    555.9626   0.00     117.7445     0.782     0.289      0.772     77.63045  22.8726        517
 4.13   0.0473   1416.4312   1386.5653  58.44     1782.572     1.480     1.276      2.932     77.63923  19.9224        518
 4.99  99.0000   1468.9537   1195.0000  90.00    -5.633137     0.865     0.289      4.227     77.68313  99.0000        519
 3.50   0.4433   1437.3202   1346.9045  56.07     189.9951     1.152     0.660      2.057     77.56014  22.3531        520
 6.61   0.4062   1269.1689    361.5000 -74.68     207.3204     0.848     0.463      4.317     77.55135  22.2584        521
 7.69   0.4966   1450.7170     88.4736  73.12     169.6383     0.857     0.452      3.136     77.57773  22.4762        522
 3.50  99.0000   1442.0627    968.6458  86.93    -158.8472     0.802     0.477      0.854     77.60409  99.0000        523
 3.50   4.1996   1451.0000   1263.0450   0.00     20.08877     0.865     0.289      1.368     77.68313  24.7926        524
 8.25   0.1317   1446.2559   1083.8065   5.43     640.9147     0.843     0.431      3.366     77.70068  21.0330        525
 3.50   0.5010   1455.6666    512.6858 -45.92      168.146     0.569     0.338      0.863     77.56894  22.4858        526
 6.64   0.2932   1387.9233   1384.7798  78.43     287.6853     1.020     0.829      3.179     77.65679  21.9027        527
 6.34  99.0000   1454.9799    661.6464 -89.02    -60.36857     0.804     0.478      1.122     77.64801  99.0000        528
 3.50  99.0000   1419.6957    618.0654  27.38    -79.18504     0.915     0.209      2.815     77.59531  99.0000        529
 3.69   0.0342   1440.6885    619.1634  12.09     2467.199     1.261     1.144      2.232     77.60409  19.5695        530
 7.31   0.2507   1389.2616   1584.8923  26.84     336.1579     0.875     0.216      1.434     77.60409  21.7336        531
 3.50   0.0006   1435.2314   1090.4421 -51.90     145314.6     1.959     1.841      2.623     77.66557  15.1442        532
 5.98   0.1708   1439.5906   1271.1183  77.30     493.6395     0.918     0.670      2.550     77.62167  21.3165        533
 5.42   0.2693   1439.5249    646.8514  46.08     312.8123     1.185     0.527      2.099     77.57773  21.8118        534
 5.90   0.1312   1432.8444    341.4586   2.64     642.4452     1.599     1.241      4.443     77.62167  21.0304        535
 3.60   0.0233   1436.1575    224.7849 -42.72     3611.769     1.419     1.279      2.499     77.63923  19.1557        536
 5.31   1.0700   1424.7158    273.1053   3.40     78.69138     0.841     0.449      1.306     77.53377  23.3102        537
 3.50   1.6015   1394.0149    410.8730  27.54     52.67855     0.931     0.578      1.219     77.68313  23.7459        538
 5.30   0.4008   1434.6666   1456.9235 -27.16     210.1484     0.960     0.195      2.444     77.56014  22.2437        539
 3.50   0.0321   1409.0771    308.3878  15.10     2631.122     1.404     1.330      2.505     77.67435  19.4996        540
 3.50  99.0000   1394.9999    993.6860  61.65    -88.93734     0.893     0.214      2.368     77.61288  99.0000        541
 5.13   0.2522   1389.8104    806.5948 -88.45     334.1573     0.889     0.775      2.005     77.58652  21.7401        542
 3.50   0.0045   1420.1815   1126.3538 -55.03     18710.45     1.819     1.634      2.756     77.64801  17.3698        543
 3.50   0.7287   1429.4386   1169.2900 -49.50     115.6385     0.596     0.312      0.819     77.59531  22.8922        544
 4.00   0.0330   1391.2644    713.2376  33.46     2554.257     1.334     1.240      2.414     77.63045  19.5318        545
 3.50   1.3601   1425.9121   1568.0879 -45.00     61.92849     1.196     0.289      5.770     77.56014  23.5703        546
 3.50   0.3726   1423.6742    366.9551 -27.55     226.1575     0.934     0.205      1.343     77.59531  22.1640        547
 4.82   0.1199   1407.0568    329.9243  75.74     702.8435     1.506     1.131      2.889     77.61288  20.9329        548
 5.00  14.3533   1418.6593    195.3626  44.25     5.874352     0.593     0.323      1.066     77.63923  26.1276        549
 5.56   0.1213   1412.0884    350.1978  48.05     694.5992     1.434     1.148      3.468     77.61288  20.9457        550
 7.01   0.6499   1412.3408   1410.0446  28.89     129.7008     0.903     0.212      1.788     77.61288  22.7676        551
 6.22   0.3334   1414.7061      1.1895  79.63     188.8412     1.222     0.330      3.274     57.96828  22.3598        552
 7.48   1.5605   1382.6748    693.9757 -27.84     54.02659     0.922     0.209      4.134     77.63045  23.7185        553
 5.11   0.5560   1303.2579   1075.2581  69.85     151.5578     0.845     0.348      1.050     77.59531  22.5986        554
 6.90   0.9677   1399.2905     84.3548 -41.84     87.06583     0.567     0.337      2.103     77.57773  23.2004        555
 3.50   0.0010   1394.2742    114.4737 -50.74     81433.55     1.885     1.760      2.613     77.59531  15.7730        556
 3.72   0.0110   1389.6078   1428.4995 -42.95     7652.063     1.478     1.438      2.550     77.59531  18.3406        557
 3.50   0.0524   1393.0530   1038.7119  58.83     1607.392     1.316     1.174      2.337     77.56894  20.0347        558
 5.86   0.3933   1400.3477   1312.6523  45.00     214.3429     0.590     0.325      1.304     77.63045  22.2222        559
 5.40   0.0117   1360.3036   1135.1484  79.60     7206.702     6.594     5.075     17.178     77.54256  18.4057        560
 5.01   0.1086   1401.4481   1031.5967  30.48     776.8536     1.176     1.073      2.406     77.67435  20.8242        561
 3.50   0.6153   1381.6510   1189.3256  45.96     136.9274     0.581     0.331      0.875     77.57773  22.7088        562
 7.50   0.4195   1386.1420   1275.5720 -60.72     201.0237     0.949     0.197      2.249     77.65679  22.2919        563
 3.50   0.0094   1373.4570   1018.9459 -27.80     8971.124     1.696     1.552      2.590     77.61288  18.1679        564
 7.07  99.0000   1375.3101    728.0230  -0.86    -9.758406     0.830     0.462      1.707     77.62167  99.0000        565
 6.46   0.3264   1290.5000    132.7500  83.38     257.9354     1.124     0.416      2.689     77.51617  22.0212        566
 6.66   0.2163   1281.3851   1003.0607 -87.42     389.6975     0.967     0.646      3.379     77.63045  21.5732        567
 8.72   0.4793   1348.0000    121.0000   0.00     175.9536     0.857     0.289      4.032     77.64801  22.4365        568
 3.50   2.7889   1380.3252   1357.9756  27.84     30.22609     0.922     0.209      1.369     77.62167  24.3490        569
 7.29   0.3404   1380.4744    319.0000  31.14     247.7355     0.827     0.301      1.838     77.64801  22.0650        570
 7.36   0.9054   1296.3486   1144.6743  45.94     93.04886     0.580     0.331      2.713     77.57773  23.1282        571
 4.47   0.2149   1300.1038     54.2707 -30.47     392.1034     1.337     0.699      2.349     77.58652  21.5665        572
 5.13   0.2661   1346.3318    605.5659 -40.63     316.8319     1.145     0.821      2.506     77.63923  21.7979        573
 3.50  99.0000   1331.3257    555.6969  46.22    -50.37595     0.561     0.341      0.979     77.56894  99.0000        574
 7.20   0.7139   1368.9774   1299.0226 -45.00     118.0861     1.221     0.289      1.628     77.63045  22.8695        575
 6.87   0.2090   1371.1169   1215.5745  58.31     403.2758     0.797     0.309      1.772     77.62167  21.5360        576
 8.06   0.1089   1352.3207   1179.0190 -27.96      774.398     0.913     0.211      2.631     77.64801  20.8276        577
 7.88   0.1189   1353.4500    152.7114 -80.35     708.8127     1.344     0.399      4.388     77.58652  20.9237        578
 6.21   0.0635   1331.2952   1139.4503 -74.95     1325.769     1.775     1.344      5.940     77.56014  20.2438        579
 9.13   0.1342   1352.0409    150.6394 -61.47     628.5662     0.931     0.206      3.314     77.65679  21.0541        580
 3.88   0.0290   1308.4222    669.6282 -80.31     2910.223     1.345     1.332      2.527     77.63923  19.3902        581
 3.50   0.2816   1282.0000   1028.9387   0.00      299.635     0.844     0.289      1.338     77.68313  21.8585        582
 7.14   0.7101   1371.3474    706.3052 -46.98     118.6413     0.571     0.336      2.438     77.57773  22.8644        583
 6.56   0.4094   1349.8795   1582.3936 -60.42     205.9132     0.921     0.205      3.993     77.63045  22.2658        584
 6.51   0.4273   1347.2411    194.2411  72.37     197.4069     0.871     0.353      2.328     77.66557  22.3116        585
 5.15   0.0786   1333.6509    107.5257 -35.84     1071.773     1.248     0.989      2.784     77.57773  20.4747        586
 3.50   0.0028   1320.9098    659.9946 -46.88     30420.76     1.770     1.642      2.561     77.59531  16.8421        587
 4.26   0.6841   1323.0000   1076.0571   0.00     123.3541     0.815     0.289      1.277     77.70068  22.8221        588
 7.65   0.3557   1327.6888   1115.9556 -27.64     236.9455     0.914     0.210      2.564     77.60409  22.1134        589
 4.37   1.4170   1290.7700   1195.4596 -77.25     59.51699     0.852     0.473      1.550     77.65679  23.6134        590
 4.41   0.1170   1305.6620    892.7547 -51.43     720.1364     1.116     0.966      2.297     77.60409  20.9065        591
 8.77   0.1299   1251.3209    943.4158 -20.51     649.0432     1.165     0.995      6.989     77.64801  21.0193        592
 5.92   0.1289   1331.1888    386.7252  -4.13     654.2266     1.355     0.916      3.892     77.67435  21.0107        593
 5.16   0.1075   1319.9032    264.2714 -51.80      783.989     1.419     0.702      2.918     77.58652  20.8142        594
 4.07   0.0219   1330.7682    655.8207  18.63     3855.715     1.526     1.453      2.807     77.63045  19.0847        595
 4.16   0.2485   1308.0000    573.9775   0.00      339.181     0.887     0.289      1.781     77.61288  21.7239        596
 3.50   0.0004   1299.2595    724.8721 -47.04     191003.1     2.012     1.888      2.635     77.59531  14.8474        597
 4.94   0.0289   1308.6597   1036.3319 -34.20     2920.753     2.470     1.724      5.197     77.60409  19.3863        598
 3.77   0.0074   1273.6069    609.9993 -57.71     11379.03     3.936     2.320      5.965     77.59531  17.9097        599
 4.49   0.7655   1315.0793    501.0793  45.00     110.0759     1.174     0.289      1.718     77.59531  22.9458        600
 7.59   0.2524   1369.3282    149.2370 -52.15      334.033     0.530     0.347      1.840     77.63045  21.7405        601
 3.50   0.0988   1293.9402    412.7855  26.41     852.9063     1.239     1.029      2.259     77.63045  20.7227        602
 3.50   0.0115   1292.1848    762.1121 -28.24     7298.875     2.005     1.505      2.865     77.62167  18.3919        603
 4.80   0.3118   1292.1505    545.3431  -1.12     270.3956     1.119     0.644      2.419     77.62167  21.9700        604
 4.05   0.0600   1260.2583    432.3774 -69.20     1406.041     1.935     1.766      4.043     77.65679  20.1800        605
 3.91   0.0192   1278.8846   1331.4535 -58.61     4384.163     1.471     1.370      2.582     77.58652  18.9453        606
 6.23   0.3613   1278.2515    343.6308 -72.57     233.3655     0.820     0.435      1.862     77.64801  22.1299        607
 5.25   0.0575   1294.4254    742.3442  80.28     1466.445     1.265     1.095      3.294     77.64801  20.1343        608
 5.23   0.1452   1229.1621   1154.0226  -5.19     580.9485     1.208     0.877      2.727     77.64801  21.1397        609
 5.90   0.8848   1269.2751    382.8086  43.64     95.32958     1.139     0.352      1.568     77.66557  23.1019        610
 3.74   0.0086   1211.5797   1279.0302  81.77     9851.531     5.606     3.439      8.941     77.63045  18.0662        611
 3.97   0.0840   1243.2916    672.6605 -69.17      1002.99     1.228     0.983      2.433     77.58652  20.5468        612
 3.50   0.0255   1266.2174    807.8788 -56.79     3309.408     1.453     1.380      2.495     77.65679  19.2506        613
 5.97   0.4215   1026.3267   1028.4064 -42.71     200.0947     0.603     0.312      1.482     77.66557  22.2969        614
 6.25   0.2449   1245.0000    615.0000  90.00     344.3244     0.885     0.289      1.807     77.64801  21.7076        615
 6.11   0.1806   1208.6383   1037.8812  30.29     466.7793     0.881     0.212      1.439     77.61288  21.3772        616
 3.71   0.0529   1208.4725    838.8318 -65.35     1593.031     1.241     1.109      2.321     77.63045  20.0444        617
 5.32   0.2508   1262.9879    855.0240 -23.86     336.0621     1.061     0.721      2.075     77.62167  21.7339        618
 3.50   1.4193   1243.3547   1580.0000 -27.94     59.43901     0.947     0.202      1.674     77.68313  23.6148        619
 3.50  99.0000   1240.6968    254.3258  43.78    -157.9704     0.561     0.341      0.777     77.57773  99.0000        620
 5.86   0.1224   1238.4458     48.1274 -37.78     688.3777     1.094     0.970      3.362     77.59531  20.9554        621
 3.75   0.0086   1219.6714   1195.0010 -33.04     9834.487     1.697     1.571      2.707     77.66557  18.0681        622
 3.72   0.0506   1202.5297    339.0960 -80.36     1666.617     1.631     1.251      2.649     77.58652  19.9954        623
 7.86   0.3732   1232.9341    180.9341  45.00      225.735     1.180     0.289      3.967     77.57773  22.1660        624
 3.50   0.7672   1258.9534   1338.0000  90.00     109.9671     0.865     0.289      0.862     77.68313  22.9468        625
 3.50   0.0056   1215.4136    513.0159 -58.64     14983.11     1.621     1.535      2.540     77.63045  17.6110        626
 5.63   0.3700   1238.5009    857.4757  45.04     227.6104     1.022     0.788      3.230     77.54256  22.1570        627
 3.50   0.3906   1225.9999   1092.6749 -61.77     215.8969     0.908     0.212      1.006     77.64801  22.2144        628
 6.32   0.1861   1197.3890   1053.5745  -4.75     452.9899     1.299     0.465      2.244     77.62167  21.4098        629
 7.16   0.3951   1212.3805    829.3199 -47.13     213.4158     0.591     0.323      1.814     77.64801  22.2269        630
 5.26   0.0424   1195.6740    124.2791  83.25     1987.341     2.138     1.722      5.192     77.59531  19.8043        631
 3.50   0.3864   1214.3412     72.3177 -46.06     218.0855     0.574     0.335      0.889     77.59531  22.2034        632
 4.55   0.5974   1209.0000    483.0223   0.00     141.0875     0.835     0.289      1.395     77.61288  22.6763        633
 4.40   0.0730   1201.8032   1442.1143  60.99      1155.06     1.636     1.434      3.390     77.62167  20.3935        634
 5.52   0.4274   1021.2867   1154.5536  40.28     197.1775     0.596     0.310      1.382     77.60409  22.3129        635
 5.24   0.2611   1185.6385    313.6807 -46.67     322.8242     0.583     0.329      1.429     77.60409  21.7776        636
 4.17   0.0283   1235.1315    304.8505  51.76     2981.326     1.322     1.309      2.629     77.59531  19.3640        637
 7.36   0.5633   1217.6882   1558.9139 -27.12     149.5556     0.936     0.203      1.616     77.57773  22.6130        638
 7.14   0.2165   1157.6038    568.9056  28.96     389.2593     0.942     0.202      1.883     77.60409  21.5744        639
 3.61   0.0143   1158.6912    236.4640  16.89     5909.331     1.456     1.402      2.529     77.60409  18.6212        640
 7.61   0.3766   1183.6312    148.9787  -1.13     223.8359     0.794     0.482      3.588     77.63045  22.1752        641
 3.50   0.8128   1213.5168   1389.5336  45.75     103.6339     0.515     0.483      1.153     77.56014  23.0112        642
 6.30   0.1094   1137.7151    703.8547 -26.54     770.3486     0.926     0.202      1.728     77.59531  20.8333        643
 3.50   0.0006   1152.5004    695.5374 -42.93     136257.1     1.985     1.382      2.948     77.59531  15.2141        644
 4.60   0.0727   1154.3536   1352.9137 -24.84     1159.251     1.603     1.366      3.713     77.61288  20.3896        645
 3.50   0.0004   1153.4352    692.5617 -83.42     213688.5     3.743     3.173      4.670     77.64801  14.7255        646
 5.27   0.0451   1204.0123   1075.7374  22.79      1872.01     2.108     1.639      5.250     77.65679  19.8692        647
 5.86   0.3153   1158.0002    185.6608  61.91     267.5848     0.927     0.207      1.698     77.68313  21.9813        648
 3.50   0.0017   1165.9758   1299.8174  86.08      50959.2     1.814     1.766      2.612     77.62167  16.2819        649
 4.36   0.0452   1237.9348   1553.4390   8.63      1863.23     1.463     1.342      3.148     77.63045  19.8743        650
 6.25   0.0552   1212.2479   1431.1888 -42.58     1528.043     3.016     2.153     10.735     77.65679  20.0897        651
 7.88   0.2578   1159.0317    970.2592 -61.86     327.1365     0.832     0.221      2.900     77.64801  21.7632        652
 5.26   0.1316   1162.5293    887.8868 -52.19     639.8994     1.354     1.008      3.022     77.56894  21.0347        653
10.17   0.4640   1190.9773    534.3257  89.07      181.702     0.821     0.468      2.941     77.63923  22.4016        654
 8.04   0.1319   1189.0192   1051.2949 -61.84     638.8934     0.877     0.217      2.651     77.61288  21.0364        655
 7.32   0.1410   1189.7167    963.6524 -41.57     597.3416     0.560     0.340      1.957     77.57773  21.1094        656
 6.27   0.3857   1164.0001      3.0001  45.00     184.0259     1.165     0.289      2.483     65.35532  22.3878        657
 5.74   0.0580   1111.4352    479.1222  -8.52     1453.487     2.187     1.547      6.036     77.61288  20.1440        658
 3.50   0.2368   1205.4451   1217.0800 -43.31     355.9074     1.099     0.651      1.958     77.59531  21.6717        659
 6.58   0.5869   1162.0000   1068.0000  45.00     143.6915     1.115     0.289      5.310     77.64801  22.6564        660
 5.46   0.3028   1141.3711   1010.9774   1.22     278.4099     0.793     0.483      1.853     77.63045  21.9383        661
 4.94   2.9194   1143.0000    978.0190   0.00     28.87838     0.847     0.289      1.533     77.63045  24.3986        662
 3.50   0.0025   1080.7655    512.1357 -63.94        33722     1.744     1.653      2.561     77.63045  16.7302        663
 4.55   0.0382   1120.9689    329.7619  60.06     2206.143     2.154     1.642      4.411     77.64801  19.6909        664
 6.33   0.2891   1123.0479    740.5641 -25.70     291.6918     1.166     0.452      3.954     77.64801  21.8877        665
 3.74   0.5126   1116.7327   1170.2500  44.31     164.4058     1.106     0.353      1.931     77.60409  22.5102        666
 3.50   0.0028   1095.7242    778.1731 -37.67     30564.87     1.806     1.695      2.603     77.62167  16.8369        667
 5.41   0.1721   1095.3680   1136.3704 -66.27     490.1051     0.949     0.793      2.969     77.65679  21.3243        668
 5.95   0.1236   1105.5768    678.7652  76.53      682.167     1.559     1.301      4.552     77.63045  20.9653        669
 5.44   0.2586   1085.9333   1452.5042  86.20     325.9025     0.794     0.498      1.860     77.60409  21.7673        670
 7.27  55.2633   1105.6191    602.7209 -49.63      1.52589     0.571     0.333      1.962     77.64801  27.5912        671
 3.50   1.0149   1100.9542   1366.6666 -88.03     83.06284     0.816     0.471      0.994     77.62167  23.2515        672
 4.95   0.0812   1096.0582   1526.3982 -89.13     1038.754     1.227     1.127      2.905     77.68313  20.5087        673
 5.75   0.3514   1001.6260   1025.6870 -47.33     239.9051     0.585     0.327      1.576     77.63045  22.0999        674
 3.50   0.0085   1082.6125   1148.1832 -78.89     9900.734     1.612     1.518      2.610     77.62167  18.0608        675
 3.50   0.0265   1090.0613    642.3896 -55.29     3181.152     1.601     1.309      2.517     77.67435  19.2935        676
 4.64   0.1195   1073.9154      6.6395 -56.73      689.399     1.161     1.092      2.594     75.83538  20.9538        677
 5.93   0.1503   1084.5046     42.9181  60.53     560.4235     1.119     0.844      3.195     77.56894  21.1787        678
 6.87   0.7703   1019.6667    899.3334  45.00     109.3756     0.577     0.333      1.976     77.57773  22.9527        679
 3.59   0.0721   1002.3831   1555.3815 -79.67      1168.79     1.259     1.135      2.502     77.63045  20.3807        680
 5.23   0.0907    981.5894    797.9408 -39.68     929.6829     1.340     1.131      3.245     77.68313  20.6292        681
 4.70   0.2948    982.9169   1487.0116 -62.85     286.0538     0.831     0.504      2.485     77.63923  21.9089        682
 3.50   2.3152    984.3702    762.6741  46.60     36.40591     0.589     0.325      1.041     77.61288  24.1471        683
 4.66   3.4453   1056.0649   1021.6884  87.54     24.45915     0.828     0.462      1.422     77.59531  24.5789        684
 4.58   0.0664    987.5650    454.0040 -84.24     1269.344     1.726     1.240      3.692     77.63923  20.2911        685
 3.50   0.0028    985.6558    558.4437 -55.81     29722.28     1.717     1.613      2.587     77.62167  16.8673        686
 6.91   0.5326    999.2665    232.6801  41.31     158.1802     0.541     0.347      1.665     77.57773  22.5521        687
 4.52   0.0899   1000.7357   1273.7418 -65.17     937.5165     1.239     1.100      2.942     77.60409  20.6201        688
 5.16   0.0789   1060.8451    726.9872  26.80     1068.631     1.655     1.432      3.925     77.63923  20.4779        689
 7.42   0.5773   1049.0684    960.6971  62.65      145.987     0.915     0.209      2.895     77.60409  22.6392        690
 8.51   0.2299    992.5286      9.4857  22.71     366.3331     1.195     0.207      3.819     77.56014  21.6403        691
 7.12   0.1781   1037.3073     27.9023  27.01     472.8151     0.935     0.202      2.500     77.56014  21.3633        692
 3.50   0.0099   1039.5090    525.3908 -47.91     8500.908     1.517     1.445      2.511     77.60409  18.2263        693
 3.50   0.0020   1041.0369    633.0376 -47.27     43037.11     1.789     1.677      2.563     77.68313  16.4654        694
 4.95   0.4021   1042.6063   1095.0000  -0.00     209.5773     0.779     0.489      1.845     77.59531  22.2466        695
 7.78   0.9198   1041.4174    467.0413 -31.64     91.67899     0.795     0.309      2.307     77.64801  23.1443        696
 3.50   0.0002   1024.3850     50.1911 -45.63     475265.1     2.205     2.028      2.656     77.58652  13.8577        697
 6.00   0.1314   1038.6262    121.9165 -34.01     641.3671     1.953     0.752      4.239     77.62167  21.0322        698
 3.50   0.0491   1031.1124    302.6949  69.31      1716.16     2.540     1.700      4.332     77.54256  19.9636        699
 3.50   0.0049   1010.6171    813.6671 -62.86     17077.38     1.682     1.606      2.594     77.65679  17.4689        700
 3.84   0.0299   1002.4553    542.4584  62.45     2816.516     1.381     1.267      2.535     77.59531  19.4257        701
 3.64   0.0359   1011.9658    344.7172 -70.11     2344.928     1.373     1.135      2.425     77.62167  19.6247        702
 8.26   0.5095   1014.6600    453.6800 -45.89     165.4174     0.574     0.335      1.969     77.60409  22.5035        703
 3.53   0.4982   1004.9222   1237.7092  53.03     169.1079     1.052     0.491      1.439     77.57773  22.4796        704
 6.51   0.3730   1012.6344    267.1780 -74.01     226.0484     1.490     0.546      2.749     77.64801  22.1645        705
 8.77   0.1120   1034.7372     32.9039  -2.70     752.1268     0.854     0.439      4.337     77.58652  20.8593        706
 3.50  99.0000   1004.3821    111.0418  28.25    -8.704507     0.958     0.198      1.468     77.64801  99.0000        707
 3.50   0.0043   1026.5737   1379.9996 -66.16     19808.34     1.765     1.651      2.611     77.61288  17.3079        708
