#   1 KRON_RADIUS            Kron apertures in units of A or B                         
#   2 MAGERR_APER            RMS error vector for fixed aperture mag.                   [mag]
#   3 Y_IMAGE                Object position along y                                    [pixel]
#   4 X_IMAGE                Object position along x                                    [pixel]
#   5 THETA_IMAGE            Position angle (CCW/x)                                     [deg]
#   6 FLUX_APER              Flux vector within fixed circular aperture(s)              [count]
#   7 A_IMAGE                Profile RMS along major axis                               [pixel]
#   8 B_IMAGE                Profile RMS along minor axis                               [pixel]
#   9 FLUX_RADIUS            Fraction-of-light radii                                    [pixel]
#  10 FLUXERR_APER           RMS error vector for aperture flux(es)                     [count]
#  11 MAG_APER               Fixed aperture magnitude vector                            [mag]
#  12 NUMBER                 Running object number                                     
 4.58   0.0000     14.7254   1445.5226  87.55     11056.42     1.507     1.425      1.322  0.006052153  17.9410          1
 6.41   0.0000     17.5707     91.2888  83.31     4215.994     1.008     0.970      1.492  0.006053524  18.9877          2
 9.02   0.0000     16.6663    984.6711 -45.21     4452.066     0.576     0.334      3.149  0.006051468  18.9286          3
 5.59   0.0000     53.0288     63.7734  -5.66     27939.92     2.715     2.568      9.706   0.00605695  16.9344          4
 3.73   0.0000     59.8500   1078.2554 -38.20     39921.54     1.997     1.985      1.819   0.00605558  16.5470          5
 3.76   0.0000     80.0977    537.5093  50.29     35687.66     1.965     1.956      1.857   0.00604941  16.6687          6
 3.55   0.0000    121.7172    788.9867 -11.62     53124.27     2.112     2.059      1.794   0.00605695  16.2368          7
 3.50   0.0000    182.1135   1107.2417 -18.72     656150.5     4.100     3.838      6.099   0.00605421  13.5075          8
 3.79   0.0000    162.3351   1468.0704 -25.89     32927.45     1.966     1.895      1.749  0.006052153  16.7561          9
 3.50   0.0000    193.4450    317.9740  -5.34     181231.1     2.450     2.398      2.149   0.00605832  14.9044         10
 4.71   0.0000    170.3250    877.2950  26.70     9927.326     1.488     1.397      1.259  0.006051468  18.0579         11
 6.28   0.0000    234.9238    403.2505 -53.45     24992.56     2.760     2.490     13.194  0.006051468  17.0555         12
 3.50   0.0000    259.5963    997.2380 -16.65     86268.47     2.271     2.211      1.982   0.00605558  15.7104         13
 3.50   0.0000    265.5568     67.4377   5.86     65205.94     2.190     2.132      1.992  0.006059005  16.0143         14
 3.50   0.0000    312.1580    439.1867 -14.64     219655.6     2.514     2.460      2.408  0.006056265  14.6956         15
 4.16   0.0000    287.4467   1486.1370   3.43     19669.14     1.788     1.704      1.598  0.006053524  17.3155         16
 5.99   0.0000    281.7339   1522.1562   4.05     4815.267     1.204     0.936      1.300  0.006054895  18.8434         17
 4.32   0.0000    302.7734    201.5888  17.85     15669.88     1.704     1.625      1.700   0.00605558  17.5623         18
 3.62   0.0000    318.4661    905.3079  -4.96     45803.75     2.113     2.069      1.931  0.006053524  16.3977         19
 4.51   0.0000    321.7311    697.1346 -21.41      11341.9     1.546     1.459      1.548  0.006050782  17.9133         20
 3.50   0.0000    351.2115    890.6234  -0.72     196478.8     2.477     2.424      2.172  0.006054895  14.8167         21
 3.50   0.0000    351.3006   1345.6693 -10.47     187420.5     2.465     2.407      2.165  0.006052153  14.8680         22
 5.71   0.0000    346.0804    866.8310  22.15      6941.03     1.351     1.219      1.405  0.006054895  18.4464         23
 6.42   0.0000    355.2300    431.6947  60.31     4986.549     1.240     1.015      1.825  0.006053524  18.8055         24
 4.58   0.0000    367.7960    760.9153  41.35      11394.8     1.573     1.515      1.572  0.006054895  17.9082         25
 6.46   0.0000    367.0079    442.5418   1.09     4100.853     1.067     0.794      1.461  0.006059689  19.0178         26
 3.69   0.0000    394.8144    231.2911  40.10     39785.48     2.056     2.004      1.926  0.006054895  16.5507         27
 4.91   0.0000    396.8714   1460.8690  16.72     7937.301     1.389     1.301      1.445   0.00604941  18.3008         28
 4.87   0.0000    397.6761    354.3867  37.56     8992.517     1.423     1.309      1.679  0.006059689  18.1653         29
 3.78   0.0000    419.1789    433.1806   4.96     37619.17     2.040     2.004      1.963  0.006056265  16.6115         30
 4.00   0.0000    415.3232    837.2354  -4.80     20949.71     1.844     1.774      1.738   0.00605421  17.2471         31
 6.45   0.0000    423.9249    926.3342 -15.88     4166.994     1.028     0.753      1.379  0.006050096  19.0004         32
 4.26   0.0000    437.4867    251.9032   9.90     17247.89     1.749     1.663      1.756  0.006048725  17.4582         33
 3.50   0.0000    460.6386    807.4250   7.38     98701.37     2.302     2.227      2.061   0.00605695  15.5642         34
 5.83   0.0000    449.7989     21.1573  39.97     5663.884     1.202     1.063      1.628   0.00605832  18.6672         35
 5.51   0.0000    457.2330     34.4320  10.43     6392.401     1.343     1.133      1.516  0.006057635  18.5358         36
 8.61   0.0000    471.6702    734.6893 -45.96     2361.058     0.566     0.339      1.378  0.006051468  19.6172         37
 6.91   0.0000    477.6436    922.8845 -67.64     3003.952     0.919     0.696      1.208   0.00605421  19.3558         38
 4.82   0.0000    512.0935   1302.2855  11.43     13080.88     1.618     1.517      1.507  0.006048725  17.7584         39
 6.21   0.0000    532.5145    518.8157  26.30     13564.49     2.108     1.805      8.355  0.006054895  17.7190         40
 3.50   0.0000    587.6121   1315.8365  12.79     196380.4     2.445     2.410      2.194   0.00605695  14.8173         41
 4.83   0.0000    572.2502   1242.6522  17.83     7965.225     1.401     1.300      1.346   0.00605695  18.2970         42
 4.83   0.0000    580.0670    144.9306  25.18     11265.76     1.498     1.477      1.643  0.006050782  17.9206         43
 4.75   0.0000    581.6719    319.1499  47.83     11008.68     1.525     1.488      1.717  0.006051468  17.9457         44
 3.50   0.0000    630.6948    483.2455  23.34     317422.1     2.613     2.536      2.754  0.006050096  14.2959         45
 4.06   0.0000    984.4101    558.4280  43.39     26667.92     1.968     1.853      1.893  0.006056265  16.9850         46
 3.92   0.0000   1079.5281    512.2243  40.84     29895.36     1.970     1.917      1.859   0.00605695  16.8610         47
 4.19   0.0000   1025.4709   1379.8959  16.05     19784.11     1.804     1.713      1.612  0.006052153  17.3092         48
 4.19   0.0000    929.3596   1178.3486  47.60     16425.71     1.758     1.658      1.510   0.00605558  17.5112         49
 5.41   0.0000    899.8727    302.7145  21.22      7138.75     1.354     1.164      1.609  0.006050782  18.4159         50
 3.50   0.0000    881.5590    183.9740  12.61     404088.2     2.707     2.667      3.657  0.006059005  14.0338         51
 3.50   0.0000    880.0109   1592.4492  41.00     58947.95     2.277     2.193      1.932  0.006059005  16.1238         52
 3.50   0.0000    858.9630   1224.4426  28.82     182597.4     2.458     2.413      2.096   0.00605832  14.8963         53
 5.12   0.0000    822.4509    654.3677  48.66     7022.405     1.434     1.225      1.458   0.00605695  18.4338         54
 5.40   0.0000    802.7119   1378.4860 -36.72     6708.526     1.313     1.207      1.364  0.006051468  18.4834         55
 4.29   0.0000    798.2214    695.6230  87.38     18373.53     2.108     1.700      3.623  0.006056265  17.3895         56
 7.38   0.0000    800.1639     41.1615  45.48     3114.362     0.764     0.572      1.329  0.006057635  19.3166         57
 3.63   0.0000    726.2407    848.4171  16.28     50990.51     2.121     2.075      1.963   0.00605695  16.2813         58
 3.50   0.0000    723.5911    404.8759  27.66     218489.7     2.491     2.449      2.489   0.00605832  14.7014         59
 8.99   0.0000    702.4866    952.4966 -43.81     2590.456     0.502     0.498      1.150  0.006048725  19.5166         60
 3.54   0.0000    648.0223   1464.2256  27.14     50111.18     2.102     2.062      1.894   0.00605695  16.3002         61
 4.96   0.0000    639.3134    536.8221  -2.15     11707.12     1.551     1.492      1.568  0.006054895  17.8789         62
 4.95   0.0000   1081.4266   1148.1763   9.10     10950.18     1.512     1.479      1.401  0.006056265  17.9514         63
 6.17   0.0000   1552.0426    682.0905 -23.21      18170.5     2.365     1.958     10.256  0.006052839  17.4016         64
 6.73   0.0000   1541.2097    135.0038  87.97     4340.241     0.924     0.764      1.430  0.006053524  18.9562         65
 3.60   0.0000   1557.4778    487.5966  28.88     46122.95     2.070     2.016      2.018  0.006056265  16.3902         66
 3.58   0.0000   1563.1895    304.0948  50.22     47509.36     2.024     1.986      2.087  0.006053524  16.3581         67
 4.94   0.0000   1514.3325    392.6137  45.68      9011.44     1.426     1.306      1.604  0.006059689  18.1630         68
 3.89   0.0000   1506.6556    269.2660  15.14     30202.41     1.887     1.846      1.889  0.006053524  16.8499         69
 7.84   0.0000   1088.9923    642.5026  89.59     3414.912     0.798     0.500      1.407   0.00605421  19.2166         70
 4.04   0.0000   1094.5784    778.1753  58.05     26804.69     1.931     1.892      1.826  0.006056265  16.9795         71
 3.50   0.0000   1433.9375   1090.2455  53.92     98382.61     2.273     2.226      2.189  0.006053524  15.5677         72
 6.47   0.0000   1434.8289    224.8084 -49.66     4355.458     0.911     0.875      1.556  0.006056265  18.9524         73
 7.10   0.0000   1439.2841    619.0080   1.07     3338.371     0.743     0.682      1.326  0.006054895  19.2412         74
 4.33   0.0000   1129.5056    183.5610   7.10      17705.3     1.694     1.678      1.804  0.006050096  17.4297         75
 4.34   0.0000   1418.8826   1126.1631 -85.17     19833.88     1.824     1.719      1.678   0.00605558  17.3065         76
 8.62   0.0000   1407.5117    308.4846 -53.62     3197.996     0.500     0.500      1.729  0.006051467  19.2878         77
 7.85   0.0000   1389.9883    713.0309   1.08     3299.154     0.632     0.616      1.473  0.006057635  19.2540         78
 3.50   0.0000   1392.8809    114.4707  73.56     61270.44     2.149     2.124      2.108  0.006052153  16.0819         79
 4.68   0.0000   1372.1746   1018.8176  45.01     9819.076     1.433     1.411      1.458  0.006056265  18.0698         80
 4.85   0.0000   1388.4525   1428.4275  31.82     8964.029     1.425     1.402      1.238  0.006057635  18.1687         81
 5.60   0.0000   1157.4078    236.5105  13.13     6413.355     1.295     1.201      1.391   0.00605421  18.5323         82
 3.50   0.0000   1365.8319   1159.0936   8.21     387139.2     2.623     2.565      3.297  0.006052839  14.0803         83
 5.07   0.0000   1218.4607   1194.7272  -3.59     11139.65     1.488     1.446      1.467  0.006052839  17.9328         84
 4.19   0.0000   1319.6573    659.9462  60.82     27268.29     1.915     1.895      1.770   0.00605421  16.9609         85
 8.19   0.0000   1210.2893   1278.1924  49.09     9814.496     1.484     1.241      8.903   0.00605421  18.0703         86
 7.73   0.0000   1329.2261    655.9933 -89.42     3511.292     0.935     0.764      1.588   0.00605695  19.1863         87
 7.60   0.0000   1307.0082    669.6927 -87.48     3150.611     0.742     0.683      1.450   0.00605421  19.3040         88
 3.50   0.0000   1298.0416    724.8768   0.09     121942.7     2.375     2.320      2.210   0.00605421  15.3346         89
 5.76   0.0000   1277.6202   1331.3541  46.42     4871.497     1.080     0.976      1.331   0.00605695  18.8308         90
 5.50   0.0000   1291.0662    761.6807  13.52     7444.143     1.435     1.221      1.581  0.006051468  18.3705         91
 6.43   0.0000   1272.2783    609.9610 -51.63     11006.05     1.901     1.553      8.155   0.00605421  17.9459         92
 7.21   0.0000   1265.0052    807.9698  40.35     3785.942     0.803     0.788      1.417   0.00605558  19.1046         93
 7.74   0.0000   1233.9912    304.9820  -1.62      3188.52     0.624     0.619      1.435   0.00605421  19.2910         94
 3.50   0.0000   1221.1202    995.2307 -11.46     744568.7     4.472     4.100      6.759  0.006054895  13.3702         95
 4.26   0.0000   1214.2008    513.0517  37.88      16928.6     1.693     1.633      1.586  0.006059689  17.4784         96
 3.50   0.0000   1151.3099    693.9034  11.92     367585.7     2.647     2.627      2.882   0.00604941  14.1366         97
 5.33   0.0000   1107.0968    428.0487  67.55       7869.1     1.414     1.208      1.415  0.006048038  18.3102         98
 3.72   0.0000   1164.8346   1299.7362  36.93     41902.49     2.085     2.011      1.758   0.00605558  16.4944         99
 3.99   0.0000   1138.1132    148.1904  29.36      28956.6     1.971     1.910      1.835   0.00605558  16.8956        100
 4.75   0.0000   1104.1101    751.8542   5.14     12246.83     1.592     1.529      1.504  0.006052153  17.8299        101
 5.13   0.0000   1038.3442    525.4018  33.66     9297.209     1.474     1.387      1.323  0.006060374  18.1291        102
 3.78   0.0000   1039.8871    633.1101  38.22     35323.25     2.061     2.001      1.771   0.00604941  16.6798        103
 3.50   0.0000   1022.9752     50.2083  26.24     265163.4     2.550     2.520      2.543   0.00605558  14.4912        104
 8.80   0.0000   1010.5113    344.4997 -43.26     2740.443     0.501     0.499      1.880  0.006048038  19.4554        105
 4.31   0.0000   1009.4088    813.6655 -33.61        18152     1.729     1.683      1.689  0.006059689  17.4027        106
