#   1 KRON_RADIUS            Kron apertures in units of A or B                         
#   2 Y_IMAGE                Object position along y                                    [pixel]
#   3 MAG_BEST               Best of MAG_AUTO and MAG_ISOCOR                            [mag]
#   4 FLUX_BEST              Best of FLUX_AUTO and FLUX_ISOCOR                          [count]
#   5 X_IMAGE                Object position along x                                    [pixel]
#   6 THETA_IMAGE            Position angle (CCW/x)                                     [deg]
#   7 A_IMAGE                Profile RMS along major axis                               [pixel]
#   8 B_IMAGE                Profile RMS along minor axis                               [pixel]
#   9 MAGERR_BEST            RMS error for MAG_BEST                                     [mag]
#  10 NUMBER                 Running object number                                     
#  11 FLUXERR_BEST           RMS error for BEST flux                                    [count]
 4.35     53.0761  16.5595     39463.65     63.6156   3.16     4.592     4.073   0.0094          1      340.727
 3.92     16.5094  18.7828     5091.985    984.8414 -83.95     3.666     1.856   0.0396          2     185.5832
 4.22     17.7176  19.2001     3466.943     91.1998  -3.81     1.747     1.724   0.0415          3     132.6158
 3.50     14.7234  18.1494     9125.316   1445.5381 -51.67     1.979     1.966   0.0150          4     125.7272
 3.94     24.5798  21.1879     555.7144    367.1608  47.33     1.418     0.833   0.1549          5     79.25313
 3.50     59.7903  16.4666     42989.15   1078.2528  41.11     2.422     2.360   0.0038          6     152.1027
 3.50     80.1555  16.5110     41265.63    537.4584  -5.36     2.379     2.363   0.0040          7     150.7199
 4.41     75.1596  20.1197     1486.323    127.4336  -3.96     1.642     1.477   0.0906          8     124.0508
 3.50    121.7140  16.0690     61999.18    788.9751 -30.72     2.477     2.450   0.0027          9     155.8421
 7.55     82.2019  21.4774     425.6398    421.3208 -29.79     0.727     0.638   0.2393         10     93.77357
 4.48     96.3192  19.7573     2075.283     55.8991 -28.59     1.568     1.396   0.0627         11      119.757
 7.23     89.5114  20.6907     878.4885    376.3397 -11.82     1.109     0.883   0.1585         12     128.2008
 5.53     93.6526  22.5928     152.3582   1047.2646  49.95     0.551     0.343   0.3179         13     44.59823
 7.24    117.0107  22.2635     206.3403    452.2246 -89.50     0.672     0.417   0.3572         14     67.86832
 3.50    162.3631  16.7071     34446.48   1468.0619 -38.60     2.333     2.289   0.0046         15     146.4933
 3.74    170.3269  18.3190     7805.662    877.1562 -20.84     2.076     1.959   0.0190         16     136.5057
 6.15    164.6801  21.2087     545.1661   1445.7670   1.43     1.117     0.819   0.2147         17     107.7959
 5.98    166.7937  21.4801     424.5835    104.3359 -70.54     0.958     0.664   0.2205         18     86.21245
 8.40    169.3878  21.3977     458.0443   1367.1930  18.98     0.760     0.444   0.2058         19     86.81745
 7.81    178.4733  21.4617     431.8234    574.5372 -47.61     0.503     0.495   0.1856         20     73.78065
 6.04    192.5125  20.5334     1015.361   1350.6089 -46.13     1.345     1.047   0.1384         21     129.4198
 5.82    210.2050  18.8185      4927.24    826.7244  -9.62     3.093     2.058   0.0588         22     266.8058
 4.71    206.2772  20.1064     1504.597    548.8275  67.73     1.490     1.249   0.0842         23     116.6574
 4.28    212.2492  20.0678     1559.087   1305.9180  35.16     1.557     1.396   0.0797         24      114.392
 6.01    229.0811  19.1182     3738.675    562.2142   5.12     2.787     2.140   0.0770         25     265.2317
 3.50    259.5902  15.3813     116810.9    997.2166  -5.34     2.567     2.511   0.0015         26     161.4509
 6.36    209.5165  22.3468     191.1079   1226.4760  47.57     0.501     0.498   0.3289         27      57.8783
 8.03    209.6646  21.9099     285.7948    684.3248  45.47     0.574     0.335   0.2520         28     66.30792
 3.50    223.6874  20.0766     1546.509   1225.4329 -20.57     1.526     1.334   0.0639         29     90.93987
 3.50    265.5750  15.7999     79439.23     67.4363  23.25     2.521     2.500   0.0022         30     161.1264
 6.86    222.0241  21.2264     536.3422    774.9658  42.61     0.796     0.776   0.2009         31     99.19841
 5.37    243.9678  20.2490     1319.492    112.7747  60.17     1.669     1.178   0.1124         32     136.5057
 4.20    255.0830  19.2444      3328.32    612.6425 -10.07     2.406     1.927   0.0534         33     163.7046
 3.50    287.4959  17.4229     17817.97   1486.1455 -21.89     2.200     2.111   0.0083         34     136.1217
 3.93    281.9188  19.1367     3675.677   1521.9924  -7.51     1.742     1.687   0.0361         35     122.3514
 3.64    302.7955  17.7142     13625.06    201.6064 -18.90     2.147     2.093   0.0112         36      141.032
 6.75    292.7825  21.0051     657.5765   1476.2543 -33.47     0.967     0.830   0.1796         37     108.7627
 3.64    321.6673  18.1674     8974.985    697.1133   7.98     2.136     2.026   0.0166         38     137.2704
 5.58    301.8019  21.0578     626.4459    562.6378  12.84     1.362     0.775   0.1809         39     104.3416
 6.42    327.4525  19.8469     1910.936    595.1927 -74.56     1.521     1.295   0.0929         40     163.3845
 8.75    322.3300  20.8441     762.7272    639.1661 -12.92     1.100     0.411   0.1514         41     106.3292
 3.88    367.7903  18.1227     9352.744    760.9296 -31.18     2.118     1.987   0.0168         42     144.3336
 4.50    349.5560  20.5575     993.1028     54.4217  -8.97     1.724     1.072   0.1231         43     112.5469
 4.28    360.8574  20.1006     1512.659   1500.1417  26.84     1.559     1.376   0.0825         44     114.8487
 3.50    394.8527  16.3992     45741.27    231.3119  56.18     2.481     2.350   0.0037         45     153.8137
 6.36    380.3160  21.3775     466.6652      1.4190  87.34     1.266     0.490   0.1766         46      75.8791
 3.50    397.7925  18.4318     7035.465    354.3903  50.55     2.040     1.913   0.0193         47     125.3102
 3.61    396.8803  18.6127     5955.607   1460.9519  11.57     1.997     1.799   0.0228         48     124.8918
 4.30    393.7094  20.2969     1262.493   1088.5785  72.26     1.476     1.300   0.0923         49     107.3092
 5.73    413.0342  20.5588     991.9281      1.8160  86.56     2.186     0.875   0.1272         50     116.2079
 9.08    395.7974  21.2969     502.6232    626.4155 -71.76     0.761     0.454   0.2062         51      95.4334
 3.50    437.5338  17.6201     14857.94    251.9062  -3.41     2.185     2.125   0.0099         52     136.1217
 5.68    420.2739  20.6081     947.9299    159.0850  -7.92     1.694     1.092   0.1603         53     139.9141
 3.50    460.6571  15.2628     130279.7    807.4001  -6.26     2.604     2.515   0.0014         54     163.0638
 5.04    432.4406  20.3843     1164.873   1422.1628  47.40     1.444     1.265   0.0887         55     95.10629
 7.71    427.1245  21.7627     327.2695    433.6820   0.98     1.559     0.329   0.2160         56     65.10363
 4.23    449.6169  18.8380     4839.398     21.3220 -74.14     1.977     1.846   0.0330         57     146.8502
 5.08    439.7754  21.4950     418.8022    305.7711  44.23     1.065     0.762   0.2155         58     83.12138
 6.34    444.2969  20.7973     796.2797    122.5360 -53.60     1.247     0.856   0.1597         59     117.1053
 4.31    457.3157  18.7422     5285.682     34.5039 -50.59     1.926     1.899   0.0305         60     148.6216
 5.20    467.2097  18.5022     6593.484    849.8481  22.62     5.042     1.902   0.0481         61     291.9127
 4.99    463.3731  19.8788      1855.65    468.0524 -11.48     1.585     1.487   0.0808         62      138.031
 4.76    471.5055  19.5990     2400.966    734.9928  75.93     1.661     1.558   0.0636         63     140.6604
 4.64    470.9930  20.1719     1416.594    254.0508  81.26     1.580     1.381   0.0961         64     125.3102
 4.57    477.6005  19.4451     2766.709    922.8333 -26.05     1.755     1.553   0.0530         65     134.9632
 3.50    477.5716  20.6947     875.2385   1276.2678 -70.77     1.351     1.163   0.0992         66     79.91084
 4.56    483.7100  20.4320     1114.835   1070.1748 -64.27     1.311     1.252   0.1026         67     105.3401
 5.73    495.4494  19.8465      1911.62     82.4905  59.85     2.032     1.487   0.1027         68     180.7249
 7.37    494.2784  19.8476     1909.607   1189.0267 -57.81     2.135     1.255   0.1244         69     218.7252
 7.61    481.4957  21.8467     302.9082    682.4514  76.42     0.500     0.497   0.2541         70     70.88615
 4.66    530.8340  17.8408     12125.48    519.0797  23.79     4.232     2.365   0.0171         71     191.2283
 9.16    491.5052  21.4454     438.3555    840.4949  44.99     0.502     0.498   0.2090         72      84.3714
 6.86    502.8146  20.3621     1188.953    762.1321 -76.49     1.438     1.154   0.1460         73     159.8217
 5.62    514.6791  19.3517     3015.283   1460.5062  33.08     2.939     1.497   0.0772         74     214.3745
 4.87    501.1110  21.3373     484.2802    863.8115  56.72     0.984     0.798   0.1747         75     77.92105
 6.18    513.5325  20.9038     721.8922   1178.6989 -75.50     1.119     0.911   0.1707         76     113.4732
 8.11    518.3926  21.3441     481.2511    642.0172  -0.38     0.893     0.488   0.2203         77     97.60262
 3.55    539.9919  20.2301      1342.63    999.8556 -16.36     1.458     1.302   0.0712         78     88.01499
 3.84    558.5294  19.7837     2025.387   1041.7600 -40.61     1.726     1.463   0.0591         79      110.197
 3.82    580.0692  18.1964     8738.313    144.9193  80.66     2.006     1.926   0.0170         80     136.5057
 3.72    581.6051  18.2197     8553.236    319.2840  81.21     2.067     1.963   0.0173         81     136.1217
 4.91    570.6909  20.0347     1607.341     45.6481  49.17     1.819     1.369   0.0950         82     140.6604
 7.35    558.4872  22.3371     192.8297   1014.4709  50.10     0.501     0.498   0.3822         83     67.86832
 6.25    570.2560  20.1545     1439.484   1446.6609 -13.69     1.872     1.116   0.1235         84     163.7046
 5.59    596.4774  18.4725     6776.256    782.5620 -63.92     3.171     2.585   0.0465         85     289.9336
 5.59    583.8234  21.2730     513.7834     75.9971  82.67     0.951     0.748   0.1835         86     86.81745
 4.89   1001.2191  19.4924     2648.701    542.7368 -86.65     1.811     1.613   0.0624         87     152.1027
 5.10   1598.1549  21.1641      568.021    654.4977 -59.77     1.563     0.709   0.1540         88     80.56319
 7.18   1599.7539  21.9751     269.1399     18.0441   2.33     0.673     0.430   0.2299         89     56.96678
 7.14   1576.4854  22.1650     225.9446    157.4998  44.55     0.507     0.493   0.3187         90     66.30792
 3.82   1552.1312  17.2303     21274.96    682.1388 -11.09     4.029     3.595   0.0135         91     263.6482
 7.60   1545.4729  21.0553     627.8826    863.4920   0.17     1.075     0.499   0.1752         92      101.287
 3.71   1541.9044  19.9385     1756.322    654.4996 -86.72     1.636     1.370   0.0623         93     100.7689
 4.83   1541.2513  19.2671     3259.664    134.9763  52.87     1.723     1.649   0.0490         94     147.2062
 4.74    938.7365  20.0385     1601.807   1066.8510 -66.13     1.671     1.491   0.0920         95     135.7366
 5.75    928.1341  20.6199     937.6168   1322.7537  13.67     1.378     1.096   0.1490         96     128.6084
 5.49    912.6265  20.8628     749.6725    838.8096 -85.83     1.382     0.831   0.1540         97     106.3292
 8.10    911.2211  21.5049     414.9825   1000.4026  71.65     0.744     0.454   0.2256         98     86.21245
 3.60    899.9008  18.6705     5646.839    302.8005  34.11     1.968     1.814   0.0221         99     114.8034
 5.17    896.1798  20.5348     1014.143    538.6572 -20.99     1.596     1.272   0.1420        100     132.6158
 3.50    880.0001  15.5013     104588.8   1592.3890  67.93     2.579     2.485   0.0016        101     158.8361
 7.77    888.5492  20.9314     703.8037    326.2952  31.43     0.996     0.689   0.1807        102     117.1053
 6.98    885.5248  20.9652      682.241   1499.8888   3.37     1.025     0.930   0.1954        103     122.7784
 6.56    876.4882  21.3718      469.129    960.7388  68.84     1.145     0.537   0.2132        104     92.08382
 7.42    875.6602  21.4446      438.672    543.2203 -14.94     0.752     0.447   0.1929        105     77.92105
 4.02    869.0720  19.5827     2437.296   1102.9993   6.93     1.826     1.786   0.0596        106     133.7947
 9.60    867.4836  21.1023     601.2904    937.5118 -43.88     0.501     0.498   0.1611        107     89.19646
 6.99    858.3290  21.8833     292.8747   1340.0992 -26.27     0.848     0.602   0.2058        108     55.50017
 6.85    844.8875  21.2329     533.1458   1063.5880  26.83     1.092     0.575   0.1966        109     96.52411
 5.29    842.8666  20.6041     951.4022   1106.3442 -12.73     1.420     1.251   0.1445        110     126.5571
 5.46    836.3758  20.2133     1363.574    298.4915 -47.33     1.460     1.317   0.1093        111     137.2704
 7.30    832.0208  22.4793      169.157    102.6931  61.96     0.895     0.214   0.3598        112     56.04042
 3.50    822.4543  18.6483     5763.613    654.3831  60.36     2.010     1.887   0.0235        113     124.8918
 3.85    802.8201  18.7492      5251.71   1378.5322  80.47     1.905     1.844   0.0271        114     131.0276
 3.50    798.0511  17.5611      15688.2    695.6246  87.04     2.676     2.132   0.0106        115     152.4464
 3.97    800.0858  19.6092     2378.672     41.1827  84.96     1.738     1.594   0.0543        116     118.8797
 3.83    773.9717  19.5942     2411.603   1427.2469  86.26     2.525     1.713   0.0653        117     145.0571
 4.11    742.2826  20.2386     1332.167    556.6755 -32.45     1.593     1.423   0.0917        118     112.5469
 3.50    739.2837  22.7162     135.9977   1025.6288  40.92     0.570     0.335   0.2001        119     25.06204
 5.75    737.3004  21.2822     509.4594   1157.4828  55.04     1.079     0.817   0.2069        120     97.06487
 6.45    735.8962  21.2583     520.8306    649.7789  27.60     0.990     0.767   0.2133        121     102.3154
 3.50    726.2197  16.0649      62236.5    848.3931   9.61     2.486     2.436   0.0027        122     156.1776
 5.53    726.7856  20.6818     885.7147   1178.2944  53.55     1.179     1.157   0.1452        123     118.4386
 7.35    720.5074  21.6083     377.2983   1395.0264  -3.24     0.780     0.499   0.2446        124     84.98952
 4.62    715.3133  20.5173     1030.578    808.2141  -2.95     1.457     1.192   0.1161        125      110.197
 4.12    708.3894  20.5110     1036.571   1163.8232  76.10     1.459     1.173   0.1023        126     97.60262
 5.31    704.0020  20.1890     1394.376   1339.0176  55.46     1.726     1.530   0.0975        127      125.157
 3.61    702.1442  19.7754     2040.981    952.2445 -41.71     1.611     1.467   0.0539        128      101.287
 7.63    699.2137  21.3404     482.8914    583.4163  71.29     0.761     0.452   0.1826        129     81.21029
 8.44    687.0834  20.7187     856.0946   1213.1517  66.70     0.965     0.767   0.1662        130     131.0276
 4.78    685.1599  19.7934     2007.385    644.3717 -63.46     1.616     1.437   0.0722        131     133.4029
 3.50    648.0245  16.0843     61130.85   1464.2267 -70.60     2.440     2.433   0.0028        132     155.5059
 5.91    654.3413  21.5616     393.8699    870.4225 -81.46     1.001     0.476   0.2054        133      74.4867
 7.57    644.4534  20.9148      714.637    653.3862 -25.38     1.539     0.624   0.2045        134     134.5748
 5.86    630.8973  21.3021     500.2303    805.9020 -18.33     1.317     0.649   0.2165        135     99.72467
 4.60    623.1654  20.8015      793.235   1581.1930 -26.50     1.169     1.109   0.1291        136     94.33009
 3.50   1563.1940  16.2183     54035.16    304.0516  19.62     2.354     2.291   0.0030        137     147.9156
 3.50   1557.4763  16.2207     53917.99    487.5990  72.45     2.428     2.382   0.0030        138     150.3722
 3.50   1560.4519  20.8533     756.2748    861.2052 -47.68     1.353     1.039   0.1070        139      74.4867
 4.31   1584.6047  20.6516     910.6614   1108.8656 -28.62     1.251     1.143   0.1125        140     94.33009
 4.62   1569.9062  20.1552     1438.528     92.4829  -9.49     1.383     1.314   0.0850        141     112.5469
 4.99   1565.8108  20.1510      1444.09    784.5759 -57.96     1.744     1.420   0.1066        142     141.7723
 7.47   1551.3224  22.0420     253.0535   1221.6764  44.93     0.568     0.338   0.2560        143     59.65959
 4.61   1565.9939  19.8965     1825.627     21.9316  76.93     1.520     1.364   0.0715        144     120.1933
 7.35    950.0664  20.5848     968.4988    654.0156   0.14     1.327     0.754   0.1500        145     133.7947
 3.63   1025.4348  17.4286     17723.93   1379.8235  79.28     2.325     2.195   0.0091        146     147.9156
 5.73   1503.9285  21.3476     479.7067    723.1745 -28.62     0.960     0.740   0.1993        147     88.01499
 3.66   1514.2578  18.4038     7219.269    392.6544 -56.78     2.029     1.934   0.0198        148     131.8241
 3.50   1506.6610  16.8930     29026.65    269.2816   8.82     2.292     2.250   0.0054        149     144.6958
 7.13    986.4722  19.9303     1769.604    453.7448 -32.90     1.763     1.184   0.1149        150     187.2678
 6.08    980.7255  20.8334     770.2985    798.3164  25.80     1.282     0.986   0.1749        151     124.0508
 6.03   1071.5354  19.6828     2222.625   1219.0240  65.44     1.823     1.711   0.0950        152     194.3992
 8.26   1064.9005  20.4184     1128.828   1562.6733 -71.30     1.336     0.719   0.1409        153     146.4933
 3.50    984.3661  16.9751     26913.46    558.4333  72.42     2.386     2.297   0.0060        154     148.6216
 3.50   1094.5245  16.9561     27389.06    778.2376  55.02     2.418     2.168   0.0058        155     147.4689
 3.97   1038.1735  18.3059      7900.43    525.4780 -48.22     2.105     2.019   0.0204        156      148.269
 6.73   1110.6647  20.0112     1642.585    479.4353  30.02     1.934     1.115   0.1183        157     178.9788
 3.54   1106.9893  18.6122     5958.127    428.0913  39.79     2.033     1.866   0.0226        158     124.0508
 4.90   1128.2218  21.4835     423.2673    546.8216  61.28     1.009     0.659   0.1856        159     72.34788
 5.42   1119.3601  22.6524     144.2261    397.7130  48.56     0.567     0.337   0.3269        160     43.40873
 3.91   1272.1913  17.8345     12195.61    610.1705 -49.23     3.893     2.566   0.0200        161     224.3951
 4.81   1407.6844  19.7507     2087.951    308.3306 -51.13     1.645     1.548   0.0728        162     139.9141
 6.32   1129.6849  20.9276      706.269    219.3333  30.42     1.245     0.877   0.1835        163     119.3192
 3.90   1388.4165  18.4510     6912.199   1428.3680  60.07     2.071     1.909   0.0222        164      141.032
 3.99   1391.9753  19.9492     1739.065   1038.7365  55.07     1.559     1.385   0.0655        165      104.842
 3.50   1439.2206  19.7319      2124.45    619.1802   4.29     1.620     1.426   0.0491        166     95.98031
 5.18   1414.9738  20.0313     1612.488   1386.3202  63.84     1.565     1.257   0.0888        167     131.8241
 3.59   1435.6067  16.2573     52128.89   1088.5908  45.91     2.636     1.592   0.0029        168      139.471
 8.09   1405.5098  21.9840     266.9218    330.4528  50.22     0.505     0.493   0.3002        169     73.78065
 4.34   1434.5785  19.3288     3079.588    224.6958  43.70     1.844     1.673   0.0488        170     138.4096
 7.47   1411.0862  20.9153     714.2761    349.8971 -70.30     1.152     0.756   0.1912        171     125.7272
 3.50   1392.8612  15.8838     73533.55    114.4540 -77.22     2.511     2.457   0.0023        172     156.8465
 3.97   1307.2772  19.5817      2439.51    669.2149 -26.56     1.867     1.542   0.0547        173     122.7784
 3.50   1298.0420  14.9500     173782.2    724.8973 -12.40     2.702     2.642   0.0011        174     171.2063
 6.27   1293.0175  20.2687     1295.689    741.9868 -46.93     1.577     1.350   0.0938        175     111.8809
 4.59   1389.9966  19.6278      2338.25    713.2720  29.41     1.727     1.453   0.0609        176     131.0276
 5.06   1399.9536  21.0060      657.026   1031.1112 -26.12     1.309     0.970   0.1733        177      104.842
 4.00   1372.0980  18.3114     7860.276   1018.8559  59.61     2.008     1.933   0.0196        178     141.7723
 3.50   1319.6676  16.9511     27513.62    659.9767 -65.13     2.297     2.269   0.0058        179     147.4086
 7.00   1330.3043  22.2038     218.0076    387.0521 -27.56     0.908     0.211   0.2648        180     53.16462
 3.50   1331.8578  20.9182     712.3641    107.4655 -45.16     1.456     1.056   0.1178        181      77.2464
 7.21   1318.9254  20.8410     764.8822    264.3366  34.92     1.005     0.850   0.1725        182     121.4927
 6.12   1303.9280  20.9656     681.9897    892.9083 -83.48     1.292     0.766   0.1740        183     109.2429
 4.30   1329.3556  19.3159     3116.439    656.0063  67.05     1.905     1.717   0.0392        184     112.5095
 3.77   1277.7059  19.1697     3565.466   1331.2184  21.58     1.875     1.678   0.0369        185     121.0612
 3.94   1291.0112  18.5786       6145.5    761.9792 -35.98     2.180     1.856   0.0254        186     143.9705
 6.15   1293.2135  20.6348     924.9052    412.4548  86.74     1.495     0.894   0.1496        187     127.3816
 3.74   1265.0043  19.4677     2709.573    807.6888  59.02     1.733     1.652   0.0462        188     115.3035
 7.06   1259.2908  19.8997     1820.244    431.8992  30.23     1.643     1.229   0.1080        189     181.0143
 3.50   1210.1118  17.8146     12421.11   1278.8019  88.29     4.964     3.160   0.0220        190     251.6625
 3.65   1214.2184  17.7331     13389.55    513.1102 -51.82     2.217     2.114   0.0115        191      142.141
 3.90   1233.8926  19.6974     2192.935    304.5956  31.96     1.657     1.489   0.0548        192      110.671
 4.62   1236.6970  20.1799     1406.144   1553.3053  -1.58     1.445     1.336   0.0898        193     116.2079
 6.42   1211.9081  20.1121     1496.725   1429.0969  78.32     1.813     1.390   0.1345        194      185.301
 4.06   1218.5441  18.2112     8619.997   1194.7987  -4.67     2.073     2.006   0.0189        195     150.3722
 7.08   1230.3762  21.1845     557.4298    599.4181 -45.48     1.002     0.527   0.1816        196     93.21372
 3.73   1206.8634  20.3285     1226.259    838.8547  70.52     1.321     1.271   0.0769        197     86.81745
 4.43   1150.4622  20.4405     1106.121     99.7157 -34.18     1.473     1.324   0.1105        198     112.5469
 7.11   1200.6940  20.7277     848.9999   1441.8871  44.78     1.428     0.876   0.1837        199     143.6064
 3.50   1138.0439  16.8991     28863.06    148.1240  57.72     2.421     2.385   0.0058        200     153.1316
 5.21   1201.4369  20.0359     1605.618    339.2401  -9.48     1.688     1.359   0.0966        201     142.8756
 6.99   1194.0789  20.1922     1390.285    124.1462 -33.12     1.339     1.252   0.1281        202      164.024
 5.95   1180.7050  21.4121     452.0139    549.8160  69.40     1.110     0.687   0.2293        203      95.4334
 4.00   1157.3177  18.7481     5257.281    236.5814 -70.77     1.936     1.902   0.0288        204     139.5395
 3.50   1129.5725  17.6540     14400.72    183.6764  60.56     2.186     2.166   0.0104        205     138.4096
 7.64   1153.6528  20.8354     768.8313   1353.2083   3.41     1.214     0.828   0.1966        206     139.1639
 3.50   1164.8154  16.4016     45640.73   1299.7313  40.42     2.486     2.361   0.0037        207      153.473
 4.43   1160.6956  21.2197     539.6619    887.7303  89.68     1.154     0.833   0.1582        208     78.58991
 3.93   1081.3717  18.1754     8909.269   1148.1642  64.42     2.148     1.996   0.0179        209     146.8502
 5.67   1119.9269  19.4289     2808.217    329.8070  55.72     2.342     1.684   0.0788        210     203.8619
 7.48   1079.2484  20.6329     926.5282    329.6721  33.81     1.151     0.897   0.1618        211      138.031
 6.55   1101.6981  22.3987      182.188   1041.6503 -42.75     0.570     0.336   0.3169        212     53.16462
 5.87   1094.8972  20.8899     731.1885   1527.0699 -16.66     1.182     0.964   0.1678        213      113.011
 3.50   1039.8938  16.5704     39068.88    633.0271  41.25     2.469     2.365   0.0043        214     154.1536
 3.50   1079.5071  16.8442     30362.08    512.2222   7.59     2.384     2.315   0.0053        215     148.9734
 7.95   1066.9757  21.2636     518.2949   1471.9790 -42.32     0.852     0.488   0.1977        216     94.33009
 7.03   1029.6747  19.7366     2115.153    302.5821  47.81     1.746     1.559   0.1079        217     210.1827
 3.59   1009.4153  17.6037     15084.19    813.7350  84.07     2.230     2.127   0.0102        218      142.141
 6.31    999.7606  20.6401     920.3322   1274.2617  -7.20     1.566     0.934   0.1633        219     138.4096
 5.24   1010.8171  19.5822     2438.459    344.9009  11.39     1.648     1.521   0.0670        220     150.3722
 5.24   1001.8608  20.3234     1232.105   1555.3735  74.32     1.855     1.153   0.1223        221     138.7873
