#   1 KRON_RADIUS            Kron apertures in units of A or B                         
#   2 MAGERR_APER            RMS error vector for fixed aperture mag.                   [mag]
#   3 Y_IMAGE                Object position along y                                    [pixel]
#   4 X_IMAGE                Object position along x                                    [pixel]
#   5 THETA_IMAGE            Position angle (CCW/x)                                     [deg]
#   6 FLUX_APER              Flux vector within fixed circular aperture(s)              [count]
#   7 A_IMAGE                Profile RMS along major axis                               [pixel]
#   8 B_IMAGE                Profile RMS along minor axis                               [pixel]
#   9 FLUX_RADIUS            Fraction-of-light radii                                    [pixel]
#  10 FLUXERR_APER           RMS error vector for aperture flux(es)                     [count]
#  11 MAG_APER               Fixed aperture magnitude vector                            [mag]
#  12 NUMBER                 Running object number                                     
 4.66   0.0057     53.3701     63.9065   0.33     26220.37     5.346     4.847     16.349      137.453  17.0034          1
 4.79   0.0356     16.7161    985.4154 -86.84     4195.805     3.984     2.201      8.230     137.5464  18.9930          2
 5.07   0.0420     18.1894     91.5415  86.21     3555.364     2.215     2.110      5.465      137.593  19.1728          3
 3.50   0.0163     14.9013   1446.0841 -41.38     9165.503     2.448     2.348      5.189     137.3596  18.1446          4
 3.50   0.0035     60.0040   1078.7539 -68.39     42260.13     2.944     2.936      5.747      137.593  16.4852          5
 7.01   0.2561     25.0118    367.4980 -87.68     582.9002     1.484     1.238      3.236     137.4374  21.1360          6
 3.50   0.0002    182.2392   1107.8169 -37.57     927815.2     4.759     4.425      8.678     137.5619  13.1313          7
 8.46   0.3003     34.7508   1109.7596  72.02      497.416     0.859     0.352      3.771     137.5464  21.3082          8
 3.50   0.0037     80.3017    537.8538 -63.57     40636.39     2.884     2.811      5.501     137.3752  16.5277          9
 5.64   0.0999     75.2082    128.0785   7.55      1494.95     1.848     1.579      5.458     137.5464  20.1134         10
 3.50   0.0025    122.0068    789.4358 -48.27     60748.54     3.024     2.920      5.662     137.5308  16.0912         11
 5.48   0.0716     96.8864     56.4073 -71.89     2085.907     1.997     1.926      5.409     137.4997  19.7518         12
 7.78   0.2204     90.1377    376.6794 -84.05     677.0042     1.663     0.811      3.636     137.4219  20.9735         13
 3.50   0.0006    193.6548    318.2545 -64.86     258863.4     3.604     3.206      5.865     137.5153  14.5173         14
 8.31   0.2760     98.4899    452.9708   1.55     540.8129     0.801     0.500      4.379     137.4686  21.2174         15
 3.50   0.0044    162.6065   1468.6003 -48.91     33985.97     2.857     2.740      5.568      137.453  16.7218         16
 4.30   0.0192    170.5437    877.6212 -24.83     7796.256     2.450     2.384      5.156     137.5619  18.3203         17
 4.81   0.0062    234.9494    403.9689 -40.42     23912.24     6.462     5.517     20.797     137.5619  17.1034         18
 7.66   0.3476    166.7667    104.6338 -51.15     429.7746     1.190     0.814      2.979     137.5775  21.4669         19
 7.78   0.2811    165.0963   1446.3479 -19.74     530.8391     0.931     0.682      4.209     137.3907  21.2376         20
 7.36   0.1797    192.8807   1350.2953 -39.52       830.35     1.495     1.122      7.705     137.3907  20.7518         21
 5.87   0.0462    211.0185    828.4678  -4.65     3236.004     3.453     2.315     10.405     137.5619  19.2750         22
 5.29   0.0948    206.7520    549.3409 -45.49      1575.31     1.916     1.730      4.932     137.4841  20.0566         23
 4.92   0.0990    212.4464   1306.3748 -86.34     1509.545     1.854     1.649      3.966     137.5775  20.1029         24
 6.31   0.0555    230.1041    562.0859 -34.65     2687.269     3.211     2.625     14.181     137.3596  19.4767         25
 7.04   0.1609    209.0439    349.7184   5.59     927.9102     2.056     1.260      8.152      137.453  20.6312         26
 3.50   0.0013    260.0271    997.7144 -32.96     114154.3     3.108     3.027      5.717     137.4997  15.4063         27
 4.71   0.0933    224.0652   1226.2837 -20.72       1600.3     1.857     1.718      3.704     137.4219  20.0395         28
 9.06   0.4682    210.5037    683.9939 -32.35     318.8873     0.790     0.316      3.749     137.4841  21.7909         29
 8.20   0.1439    221.4668    346.4656  46.51     1037.004     1.425     1.262      8.548     137.4219  20.5105         30
 3.50   0.0019    266.0551     67.7294 -46.53     77496.52     3.069     2.956      5.726      137.453  15.8268         31
 6.58   0.4108    223.0545    774.9872  32.06     363.7287     1.233     1.218      1.909     137.5775  21.6481         32
 7.21   0.1161    243.5259    113.3848 -72.38     1286.944     2.132     1.609     10.405     137.6086  20.2761         33
 5.38   0.0466    255.5203    613.4874 -34.80      3200.68     2.722     2.229      7.037     137.4063  19.2869         34
 3.50   0.0005    312.5810    439.6433 -46.91     315921.4     3.341     3.242      5.923     137.5308  14.3011         35
 8.45   0.2973    239.0145    838.5069  88.39     502.2694     0.800     0.500      4.097     137.4841  21.2977         36
 3.55   0.0084    287.8746   1486.6700 -37.53      17814.2     2.729     2.624      5.468     137.4063  17.4231         37
 3.54   0.0401    282.1709   1522.5713 -57.11     3728.194     2.237     2.131      5.145     137.5308  19.1213         38
 3.67   0.0111    303.2971    201.9391 -62.46     13414.36     2.638     2.559      5.626     137.4219  17.7311         39
 3.50   0.0028    318.9419    905.7490 -50.05     53544.21     2.960     2.898      5.765     137.4841  16.2282         40
 5.86   0.0895    290.0642    515.4205 -43.74     1670.055     1.859     1.703      7.388     137.5619  19.9932         41
 3.50   0.0005    351.6704    891.0421 -42.49     279292.5     3.363     3.241      5.886     137.4997  14.4349         42
 5.18   0.1018    294.2253   1327.8463 -64.99     1467.757     1.811     1.691      3.722     137.5775  20.1334         43
 3.50   0.0006    351.7484   1346.0500 -36.39       269327     3.313     3.171      5.839     137.5775  14.4743         44
 8.32   0.1527    297.8438   1414.4490 -85.07     978.5303     1.301     0.486      4.601     137.5464  20.5736         45
 3.71   0.0172    322.2881    697.4871 -25.38      8667.89     2.435     2.390      5.144     137.4063  18.2052         46
 6.51   0.2111    303.0039    563.4498  87.15     707.7739     1.162     0.981      4.093     137.6086  20.9253         47
 6.06   0.0931    327.7697    595.6106 -71.53     1604.469     1.974     1.918      7.921     137.5619  20.0367         48
 4.92   0.0239    346.6015    867.2303  18.69     6236.979     2.861     2.381      8.507     137.4686  18.5626         49
 8.53   0.3032    323.2297    640.0140  -0.59     492.7115     0.698     0.421      3.577     137.5775  21.3185         50
 4.76   0.0309    356.0260    432.0794  87.11     4833.704     2.496     2.332      7.234     137.5153  18.8393         51
 4.17   0.0164    368.3613    761.2231 -35.81     9131.054     2.615     2.420      5.849     137.5464  18.1487         52
 6.36   0.1475    350.1034     54.6538 -21.73     1012.035     1.382     1.164      4.786     137.4219  20.5370         53
 4.87   0.0457    367.4929    442.9348 -35.45     3263.823     2.199     2.160      4.674     137.4686  19.2657         54
 4.78   0.0986    361.4933   1500.6189 -39.83     1514.906     1.812     1.670      4.054     137.4997  20.0990         55
 3.50   0.0033    395.3764    231.6054 -61.83     44772.73     2.946     2.880      5.643     137.5153  16.4225         56
 7.80   0.9394    361.1692   1034.1797  42.65     158.9536     0.767     0.572      2.868     137.4997  22.5468         57
 5.65   0.2212    381.0497      1.7524  88.80     525.8552     2.135     0.727      6.628     107.0918  21.2478         58
 8.06   0.2148    372.7130    992.8636 -66.61     694.9398     0.965     0.672      5.788     137.4374  20.9451         59
 4.12   0.0213    398.3277    354.7166   5.68     7011.771     2.419     2.381      5.352     137.4063  18.4354         60
 3.64   0.0248    397.4610   1461.3257 -23.83     6025.773     2.404     2.266      4.928     137.4686  18.6000         61
 3.50   0.0036    419.8367    433.5835 -58.69     41069.44     2.834     2.817      5.725     137.5619  16.5162         62
 3.51   0.0075    415.8958    837.5114 -48.18      19803.6     2.714     2.631      5.470     137.3596  17.3081         63
 3.84   0.1145    393.8893   1088.9030 -24.19     1302.883     1.829     1.746      4.167     137.3596  20.2627         64
 5.52   0.1222    412.5150      2.1003  89.26     972.7338     3.144     1.055      5.506      109.424  20.5800         65
 8.72   0.2850    398.0094    626.0000  90.00     523.7256     0.853     0.289      4.225      137.453  21.2522         66
 3.50   0.0012    461.3327    807.6813 -41.80     126974.9     3.125     3.024      5.740     137.4219  15.2907         67
 3.93   0.0453    424.4247    926.5838 -73.49      3295.12     2.218     2.075      4.661     137.4997  19.2553         68
 3.54   0.0101    438.2094    252.3092 -22.94     14761.94     2.667     2.585      5.527     137.4686  17.6271         69
 7.96   0.1596    421.4103    159.0942  66.35     935.2818     1.299     1.123      7.588     137.4686  20.6226         70
 4.92   0.1266    433.2141   1422.2384  75.75     1180.471     1.587     1.455      4.591     137.5619  20.3699         71
 4.58   0.0324    450.5570     21.3708 -80.62     4611.345     2.283     2.197      5.863     137.5775  18.8904         72
 4.48   0.0292    457.9465     34.5625 -25.31     5111.377     2.433     2.277      5.715     137.5308  18.7787         73
 5.57   0.0382    467.9408    850.8246  23.70     3914.221     6.481     2.304     24.472     137.5775  19.0684         74
 9.10   0.2554    434.5980    150.8039  18.87     584.5096     0.771     0.446      4.628     137.4841  21.1330         75
 6.79   0.2494    440.1227    306.1780 -32.48     598.8558     1.137     0.800      3.366     137.5308  21.1067         76
 7.63   0.2275    445.2960    122.4233  33.99     656.3608     1.291     0.942      3.459     137.4841  21.0071         77
 8.37   0.1954    447.9803    885.2001  17.76     764.3207     1.345     0.552      6.025     137.5153  20.8418         78
 4.64   0.0790    463.8789    468.8594  55.78     1890.764     1.963     1.724      5.577     137.4686  19.8584         79
 4.62   0.0724    472.3755    735.0891  25.44     2063.016     1.930     1.809      4.763     137.4841  19.7637         80
 5.75   0.1075    471.6077    254.6995  85.35     1388.424     1.743     1.651      6.209      137.453  20.1937         81
 7.46   0.2700    461.1063   1097.1104  75.57     552.6121     0.975     0.702      5.042     137.3907  21.1939         82
 3.93   0.0533    478.1623    923.1752 -38.12     2801.237     2.130     1.850      5.266     137.5464  19.4316         83
 5.27   0.1869    478.3757   1277.2144 -76.28     798.9869     1.623     1.316      3.616     137.4997  20.7936         84
 4.68   0.1335    484.0925   1070.7201 -63.60     1117.913     1.691     1.476      4.111     137.4374  20.4290         85
 6.81   0.0886    495.7200     82.9163 -84.39     1684.982     2.354     1.996      7.577     137.4374  19.9835         86
 5.93   0.0821    495.9522   1186.4457  -9.05     1820.822     2.797     1.785      8.048     137.5775  19.8993         87
 4.76   0.0112    533.2038    519.0621  37.98     13340.43     4.396     3.915     14.960     137.6086  17.7371         88
 3.71   0.0134    512.7703   1302.9841   1.53     11113.58     3.214     2.410      6.888     137.5619  17.9354         89
 7.82   0.1450    504.2839    762.8732 -18.39      1029.37     1.322     1.098      6.319     137.4219  20.5186         90
 6.13   0.2352    502.7135    863.6923  -7.41     634.4498     1.318     0.852      5.099     137.3907  21.0440         91
 4.70   0.0664    515.7469   1461.2188  20.18     2251.545     3.707     1.729     12.114     137.5619  19.6688         92
 7.98   0.2442    509.8079    166.5956  70.58     611.4975     0.763     0.446      3.614     137.4997  21.0840         93
 8.01   0.3942    509.5138    454.4899 -44.65     378.5735     0.503     0.496      3.021     137.4063  21.6046         94
 8.05   0.1915    513.6719   1179.6215  13.08     780.1658     1.164     0.603      4.504      137.593  20.8195         95
 3.50   0.0005    588.1991   1315.9669 -38.53     290920.4     3.254     3.137      5.777     137.4997  14.3906         96
 8.59   0.3610    518.5825    643.1854 -19.40     413.7291     0.773     0.446      4.351     137.5153  21.5082         97
 3.93   0.1112    540.4721   1000.0886 -46.92     1341.898     1.999     1.628      4.583     137.4219  20.2307         98
 4.56   0.0700    559.1486   1041.7238 -49.55      2132.84     1.905     1.756      5.413     137.4219  19.7276         99
 3.87   0.0237    572.9556   1242.8220 -28.33     6314.101     2.382     2.281      5.447     137.5464  18.5492        100
 3.50   0.0003    631.4180    483.3808 -44.31     516925.1     3.471     3.329      5.975     137.5153  13.7664        101
 4.00   0.0169    580.9852    144.9868 -62.85     8818.112     2.482     2.376      6.256     137.5153  18.1866        102
 5.98   0.1010    571.3608     45.9273  64.65     1477.851     2.063     1.660      5.733     137.4997  20.1259        103
 3.88   0.0172    582.3660    319.3436 -29.95     8684.527     2.531     2.405      5.918     137.5464  18.2031        104
 6.00   0.0969    571.9494   1447.6144  45.99     1541.008     1.879     1.528      8.538     137.5619  20.0805        105
 4.89   0.0358    596.9901    782.7942  84.19     4171.287     3.294     3.137     10.113     137.4686  18.9993        106
 7.19   0.1330    575.0060   1336.7366 -69.33     1123.684     1.694     1.614     10.161      137.593  20.4234        107
 6.96   0.3288    584.8660     75.8078  79.67     454.5122     1.095     0.859      2.646     137.6086  21.4061        108
 4.47   0.1572   1001.7277   1555.5181 -34.07     948.9619     1.504     1.278      4.373     137.4063  20.6069        109
 8.60   0.1548   1598.7208    655.0220  -1.97     777.8936     0.741     0.679      4.445     110.8616  20.8227        110
 5.55   0.1016   1565.9288    784.8401  77.23     1469.185     1.810     1.476      6.103     137.5153  20.1323        111
 3.50   0.0028   1558.1409    487.7713 -79.67      53011.8     2.884     2.853      5.528     137.5619  16.2391        112
 5.16   0.2394    886.1887   1500.2479 -31.93     624.1331     1.475     1.194      4.749     137.5619  21.0618        113
 6.66   0.1220    877.9839   1177.5114 -16.81     1223.793     1.390     1.207      7.449     137.4997  20.3307        114
 3.50   0.0006    859.6315   1224.5569 -40.22     254645.9     3.278     3.133      5.886     137.5775  14.5352        115
 6.45   0.1746    868.6469    939.6868  10.70     854.8407     1.646     0.960      6.049     137.4686  20.7203        116
 6.52   0.1434    860.1113   1157.0590  81.66     1040.693     1.303     0.900      6.017     137.4374  20.5067        117
 8.81   0.3213    859.0093   1339.4808 -89.34     464.7728     0.801     0.500      3.618     137.4997  21.3819        118
 4.62   0.0592    869.8472   1103.8760 -38.57     2521.142     2.090     1.909      6.270      137.453  19.5460        119
 6.04   0.1470    843.8174   1106.2993  23.41     1015.435     1.522     1.174      6.760     137.4686  20.5334        120
 7.61   0.2542    845.0912   1064.6450  19.49     586.9963     0.955     0.682      5.730     137.4219  21.1284        121
 5.90   0.0776    838.1814   1246.9702 -20.17      1924.84     1.978     1.742      9.112     137.5308  19.8390        122
 5.51   0.0951    836.7602    298.9550 -65.05      1569.95     1.834     1.556      6.236     137.5308  20.0603        123
 3.69   0.0258    823.2612    654.5356 -35.60     5793.613     2.359     2.282      5.251      137.453  18.6426        124
 3.67   0.0279    803.4128   1378.7422 -54.00     5354.582     2.300     2.183      5.223     137.5619  18.7282        125
 3.50   0.0098    798.7738    695.8101 -84.75     15304.24     3.076     2.543      6.290     137.5153  17.5880        126
 5.04   0.0605    800.9283     41.3083 -29.45     2467.813     2.080     1.919      4.809     137.4374  19.5692        127
 5.20   0.0628    774.6801   1427.5056 -73.06     2375.155     2.432     2.040      7.067     137.4219  19.6108        128
 6.16   0.1269    766.9759    392.1918  19.80     1177.055     1.712     1.448      5.565     137.5153  20.3730        129
 4.96   0.1111    742.9076    556.5101 -23.97      1342.81     1.705     1.658      4.952     137.3907  20.2300        130
 3.50   0.0004    724.3961    405.0894 -41.01     354548.1     3.434     3.279      5.914     137.4686  14.1758        131
 7.44   0.4207    738.0159   1157.9910 -44.70     354.7969     0.909     0.532      2.996      137.453  21.6750        132
 6.06   0.2314    736.1520    649.9449 -39.82     645.4179     1.234     0.944      5.491     137.5153  21.0254        133
 3.50   0.0025    726.8686    848.5687 -57.32     60837.39     2.984     2.915      5.736     137.5308  16.0896        134
 5.12   0.1642    727.7788   1178.4082 -13.06     909.4132     1.537     1.448      4.504     137.4997  20.6531        135
 4.33   0.1343    716.0901    808.4656 -15.44     1111.977     1.606     1.513      4.562     137.4686  20.4348        136
 4.84   0.1309    709.1076   1164.1731 -23.00     1140.824     1.652     1.382      4.755     137.4686  20.4070        137
 5.30   0.0994    704.4922   1339.0616 -15.57     1502.606     1.766     1.733      7.908     137.4686  20.1079        138
 3.59   0.0653    703.0034    952.5806  46.55     2288.009     1.868     1.843      5.017     137.4997  19.6514        139
 8.49   0.1546    691.0121   1214.2306  71.87     966.1342     1.013     0.760      5.946     137.5619  20.5874        140
 4.37   0.0766    685.7341    644.3630  89.09     1949.264     2.081     1.796      5.751     137.5308  19.8253        141
 7.36   0.0799    683.1537    472.2704 -85.37     1869.016     2.308     2.158     12.417     137.4841  19.8710        142
 6.11   0.0894    681.5815    543.7034 -69.59     1670.846     2.273     1.857      8.403     137.4841  19.9927        143
 3.50   0.0025    648.6836   1464.4570 -40.95      59916.2     2.942     2.859      5.656      137.453  16.1061        144
 7.64   0.2660    654.4812    871.4532   0.21     561.0272     1.120     0.500      3.504     137.4219  21.1775        145
 4.29   0.0709   1542.6431    654.8121 -45.38     2106.679     2.035     1.962      5.531     137.5308  19.7410        146
 3.84   0.0156    639.9423    536.9742 -83.24       9594.1     2.556     2.431      6.343     137.5619  18.0950        147
 6.89   0.3236    630.9633    806.3074   1.12     461.1938     1.247     0.766      3.358     137.4374  21.3903        148
 4.40   0.1744    623.5655   1581.1472 -50.13     856.3796     1.500     1.436      3.427     137.5619  20.7183        149
 4.98   0.1580    605.5164    586.4456  53.86     945.1455     1.543     1.389      4.141     137.4686  20.6113        150
 3.50   0.0028   1563.8098    304.2241 -45.62     53558.04     2.923     2.836      5.407     137.5153  16.2279        151
 6.05   0.1410    896.0804    538.6010  44.70     1059.671     1.940     1.683      9.100     137.5464  20.4871        152
 6.31   0.1998   1561.8214    861.9495 -23.36     747.7231     1.254     1.102      3.874     137.5464  20.8656        153
 7.94   0.1767    888.6888    325.7478 -26.08     844.6373     1.100     0.556      5.384     137.4374  20.7333        154
 4.17   0.1765   1585.0242   1108.9159 -36.40     846.0439     1.570     1.469      3.346     137.5153  20.7315        155
 3.90   0.0491   1541.9293    134.9480 -79.12     3039.948     2.113     2.001      4.940     137.4686  19.3428        156
 4.35   0.1041   1570.5538     92.6839 -82.82     1433.728     1.675     1.601      5.012     137.4686  20.1588        157
 3.90   0.0825   1566.7479     22.0650  46.46     1810.251     1.904     1.724      4.613     137.4686  19.9057        158
 3.65   0.0095   1552.8644    682.3029 -26.94     15773.59     4.577     4.079     11.323     137.4686  17.5552        159
 4.79   0.2482   1546.1251    863.1489   0.94     601.1774     1.559     1.136      5.151     137.4219  21.1025        160
 5.99   0.0368    879.3414    224.6320  89.38     4062.432     6.321     2.205     16.406     137.5464  19.0280        161
 3.50   0.0109    930.0131   1178.5142 -35.58      13757.4     2.638     2.492      5.356     137.5153  17.7037        162
 4.34   0.0257    900.7332    303.0154 -33.42     5813.642     2.396     2.249      5.754     137.5775  18.6389        163
 4.78   0.1688    928.9879   1322.4180  -2.86     884.5438     1.448     1.229      5.231     137.4841  20.6832        164
 3.50   0.0015    880.6500   1592.4626 -67.28     101910.2     3.022     2.865      5.656     137.4997  15.5295        165
 3.50   0.0002    882.3133    184.0869 -36.96     928404.2     3.661     3.466      6.036     137.4063  13.1307        166
 3.50   0.0052   1507.2863    269.3642 -55.26     28525.28     2.776     2.727      5.462     137.4997  16.9119        167
 3.50   0.0210   1514.9552    392.6727 -40.13     7112.167     2.408     2.298      5.357      137.453  18.4200        168
 6.84   0.2234   1504.2517    723.3992   3.72     668.9492     1.245     1.100      6.606     137.6086  20.9865        169
 3.81   0.2066    913.3832    838.5964 -70.89     722.5395     1.416     1.182      4.640     137.4686  20.9028        170
 8.38   0.1512    937.4312    515.9896 -41.76     987.6754     1.719     0.336      3.798     137.5464  20.5635        171
 4.66   0.0929    939.6102   1067.3234  62.99     1608.882     1.767     1.675      4.846      137.593  20.0337        172
 8.40   0.1619    951.9966    655.0145  45.79     921.9474     0.916     0.532      5.208     137.4686  20.6382        173
 7.40   0.0929    986.9854    454.1955 -72.89     1607.123     1.665     1.351      9.992      137.453  20.0349        174
 7.21   0.1855    981.2272    797.9749 -40.12     805.0391     1.370     1.138      4.322     137.5308  20.7855        175
 4.04   0.0500   1435.4056    224.8692  69.60     2989.649     2.071     2.012      4.837      137.593  19.3609        176
 3.50   0.0039   1040.5176    633.2557 -56.50     38286.97     2.915     2.790      5.813     137.4374  16.5924        177
 8.83   0.2641   1036.6763    122.0085  28.11     565.6384     0.911     0.211      2.396     137.5775  21.1687        178
 8.07   0.2178   1410.2239    350.8887 -55.08     685.5626     1.111     0.518      4.714     137.4997  20.9599        179
 7.12   0.1309   1059.8051    727.0422  22.86     1140.871     1.446     1.211      7.007     137.5619  20.4069        180
 4.89   0.0967   1030.0771    302.9827  62.68     1545.679     2.455     1.806      8.452     137.5619  20.0772        181
 3.52   0.0698   1439.8595    619.2115 -53.38     2141.847     2.028     1.867      4.146     137.5775  19.7230        182
 7.53   0.2861   1400.9907   1031.1080  62.47     521.8622     1.218     0.964      2.451     137.4841  21.2561        183
 4.32   0.0663   1390.6733    713.2567 -25.84     2252.929     2.024     1.816      4.993     137.4374  19.6681        184
 3.50   0.0220   1389.0052   1428.4016 -75.58     6790.809     2.345     2.261      5.193     137.4841  18.4702        185
 6.59   0.2991   1412.4006      1.4424 -87.09      380.536     1.521     0.491      5.649     104.8098  21.5990        186
 3.50   0.0012   1434.5811   1090.4209 -56.50     128246.8     3.109     3.046      5.732     137.5153  15.2799        187
 3.50   0.0092   1419.4752   1126.3267 -53.69     16195.44     2.719     2.604      5.618     137.4374  17.5265        188
 5.42   0.0973   1392.6332   1038.8308 -54.91     1535.666     1.710     1.553      4.207     137.5619  20.0843        189
 3.79   0.0740   1408.4124    308.4418 -34.70     2018.031     1.921     1.833      4.090     137.5308  19.7877        190
 3.50   0.0002   1366.4841   1159.1648  14.36     702696.4     4.364     3.465      6.018     137.5153  13.4331        191
 5.44   0.0865   1072.7351   1218.8517 -80.91      1726.19     2.020     1.714      7.331     137.4686  19.9573        192
 4.59   0.0981   1415.5695   1386.4916 -27.54     1521.249     1.759     1.629      4.456      137.453  20.0945        193
 7.97   0.2954   1063.3893      7.1556 -33.15     499.9156     1.033     0.828      4.971     135.9819  21.3028        194
 4.38   0.0594   1089.7240    642.5345 -53.67     2512.419     2.080     1.922      4.834     137.3907  19.5498        195
 3.96   0.0282   1158.1172    236.4313 -18.82     5296.866     2.336     2.288      6.187     137.4997  18.7400        196
 3.50   0.0154   1104.7473    751.8883 -60.16     9702.359     2.538     2.428      5.768     137.4063  18.0828        197
 3.50   0.0021   1393.5439    114.3784 -51.80     71815.39     2.979     2.903      5.710     137.5775  15.9095        198
 8.46   0.2040   1066.1111   1562.2987 -38.50     731.4664     1.290     0.612      6.450     137.3752  20.8895        199
 7.88   0.1142   1110.6405    479.4750 -75.35     1307.388     1.692     1.063      8.790     137.4997  20.2590        200
 4.91   0.0571   1307.7799    669.7328 -45.25      2614.64     2.149     1.879      6.103     137.5464  19.5065        201
 3.57   0.0195   1372.7421   1019.0563 -12.05     7671.958     2.446     2.385      4.990      137.453  18.3377        202
 6.34   0.1468   1330.9302   1139.6189 -53.82     1017.966     1.784     1.272      7.076     137.5775  20.5307        203
 6.28   0.2329   1130.1913    547.1422  46.62     641.8279     1.265     0.755      5.164     137.6241  21.0315        204
 3.50   0.0053   1138.7388    148.0359 -47.60      28228.1     2.822     2.723      5.861     137.5153  16.9233        205
 4.39   0.0546   1307.7767   1036.2616 -38.97     2736.252     2.412     2.012      7.669     137.5619  19.4571        206
 8.98   0.1815   1130.7733    220.6080  71.73     822.6133     0.760     0.449      4.559     137.5153  20.7620        207
 3.82   0.0242   1107.6841    428.1483  85.15     6154.238     2.403     2.317      5.484     137.4219  18.5771        208
 3.50   0.0055   1321.1366    659.6424 -65.46     27236.78     4.111     2.738      8.296     137.4841  16.9621        209
 6.21   0.2012   1333.1331    107.2922 -26.48     741.9753     1.317     1.072      7.046      137.453  20.8740        210
 7.21   0.2054   1319.3269    264.1315 -65.56     726.4539     0.953     0.683      4.399     137.4063  20.8970        211
 3.54   0.0408   1278.3237   1331.2803   7.28      3662.91     2.141     2.047      4.665     137.4686  19.1404        212
 4.35   0.2572   1293.0660    413.0294 -70.67     580.5787     1.479     1.346      5.438     137.5153  21.1403        213
 6.28   0.2300   1242.6903    672.8441 -59.51     649.1143     1.494     1.059      5.231      137.453  21.0192        214
 3.50   0.0009   1298.5955    724.9852 -24.19     168520.2     3.357     3.086      5.873     137.4686  14.9834        215
 3.50   0.0001   1221.6570    995.2193 -30.89      1089699     5.188     4.768      9.349     137.5308  12.9567        216
 5.86   0.1823   1304.7373    892.9993 -78.67     819.5777     1.329     1.123      5.011     137.6086  20.7660        217
 3.93   0.0241   1291.6128    762.0432 -29.50     6190.752     2.553     2.273      6.267     137.5308  18.5706        218
 3.50   0.0103   1130.1974    183.5348 -42.49     14508.19     2.670     2.529      5.347      137.593  17.6460        219
 6.54   0.1243   1259.3177    432.5393 -13.36     1200.926     1.656     1.453      5.972     137.4219  20.3512        220
 3.77   0.0153   1273.0594    609.8814 -54.76     9734.385     4.249     2.895     10.530      137.453  18.0792        221
 3.76   0.0520   1265.7656    807.8748 -45.06     2873.258     2.118     1.967      4.460     137.4841  19.4041        222
 3.50   0.0180   1210.8607   1278.8812  85.27     8296.467     5.420     3.530     11.095     137.4219  18.2528        223
 6.74   0.1118   1212.9182   1430.0757  76.86     1335.126     1.633     1.380      6.603     137.4374  20.2362        224
 4.91   0.1091   1237.1328   1553.4299  19.95     1369.386     1.759     1.565      4.620     137.5308  20.2087        225
 5.41   0.1192   1151.2628     99.6046 -12.84     1254.227     1.811     1.490      5.214     137.6086  20.3041        226
 7.31   0.1846   1231.0635    598.3688  16.53     809.1357     1.097     0.742      5.045     137.5308  20.7799        227
 4.50   0.0713   1234.5651    305.0172 -77.93     2093.754     1.983     1.904      4.154     137.5308  19.7477        228
 4.70   0.0987   1208.0999    839.1505  -7.95     1510.551     1.782     1.613      5.948     137.3128  20.1022        229
 4.77   0.1076   1202.1235    339.2855 -51.45     1386.128     1.778     1.628      4.366     137.3907  20.1955        230
 3.53   0.0176   1219.1207   1194.8530  28.80     8500.518     2.470     2.397      6.042     137.4374  18.2264        231
 5.48   0.1874   1201.2926   1441.9923  70.14     796.5895     1.382     1.265      5.708     137.4841  20.7969        232
 4.26   0.0300   1172.8992    757.9268 -62.15     4981.219     3.505     3.444     10.491     137.3907  18.8067        233
 6.29   0.1020   1195.2961    124.1752 -65.46     1463.105     1.948     1.606      9.374     137.4841  20.1368        234
 3.50   0.0086   1026.0765   1380.0057 -50.02     17319.57     2.669     2.563      5.621     137.5464  17.4537        235
 4.94   0.2540   1096.1345   1526.9423   4.26     587.7399     1.286     1.229      3.468      137.453  21.1270        236
 3.50   0.0033   1165.4862   1299.7622 -46.94     44697.14     2.874     2.794      5.727     137.4997  16.4243        237
 3.50   0.0114   1214.8379    513.1538 -61.10     13068.41     2.667     2.560      5.342     137.5464  17.7594        238
 6.38   0.1839   1153.6172   1352.6188   9.39     811.9476     1.278     0.992      6.139     137.5153  20.7762        239
 5.96   0.0689   1120.4965    330.1535  52.06     2165.585     2.393     1.893      8.803     137.3596  19.7111        240
 3.50   0.0002   1151.9579    693.9688 -40.83     648893.7     3.473     3.326      5.986     137.5775  13.5196        241
 6.55   0.2352   1161.9502    887.8767 -18.24      634.535     1.108     0.852      5.420     137.4219  21.0439        242
 5.80   0.0945   1203.5452   1075.3683  82.62     1580.763     1.833     1.518      6.737     137.5464  20.0528        243
 6.28   0.3119   1181.4033    549.7607 -87.22     478.7987     1.505     0.718      7.718     137.5153  21.3496        244
 9.54   0.1958   1080.4822    330.5127 -44.64     762.1174     0.506     0.494      3.035     137.4374  20.8449        245
 3.50   0.0050   1080.1893    512.2960 -62.36     30004.84     2.827     2.748      5.705     137.4686  16.8570        246
 3.50   0.0056   1095.2242    778.2455 -43.44     26916.65     2.824     2.731      5.827     137.5775  16.9749        247
 3.50   0.0172   1082.0486   1148.2305 -27.05     8694.522     2.480     2.396      5.614     137.5619  18.2019        248
 3.50   0.0190   1038.8699    525.6148 -68.20     7868.938     2.465     2.373      5.675     137.6086  18.3102        249
 7.76   0.4230   1073.1113      6.8627  41.02     346.6625     0.834     0.672      3.301     135.0186  21.7002        250
 4.47   0.1767   1000.2449   1273.9552 -45.55     845.4502     1.259     1.126      4.349     137.5464  20.7323        251
 3.50   0.0100   1010.0789    813.8175 -76.17     14916.52     2.620     2.592      5.454     137.5619  17.6158        252
 3.50   0.0004   1023.8043     50.3221 -46.35     420520.4     3.465     3.295      6.003     137.5308  13.9905        253
 3.50   0.0056    985.1698    558.6539 -50.76     26557.52     2.812     2.722      5.930     137.5464  16.9895        254
 4.16   0.0644   1011.7323    344.9422 -57.72     2318.948     2.070     1.908      6.831      137.453  19.6368        255
 4.46   0.0566   1002.0021    542.7068 -48.16     2636.899     2.015     1.939      6.484      137.453  19.4973        256
