#   1 KRON_RADIUS            Kron apertures in units of A or B                         
#   2 Y_IMAGE                Object position along y                                    [pixel]
#   3 MAG_BEST               Best of MAG_AUTO and MAG_ISOCOR                            [mag]
#   4 FLUX_BEST              Best of FLUX_AUTO and FLUX_ISOCOR                          [count]
#   5 X_IMAGE                Object position along x                                    [pixel]
#   6 THETA_IMAGE            Position angle (CCW/x)                                     [deg]
#   7 A_IMAGE                Profile RMS along major axis                               [pixel]
#   8 B_IMAGE                Profile RMS along minor axis                               [pixel]
#   9 MAGERR_BEST            RMS error for MAG_BEST                                     [mag]
#  10 NUMBER                 Running object number                                     
#  11 FLUXERR_BEST           RMS error for BEST flux                                    [count]
 4.25     94.1570  18.7214     5388.219   1124.7493 -68.11     8.199     3.769   0.0710          1     352.4183
 4.95     47.3470  21.1073      598.504     46.5410 -16.09     3.493     3.138   0.4437          2     244.5283
 3.50     32.9521  20.2701     1294.079    449.8849 -71.56     1.861     1.763   0.0797          3     94.91114
 3.50      7.8402  18.0859     9674.383    752.8575 -61.82     2.123     2.040   0.0123          4     109.8095
 0.00      7.3287  99.0000    -65.39221   1284.2866 -47.46     0.554     0.344  99.0000          5     52.59538
 5.06      3.8817  22.5138     163.8595     72.1736 -16.48     1.297     1.175   0.5665          6     85.47398
 7.09      3.6434  22.3148     196.8168    946.9975 -11.20     1.397     0.946   0.5951          7     107.8542
 6.93      2.7658  22.8389     121.4576    934.9667   5.19     1.486     1.178   1.0019          8     112.0474
 5.98      1.3488  24.5513     25.08984   1254.5757  -1.93     0.882     0.476   2.0622          9     47.64204
 6.38      1.0000  24.9947     16.67749   1325.0350   0.00     0.860     0.289   2.4526         10     37.66434
 8.37     13.0423  22.7002     138.0116    858.5358  89.71     0.808     0.499   0.6217         11     79.00538
 7.51     27.2427  22.0416     253.1285    906.0284  62.58     1.235     1.115   0.5644         12     131.5559
 0.00     19.4468  99.0000    -26.31555    234.2249  20.99     0.737     0.451  99.0000         13     60.14512
 0.00     24.1636  99.0000    -130.8538    896.5063  -0.34     0.979     0.746  99.0000         14     103.8334
 3.50     32.3549  23.0340     101.4799   1514.8187  89.71     1.186     1.023   0.6113         15      57.1208
 6.47     27.5052  27.7166     1.359497    374.4735  45.86     0.511     0.488  38.0576         16     47.64204
 5.35     33.3109  24.8310     19.39075      7.0528 -29.41     0.877     0.600   3.2337         17     57.73833
 7.27     32.5028  22.3032     198.9344    914.0272  -0.56     0.785     0.500   0.3791         18     69.44961
 4.86     69.0796  20.0588     1572.029   1463.1573 -72.90     2.832     2.480   0.1331         19     192.6044
 4.92     47.9787  23.9466     43.78674    228.2468  34.97     0.788     0.492   1.1053         20     44.56504
 5.48     49.6894  25.6418     9.188843    343.8810 -30.33     0.884     0.599   7.1777         21     60.73192
 3.50     48.6995  25.3065     12.51392   1227.5970 -41.42     0.589     0.322   1.7903         22     20.62961
 8.16     50.9994  23.9834     42.33069    205.2584  89.97     0.683     0.438   1.7150         23     66.84756
 5.15     63.4169  22.6515     144.3385    888.7960 -31.82     3.064     0.817   0.9248         24     122.9151
 4.55     61.9151  22.2708      204.969   1014.1193  49.58     1.303     1.242   0.4551         25      85.8879
 3.50     95.2679  18.4655     6820.411    916.6253 -19.93     2.422     2.058   0.0185         26     116.0893
 5.83     64.5669  20.9978     662.0287    893.1599 -16.96     2.011     0.917   0.1237         27     75.41048
 6.77     80.7907  22.1394     231.3245    541.1888 -68.13     2.157     1.464   0.8425         28     179.4499
 4.77     65.6199  23.0376     101.1521    970.7142 -47.07     1.062     0.962   0.7831         29     72.93668
 5.02     77.5636  22.5888     152.9276    183.5630  37.16     1.710     1.612   0.8749         30     123.2033
 3.55     94.6228  21.0721     618.2404    346.8269 -35.99     1.677     1.593   0.1537         31     87.52401
 5.25     93.1689  24.1698     35.65125    737.2796  14.59     1.251     1.167   2.8568         32     93.78344
 8.20     88.5198  23.2155     85.86304   1025.5172  44.87     0.510     0.489   0.7681         33     60.73192
 4.37    106.6651  21.4021     456.1895    973.7143 -40.27     2.136     1.690   0.2940         34     123.4908
 3.53    106.5207  21.1121      595.885     47.5245 -36.46     1.582     1.560   0.1496         35     82.08752
 6.54    100.5170  22.4720     170.2999    356.8520 -25.56     1.159     1.063   0.6940         36     108.8363
 3.50     98.5842  24.8021     19.91321    326.1557 -76.66     1.017     0.724   2.3866         37       43.762
 6.50     94.3919  23.4225     70.95984   1248.7111 -17.31     0.722     0.459   0.8452         38     55.22676
 0.00     99.6920  99.0000    -38.62317    173.3035  45.27     0.553     0.345  99.0000         39     53.26542
 8.06    106.0233  22.0813     244.0471    266.4735 -26.77     1.097     0.647   0.4559         40     102.4581
 4.83    115.4942  22.6797     140.6499    924.7029  69.09     1.227     1.049   0.6338         41     82.08752
 3.66    125.6434  21.2713     514.6034    300.7448 -25.91     1.673     1.549   0.1864         42      88.3307
 5.28    110.8920  22.5260      162.037   1457.8762 -43.13     0.852     0.658   0.3911         43     58.34934
 5.57    118.1392  21.8068     314.2522     79.4567  35.20     1.594     1.028   0.3670         44     106.1974
 5.84    111.6869  23.4931     66.48877   1000.3212  44.58     0.563     0.341   0.6304         45     38.59446
 7.47    113.3548  23.6175     59.29517    460.6852  46.69     0.578     0.332   0.8726         46     47.64204
 0.00    114.4853  99.0000    -1.744263     65.9743   2.48     0.781     0.499  99.0000         47     41.25921
 3.50    151.1911  19.0524     3972.138     45.4971 -66.61     2.041     1.875   0.0361         48     132.0894
 3.50    212.7002  15.9107     71733.23    966.9963  67.45     3.034     2.400   0.0021         49      140.927
 4.55    130.1674  23.1421     91.86328     55.4243  86.66     1.181     0.973   0.8565         50      72.4488
 0.00    133.8928  99.0000    -10.95288   1498.3713  36.64     1.003     0.833  99.0000         51     71.46306
 5.56    135.5188  23.4026     72.26917    735.5063 -70.98     0.956     0.414   0.8004         52     53.26542
 3.50    140.9441  22.5672     155.9937    218.5828  77.42     1.254     0.994   0.4062         53     58.34934
 4.75    158.6899  17.6886      13949.7     50.1477  10.83     2.348     2.026   0.0161         54     206.3638
 4.56    173.5511  21.2021     548.4611    556.9188  77.23     2.496     2.317   0.3234         55     163.3087
 6.34    144.6918  24.5623     24.83667   1194.3496  43.12     0.573     0.335   1.9135         56       43.762
 4.48    152.7633  28.4771    0.6748047    879.2148 -71.16     0.960     0.844  98.6745         57      61.3131
 4.57    183.9569  21.1592     570.5751   1262.7585 -84.47     2.679     2.323   0.3254         58      170.948
 0.00    164.2391  99.0000    -1.681519   1521.2362 -68.47     1.229     1.012  99.0000         59     88.73129
 5.85    166.0432  22.0217     257.8206    745.9159 -22.96     1.387     1.130   0.4543         60     107.8542
 5.41    163.4534  23.8692     47.02332   1154.1659  29.17     1.143     0.805   1.7827         61     77.18892
 3.50    185.4392  20.1047     1507.056    377.8520  44.06     1.855     1.791   0.0687         62     95.28407
 6.81    169.3121  23.5631     62.34009   1159.0532  72.00     1.088     0.734   1.6005         63     91.87319
 5.72    164.5888  25.4506      10.9585    871.5212 -37.71     0.510     0.481   4.2558         64     42.94395
 6.12    173.3908  24.1985     34.72083    944.2777  23.96     1.450     1.084   3.5635         65     113.9307
 7.83    164.0000  23.9688      42.9032    757.9688   0.00     0.857     0.289   1.5224         66     60.14512
 6.57    174.5070  22.1931     220.1809    961.2061 -89.43     0.936     0.726   0.3984         67     80.78101
 3.50    237.4089  16.4929     41959.82   1389.3002 -60.89     2.351     2.198   0.0031         68     119.4025
 6.38    188.7956  20.4913     1055.513   1070.2379 -66.16     1.461     1.296   0.0860         69     83.57803
 0.00    195.9452  99.0000    -23.49109   1065.9102 -53.12     1.931     1.731  99.0000         70     183.9393
 4.45    205.1032  18.0154     10323.62    985.2596 -83.24     1.782     1.741   0.0188         71      178.355
 3.57    206.2079  20.6080     947.9448     21.3743 -77.09     1.693     1.604   0.1012         72      88.3307
 4.34    201.3544  23.6853     55.70471    185.4896  86.30     1.485     1.274   1.7531         73     89.92237
 7.05    189.0036  23.6392     58.11951   1594.2350 -89.83     0.680     0.424   1.0439         74     55.86524
 0.00    191.5366  99.0000    -46.94153   1097.4672  44.41     0.505     0.492  99.0000         75     33.68801
 3.50    224.9645  19.3083     3138.182   1092.9434 -75.05     1.945     1.811   0.0341         76       98.577
 4.38    204.9958  22.5346     160.7466    353.2603  49.54     1.546     1.354   0.6412         77     94.91114
 6.59    201.9016  23.5985     60.33936    411.7759  22.68     1.623     1.125   2.3919         78     132.8969
 7.27    201.7012  24.5303     25.57764   1294.1659 -70.66     1.030     0.553   3.4854         79     82.08752
 3.95    219.1305  21.3974     458.1718   1020.2579 -10.95     2.049     1.908   0.2788         80     117.6069
 3.90    216.9382  21.9443     276.8645   1198.2729 -67.75     1.806     1.434   0.3649         81     93.02405
 4.80    209.8886  25.6659     8.987915    908.2451 -60.11     1.031     0.637   7.1233         82     58.95401
 4.71    268.0666  20.9914     665.9565    140.2715  63.45     5.455     1.957   0.3741         83     229.4126
 3.88    223.2836  22.1774     223.3821   1178.1260  36.13     1.421     1.146   0.3639         84     74.85639
 6.87    213.4799  23.0221     102.6055   1061.5094  44.65     0.512     0.487   0.5043         85     47.64204
 5.89    243.6765  22.4300     177.0116    660.2729  56.74     2.330     2.070   1.1828         86     192.7884
 0.00    232.5093  99.0000    -101.8234    654.0221   4.33     2.686     1.524  99.0000         87     217.6725
 3.64    243.0972  20.5617      989.307    566.2015  29.51     1.831     1.749   0.1082         88       98.577
 3.50    258.9529  19.8189     1960.824   1426.3889 -55.02     2.082     1.737   0.0542         89     97.85482
 4.32    236.7304  21.6445     364.9086    836.5421 -23.65     1.479     1.402   0.2734         90     91.87319
 4.43    234.4972  22.9214     112.5758    879.8083 -56.66     1.317     1.124   0.7750         91     80.34077
 3.65    247.8586  19.2069     3445.366    576.9484  28.21     1.725     1.657   0.0541         92     171.6146
 5.68    241.6002  22.1763     223.5986    368.8590 -66.00     1.584     1.499   0.6376         93      131.286
 3.50    231.4599  24.6733     22.42139   1316.5281 -43.68     0.508     0.490   1.4131         94     29.17467
 6.87    256.0625  21.6637     358.5204     76.0572 -78.27     2.310     1.137   0.5057         95     166.9597
 3.82    286.3719  19.5485     2515.345   1328.0706 -62.90     3.890     3.155   0.0860         96     199.1229
 5.62    254.1811  21.0323     641.3165   1369.5127 -46.50     1.972     1.808   0.2683         97      158.459
 4.51    238.3008  24.9723     17.02539   1316.6440  42.47     0.572     0.335   1.8610         98     29.17467
 7.32    243.0217  23.3977     72.59558    966.3827 -11.22     1.220     0.776   1.5887         99     106.1974
 8.17    249.4651  22.4302      176.975   1163.2465 -87.55     1.011     0.708   0.6309        100     102.8036
 4.76    251.7740  23.7736     51.35339    914.5338 -22.40     1.742     0.609   1.5629        101     73.90276
 6.79    262.3152  23.9286     44.52014    410.3904 -36.29     1.932     1.068   3.5465        102     145.3863
 4.93    296.6697  20.6402     920.2648    374.3661  32.26     5.369     2.131   0.2938        103     248.9838
 4.63    279.1549  21.7378     334.8699   1128.3959 -42.43     2.378     1.745   0.4562        104     140.6752
 5.14    265.0267  22.3965     182.5574    271.3459  62.87     1.163     0.935   0.4779        105     80.34077
 4.02    265.3846  23.8457     48.05151    721.8150  85.12     0.992     0.380   0.8512        106     37.66434
 0.00    266.8948  99.0000     -94.1571    766.6589  13.69     1.008     0.750  99.0000        107     71.95762
 5.75    267.8004  24.0632     39.32861   1587.3848 -72.59     0.760     0.451   1.4146        108     51.22904
 3.50    281.3238  21.2875     506.9786    954.9826 -84.42     1.527     1.520   0.1721        109     80.34077
 3.50    286.3437  21.7721     324.4597    743.1180  68.50     1.558     1.417   0.2584        110     77.18892
 0.00    279.5313  99.0000    -4.747314    885.4368 -74.77     0.499     0.496  99.0000        111     37.66434
 4.28    313.5876  20.9116     716.7312    792.2487  34.69     2.350     1.960   0.2085        112     137.6166
 0.00    298.8550  99.0000     -15.8158    863.1819   4.80     1.090     0.985  99.0000        113     100.3597
 3.50    338.2658  19.2434     3331.556    595.9975  86.26     1.988     1.823   0.0326        114     100.0057
 3.50    374.0516  16.4497     43661.93   1262.5981 -43.64     2.343     2.212   0.0030        115      118.807
 0.00    314.6675  20.6126     943.9536    802.7544 -18.94     1.737     1.419   0.1142        116     99.23978
 3.50    332.8217  20.2741     1289.343    788.9773  77.38     1.801     1.696   0.0764        117     90.70773
 7.92    310.6430  23.8566     47.57153   1549.2216 -16.94     0.748     0.446   1.5620        118     68.42067
 0.00    323.1217  99.0000    -97.83313    832.5522  78.74     1.122     1.038  99.0000        119     97.49172
 5.08    323.1987  22.3977     182.3545    288.7291  15.01     1.259     1.110   0.5308        120     89.13009
 3.58    335.5175  23.1386     92.16431   1145.5067  -3.58     2.145     1.792   1.2315        121     104.5143
 4.64    328.8070  21.9268     281.3821    720.3349   3.49     1.256     1.173   0.3299        122     85.47398
 7.17    326.4636  24.7052     21.77393    156.8145  84.35     1.010     0.378   3.2265        123     64.69062
 5.31    334.9207  21.7153     341.8988    661.6074  26.59     1.595     1.397   0.3755        124     118.2084
 0.00    335.5432  99.0000    -64.23389   1037.4845 -50.33     1.435     0.834  99.0000        125     108.1826
 4.62    361.3767  20.7508     831.1431    708.3899 -68.65     2.379     2.219   0.2073        126     158.6827
 7.08    347.7137  21.9908     265.2556   1598.6823 -79.01     1.124     0.968   0.3698        127     90.31591
 3.60    375.0627  20.3375     1216.193   1363.9340   2.09     3.088     2.411   0.1309        128     146.6009
 5.22    360.9517  22.1419     230.8101    640.6298  75.08     1.416     1.325   0.5044        129     107.1946
 7.34    348.8523  23.0340       101.48   1576.8534  47.93     0.767     0.569   0.7594        130     70.96505
 3.50    363.9760  21.8947     289.8167    504.0932 -14.26     1.535     1.436   0.2944        131     78.55521
 9.13    358.2023  22.3648     187.9595   1050.3724  72.23     0.754     0.446   0.4513        132     78.10243
 5.78    369.4063  21.7335     336.2146   1341.4336  28.52     1.585     0.990   0.3494        133     108.1826
 7.95    359.4590  25.0489     15.86462   1094.5118 -21.09     0.500     0.498   4.1574        134     60.73192
 0.00    369.6529  99.0000    -1.195068    643.0444 -67.01     1.486     0.435  99.0000        135     84.64007
 8.31    363.6567  23.5043     65.80835     97.3249  45.78     0.578     0.333   0.9007        136     54.58081
 3.56    389.2385  20.6093     946.8671   1463.0966  57.58     1.796     1.631   0.1036        137     90.31591
 4.08    401.0529  20.3294     1225.293    824.7330  48.37     3.253     2.740   0.1617        138     182.3903
 4.81    377.7523  22.5656     156.2285    162.8285 -35.17     1.129     1.085   0.5523        139       79.453
 3.50    385.9117  22.1276     233.8534    867.6343 -73.67     1.442     1.322   0.3387        140     72.93668
 0.00    383.3534  99.0000    -49.81128   1277.6696  75.68     1.166     1.055  99.0000        141     107.8542
 3.50    392.8899  21.8021      315.614   1317.5302 -48.64     1.483     1.396   0.2592        142     75.32867
 4.52    451.1505  20.4721     1074.396   1219.8578  56.07     6.476     2.500   0.2737        143     270.8168
 3.50    413.7905  19.5361     2544.164     67.1341 -60.83     1.974     1.853   0.0428        144     100.3597
 0.00    391.2280  99.0000     -63.2666   1206.1643 -88.79     1.130     0.746  99.0000        145     86.70982
 3.50    417.1918  19.1994     3469.396   1307.9253  37.73     1.929     1.914   0.0314        146     100.3597
 7.10    413.1869  22.5158     163.5651    665.6929  81.38     1.328     0.991   0.8123        147     122.3366
 7.54    410.2010  26.8057      3.14563    749.6277 -26.28     1.191     0.770  36.7788        148     106.5308
 3.50    458.0979  17.7849     12765.98     12.4038 -59.41     2.124     2.082   0.0093        149      109.486
 0.00    420.3788  99.0000     -180.677    101.8098  71.35     1.223     0.902  99.0000        150     111.0938
 0.00    415.5115  99.0000    -60.47803   1157.4949 -44.64     0.504     0.496  99.0000        151     65.23655
 8.79    420.2401  22.8748     117.5088    890.9982   1.82     0.800     0.551   0.8089        152     87.52401
 7.59    421.2487  23.9158     45.04651   1572.0276  -1.34     0.693     0.432   1.4782        153      61.3131
 6.96    425.6347  23.5449     63.39502    962.6557 -44.37     0.851     0.522   1.1984        154      69.9584
 3.75    439.7845  23.0993     95.56433    908.6335 -52.06     1.883     1.435   1.0441        155     91.87319
 3.50    466.2373  18.4597     6856.845   1074.6401 -82.23     2.009     1.929   0.0164        156     103.4913
 4.93    439.3988  22.4764     169.6056    814.9534 -86.52     0.990     0.950   0.4639        157      72.4488
 4.06    450.3367  21.6467     364.1923    174.3367  24.26     1.781     1.447   0.2918        158     97.85482
 3.66    449.1495  23.1765     89.00525    290.5052  -2.34     1.266     1.220   0.8348        159     68.42067
 3.75    462.7975  22.2959     200.2791    275.5684  22.46     1.563     1.439   0.4590        160     84.64007
 4.60    457.7794  22.9896     105.7178   1159.6694  30.96     1.323     1.096   0.8608        161     83.79786
 4.24    464.8949  22.9556     109.0868   1190.3889  89.16     1.284     1.008   0.7164        162     71.95762
 5.44    462.5362  23.6282     58.70984   1091.4558  46.22     1.073     0.828   1.4193        163     76.72809
 7.04    458.3414  24.1419     36.58032    977.3062 -46.69     0.569     0.338   1.3231        164     44.56504
 3.50    488.4671  20.3886     1160.307    573.8985  65.18     1.749     1.715   0.0838        165     89.52711
 3.50    478.8458  22.7144       136.22   1017.2892 -36.08     1.346     1.227   0.5371        166     67.37601
 0.00    474.5374  99.0000    -47.74182   1137.3838  51.60     1.144     0.789  99.0000        167     87.11787
 0.00    473.0392  99.0000     -65.7854    250.0121 -88.81     0.629     0.610  99.0000        168      69.9584
 0.00    480.7053  99.0000    -26.69702   1570.9915 -56.06     1.184     0.443  99.0000        169     86.70982
 3.50    505.4442  20.4530     1093.446   1141.7743 -77.26     1.790     1.681   0.0901        170     90.70773
 5.17    497.3044  22.7063     137.2366    604.5627 -31.43     1.521     1.246   0.8430        171     106.5308
 4.88    509.5489  22.4188     178.8474    999.2165 -69.39     1.892     1.542   0.7499        172     123.4908
 6.12    491.4751  23.8958     45.88647    126.0398 -31.68     0.809     0.309   1.1275        173     47.64204
 4.61    506.7564  24.9526     17.33582    538.3772 -39.15     1.248     1.201   5.2495        174     83.79786
 0.00    501.2858  99.0000    -288.0297   1011.1366 -15.97     1.193     0.944  99.0000        175     102.4581
 3.63    536.9082  20.5661     985.3062    352.6194   1.95     3.045     2.557   0.1671        176      151.596
 5.61    532.8222  18.9840     4230.546    671.6838 -87.78     2.220     1.914   0.0377        177     146.9148
 4.11    530.4657  21.5880     384.4036   1006.1499 -29.50     3.129     1.873   0.4183        178     148.0453
 4.35    515.1706  23.1090     94.70764   1524.4115  21.59     1.027     0.838   0.6760        179     58.95401
 3.50    547.5992  19.5159      2592.01    373.7482 -79.16     1.871     1.761   0.0395        180     94.16084
 6.26    517.8668  24.0771     38.82996   1431.5239   1.73     0.928     0.743   2.1844        181     78.10243
 5.78    539.7258  18.4794     6733.278    673.9117 -57.04     2.086     1.647   0.0241        182     149.1438
 3.50    532.7166  23.1764     89.00745    653.9492  82.08     1.264     1.118   0.7410        183     60.73192
 3.50    561.1493  18.8992     4574.158    582.4084  88.25     1.943     1.890   0.0236        184     99.29394
 3.50    557.4207  19.4614     2725.479   1456.0345 -65.47     1.879     1.830   0.0386        185     96.76144
 3.50    566.7148  19.2270     3382.103    955.7006 -78.38     1.906     1.800   0.0312        186     97.12727
 0.00    543.4722  99.0000    -68.11096    982.6802 -89.35     0.913     0.466  99.0000        187     65.77794
 3.50    573.1162  19.2077     3442.865   1028.1451 -54.28     1.932     1.853   0.0313        188     99.29394
 5.44    549.3787  22.2633     206.3778    755.1135 -34.91     1.325     0.965   0.4814        189     91.48636
 3.50    556.3796  24.8391     19.24719   1073.0961 -27.96     1.485     1.224   3.9473        190      69.9584
 5.45    554.3296  23.2642     82.09619      3.4401  59.18     1.000     0.966   0.9712        191     73.42131
 0.00    557.5020  99.0000    -14.52869    270.9468  87.46     0.804     0.701  99.0000        192     56.49651
 3.65    570.2971  23.0538     99.64795   1513.4263  20.57     1.251     1.230   0.7343        193     67.37601
 0.00    561.7103  99.0000    -22.82593    757.2952  44.62     0.541     0.348  99.0000        194     23.82102
 3.50    579.8986  21.4191     449.1312   1365.4912  69.09     1.548     1.334   0.1855        195     76.72809
 7.26    562.5344  27.3128     1.971924    231.4810  41.04     0.502     0.496  30.7667        196     55.86524
 0.00    568.7847  99.0000    -28.90588   1327.9811  65.62     0.991     0.611  99.0000        197     61.88882
 3.50    720.0618  17.7215     13532.61    199.1909 -41.82    13.077     9.717   0.0473        198     588.9382
 6.56    585.1160  22.8173     123.8983   1527.1716 -53.11     1.412     0.836   0.9338        199     106.5308
 5.02    585.8004  25.0679     15.59045    272.7299  74.17     1.403     0.987   6.0967        200     87.52401
 5.58    613.2350  20.2637       1301.7    571.9507  76.43     2.783     2.146   0.1705        201     204.3963
 4.51    987.4315  22.3373     192.7858    729.5488 -68.63     1.460     1.275   0.5219        202     92.64202
 8.33   1598.4415  22.5164     163.4666   1443.7629 -19.91     0.735     0.456   0.4298        203     64.69062
 3.50   1595.0242  25.8453      7.61853    335.0103 -89.35     0.624     0.607   4.3286        204     30.36596
 5.09   1583.5215  20.2290     1344.009    830.3893 -72.74     3.707     2.843   0.1982        205     245.2524
 6.12   1576.9705  21.5205     409.0853    508.9666  89.13     1.612     1.207   0.3383        206      127.448
 4.51   1574.5171  22.5801     154.1504     27.8831 -87.91     1.320     1.127   0.5813        207     82.51842
 3.50   1553.8016  23.1695     89.57629   1073.4061  49.03     1.171     1.091   0.7220        208     59.55255
 0.00   1554.8267  99.0000   -0.9249268    636.8438 -48.40     0.826     0.671  99.0000        209     44.56504
 0.00   1551.8873  99.0000    -86.47693    217.3465 -74.79     1.326     0.773  99.0000        210     87.92828
 3.89   1532.0197  20.0833      1537.09    867.3597  86.06     1.589     1.537   0.0856        211      121.215
 4.09   1451.6503  23.6249     58.88757   1206.0732  69.49     0.908     0.669   0.8507        212      46.1292
 3.50   1385.0707  18.2249     8512.197    906.9302 -73.43     2.137     1.994   0.0138        213     107.8542
 3.50    850.0124  18.5306     6423.034    214.4727 -66.55     1.976     1.937   0.0173        214     102.4581
 0.00    854.6661  99.0000    -40.98401    613.3131  46.01     0.569     0.338  99.0000        215     51.91671
 3.50    839.7684  16.4352     44251.55    275.0393 -39.86     2.346     2.210   0.0029        216     118.5081
 5.05    848.7388  23.3742     74.18579    646.4524 -73.63     2.492     2.052   2.4934        217     170.3244
 0.00    845.2832  99.0000    -216.7784     98.6556 -80.65     3.295     1.270  99.0000        218     107.5249
 5.04    846.4573  22.2883      201.696   1141.6185  71.75     1.481     0.918   0.4756        219      88.3307
 3.50    879.4688  19.8740     1863.806   1340.6351 -67.68     1.854     1.745   0.0540        220     92.64202
 0.00    835.4118  99.0000    -168.2131   1371.1257  40.46     0.995     0.929  99.0000        221     82.51842
 0.00    826.7810  99.0000    -14.26868    342.2381  79.02     1.218     0.958  99.0000        222     67.37601
 3.50    823.0052  23.6107     59.66736   1599.5493 -89.49     0.787     0.498   0.5527        223     30.36596
 0.00    821.6789  99.0000    -20.12207   1153.3163  45.24     0.565     0.340  99.0000        224     51.91671
 3.50    818.6816  22.2100     216.7709   1030.0120  12.00     1.329     1.314   0.3428        225     68.42067
 4.00    816.9885  26.6307     3.695923    819.3132  69.68     1.278     1.162  21.2882        226      72.4488
 0.00    806.8745  99.0000    -7.580078    300.1245  46.58     0.818     0.677  99.0000        227     75.79802
 3.50    793.3639  23.4791       67.354    937.7939 -10.86     1.696     1.064   1.1442        228     70.96505
 0.00    793.2579  99.0000    -143.5134    434.5865  65.46     1.262     0.900  99.0000        229     92.64202
 3.50    792.0000  24.5073     26.12598   1463.8378 -87.87     0.982     0.838   1.9804        230     47.64204
 3.50    787.0515  19.2092     3438.103    527.2347 -72.96     1.981     1.904   0.0317        231     100.3597
 8.10    789.3751  25.1977     13.83374    867.7164  71.58     0.990     0.587   7.2426        232     92.25841
 4.42    787.4064  22.5189     163.0985   1108.0948 -83.32     1.505     0.950   0.5231        233     78.55521
 3.50    776.7722  17.1665     22563.44    727.4407 -70.96     2.201     2.085   0.0054        234     111.4126
 0.00    787.2328  99.0000    -6.229614    218.2828  -5.47     0.908     0.647  99.0000        235     64.14005
 3.50    784.8297  22.9267      112.026    183.9135 -33.23     1.146     1.032   0.5354        236     55.22676
 7.51    784.8787  24.7899     20.13928    374.6598 -18.08     0.909     0.675   4.7632        237      88.3307
 3.50    780.7609  21.6438     365.1722    992.5387  78.75     1.368     1.334   0.2096        238     70.46352
 3.50    770.8383  18.5573     6267.418    369.1132 -67.78     1.974     1.895   0.0174        239     100.3597
 0.00    765.6365  99.0000    -53.97546   1409.5160 -88.44     1.290     0.964  99.0000        240     108.5099
 4.26    762.5145  24.9955     16.66516   1360.1163 -73.92     1.068     0.877   3.8808        241     59.55255
 4.89    760.6526  24.1034     37.89966   1039.3221  46.07     0.578     0.332   0.8360        242     29.17467
 0.00    756.9484  99.0000    -44.99121    889.1730  57.64     0.988     0.660  99.0000        243      61.3131
 7.67   1583.2874  23.5997     60.27527    370.4407 -21.32     1.147     0.537   1.6130        244     89.52711
 6.56    743.2925  22.6582     143.4619   1293.0260  -1.59     0.747     0.687   0.5219        245     68.93706
 3.89    735.6713  23.6089     59.76172    372.2827 -40.50     1.368     1.185   1.3517        246      74.3811
 6.88    735.5160  22.7347     133.6969   1080.9215  -0.57     0.773     0.500   0.5027        247     61.88882
 5.86    731.2867  22.8362       121.76   1468.3378 -76.91     1.246     0.664   0.7087        248       79.453
 0.00    743.0247  99.0000     -101.217   1432.4613 -87.49     1.168     0.954  99.0000        249     114.8608
 3.50    728.8027  22.3699      187.084    127.9314  65.09     1.815     1.633   0.5197        250     89.52711
 3.94    724.3919  21.6035     378.9788    970.2457 -85.18     2.450     1.662   0.3379        251      117.908
 3.79    727.3688  24.2308     33.70361    624.0144  -1.82     1.372     1.300   2.4424        252     75.79802
 6.70    725.8500  25.0422     15.96362   1433.8589 -44.25     0.839     0.661   4.9948        253     73.42131
 3.50    719.8369  24.0220     40.84888    658.6907 -62.65     1.174     0.973   1.4852        254     55.86524
 5.95    741.9766  22.8912     115.7543    918.1022 -47.94     1.918     1.206   1.2692        255     135.2774
 3.50    709.9418  21.0216     647.7034   1354.0551 -76.30     1.612     1.400   0.1294        256     77.18892
 6.10    711.6713  23.7600     52.00024   1241.1521  67.80     0.948     0.677   1.5334        257     73.42131
 4.90    708.2723  24.9674     17.10095    403.1562   0.61     1.165     1.006   4.9887        258     78.55521
 4.94    705.6754  28.0927    0.9614258   1242.6392 -43.61     0.585     0.328  32.9549        259     29.17467
 4.08    702.4844  21.7578     328.7609   1039.8816 -86.80     1.517     1.453   0.2957        260     89.52711
 5.80    702.4802  24.6515     22.87756     19.4207 -56.86     1.880     0.358   3.3687        261     70.96505
 3.50    698.2388  20.1761     1411.045     96.4589 -50.86     1.676     1.662   0.0677        262     87.92828
 7.72    698.9081  24.3966     28.93201    910.4150 -26.53     1.143     0.575   3.5061        263     93.40452
 5.83    688.0648  23.3895     73.14563   1185.2397 -46.18     1.275     1.213   1.6207        264     109.1616
 6.19    684.8482  21.6685     356.9529    494.5381  76.41     1.602     1.296   0.4027        265     132.3622
 5.18    682.2822  24.4389     27.82544   1071.8645 -37.59     1.224     1.033   3.4001        266     87.11787
 3.50    664.6374  16.0790     61433.63   1486.4188 -57.27     2.380     2.204   0.0021        267     119.1051
 6.97    677.6722  25.3779     11.71765    940.3181  45.48     0.568     0.338   4.0559        268       43.762
 5.61    674.2509  22.1070     238.3518   1442.3577 -23.85     1.299     1.244   0.4823        269     105.8629
 3.50    668.4413  20.1012      1511.94   1089.8324 -70.08     2.151     1.765   0.0728        270     101.4143
 4.30    671.5085  25.5586     9.921143    757.8257 -19.21     1.344     0.905   7.7132        271     70.46352
 6.96    671.3718  22.5909     152.6261    456.0335 -16.19     1.194     0.979   0.8062        272     113.3064
 6.39    669.1052  21.5804     387.1003    350.0106 -40.48     1.529     0.838   0.3044        273     108.5099
 6.10    667.8962  22.3704     186.9969   1306.5988 -37.77     1.487     1.013   0.6562        274      112.993
 0.00    668.6582  99.0000    -32.67896   1040.7002 -47.10     0.566     0.339  99.0000        275      46.1292
 3.86    661.3326  20.9060     720.4426    316.6511 -21.41     1.393     1.225   0.1290        276     85.58313
 3.50    654.3220  21.0378     638.0818    312.1318  58.15     1.666     1.591   0.1455        277     85.47398
 7.79    659.0103  25.2724     12.91382    921.7308  89.37     0.670     0.444   5.3472        278     63.58472
 5.36    657.1987  23.1200     93.75989    685.8965  42.06     0.843     0.670   0.6966        279     60.14512
 3.83    652.8804  21.0483     631.9403     16.1437 -66.82     1.659     1.486   0.1545        280     89.92237
 0.00    648.5031  99.0000    -60.40149     83.8029 -87.54     0.953     0.732  99.0000        281     81.21884
 4.30    643.4164  21.8972     289.1592    165.1923  71.41     1.432     1.277   0.3272        282     87.11787
 3.66    640.9592  21.6448      364.835    220.0922  62.79     1.825     1.460   0.2653        283     89.13009
 3.85    635.9503  20.7340     844.0774    870.8044 -55.63     2.583     2.127   0.1724        284     133.9601
 5.85    636.3670  23.2244     85.16223    713.2728 -27.80     1.103     0.927   1.1264        285      88.3307
 3.50    633.0000  24.7319     21.24438    397.9916   0.00     0.836     0.289   1.1391        286     22.28252
 0.00    630.1810  99.0000    -6.311401    108.0266 -55.50     0.816     0.513  99.0000        287     63.58472
 5.60    628.0944  25.3758     11.74048   1540.2069  27.17     1.293     1.121   9.2177        288     99.65047
 0.00    625.7720  99.0000    -115.4359    983.4990  -2.17     1.251     0.924  99.0000        289     106.1974
 8.22   1589.7009  22.1339     232.5061   1461.0107 -10.63     0.741     0.680   0.4069        290     87.11787
 4.10    615.7365  22.3696     187.1417    191.4495  60.91     1.785     1.428   0.5721        291       98.577
 4.21    611.5716  20.6735     892.5042    588.2308  14.18     2.596     1.592   0.1554        292      127.726
 6.55    613.6649  24.0167      41.0498   1535.3394  44.82     0.581     0.331   1.1578        293       43.762
 8.65    607.5215  22.7986     126.0559    297.4977  43.76     0.505     0.494   0.5430        294     63.02449
 8.53    606.5175  23.2446     83.59009   1381.4932  43.97     0.503     0.496   0.7966        295      61.3131
 4.22    602.5912  21.4137     451.3667   1579.9037  -8.84     1.521     1.361   0.2192        296     91.09788
 7.83    597.8693  23.0822     97.07568    442.1408 -44.85     0.751     0.569   0.8788        297     78.55521
 3.50    595.8198  22.7016     137.8394   1054.3407 -89.55     1.270     1.154   0.5053        298     64.14005
 8.08    597.5260  22.3503     190.4943     31.0235   1.89     0.785     0.499   0.4321        299     75.79802
 7.67    588.0042  22.6185     148.7953   1536.5018 -87.74     0.820     0.499   0.5359        300     73.42131
 6.55   1589.6970  24.2124     34.28137    264.6829 -44.20     0.557     0.343   1.3863        301       43.762
 6.04   1584.6581  21.6394     366.6355    908.5366  57.03     1.067     0.804   0.2470        302     83.37357
 3.50   1571.6305  23.0855     96.77979    429.0382 -57.41     1.151     1.002   0.6410        303      57.1208
 5.85   1546.6389  24.2276     33.80383    436.8634 -57.07     1.089     0.581   2.2475        304      69.9584
 3.55   1567.0079  20.9474     693.5205     19.0851 -80.60     1.626     1.566   0.1312        305     83.79786
 3.50   1534.9148  19.4564     2737.922    875.2714 -86.94     1.850     1.642   0.0664        306     167.4045
 3.50   1560.6195  23.8687     47.04773    623.5128 -74.75     1.716     1.514   1.9343        307     83.79786
 7.47   1509.5585  24.7798     20.32751    525.2308 -20.86     0.742     0.450   3.5142        308     65.77794
 4.28   1535.1509  24.1790     35.35034    112.9040  60.82     1.146     0.989   2.0860        309     67.90035
 3.50   1559.6727  20.5768     975.6171   1361.5829 -68.37     1.745     1.591   0.0974        310     87.52401
 7.41   1568.4788  25.4964      10.5061   1528.5316  46.68     0.504     0.495   5.7747        311     55.86524
 5.40   1556.2274  23.7436     52.78943    308.6033  31.79     1.065     0.888   1.6161        312     78.55521
 5.45   1562.3768  23.5477      63.2312    285.8193 -19.32     0.739     0.443   0.7923        313      46.1292
 0.00   1559.8711  99.0000    -58.74683     26.1974 -27.26     0.987     0.751  99.0000        314     75.32867
 3.91   1522.8324  23.6344     58.37732   1514.5532  76.41     1.408     1.298   1.4781        315       79.453
 0.00   1546.0128  99.0000      -80.052   1236.4098   1.62     1.047     0.789  99.0000        316     80.78101
 4.17   1545.7317  23.6355      58.3175    664.4902  76.88     1.358     1.332   1.5605        317     83.79786
 4.31   1527.1224  23.5450     63.38757    958.2054  77.88     1.046     0.813   1.0405        318     60.73192
 5.97   1510.2976  21.8244     309.1959    983.0817  57.52     1.084     0.991   0.3227        319     91.87319
 5.66   1513.0079  22.9714     107.5055    593.7835 -44.31     1.784     1.136   1.2241        320     121.1715
 0.00   1510.9725  99.0000    -23.37256      7.9879  41.77     0.884     0.532  99.0000        321     75.79802
 5.50   1520.9092  22.1125     237.1448    586.8411 -77.18     1.827     1.383   0.5963        322      130.201
 4.05   1524.7307  23.4513     69.10217    802.9252  78.91     1.265     1.088   1.1231        323     71.46306
 3.50   1510.4840  18.1443     9167.899   1281.4663 -71.78     2.090     1.989   0.0126        324     106.1974
 6.43   1455.5348  21.9358     279.0546    128.6390  49.32     2.044     1.616   0.6789        325     174.4392
 3.50   1461.9943  23.6715     56.41492    597.6018 -69.09     1.138     0.918   0.9994        326     51.91671
 3.50   1504.7002  24.0290      40.5885   1360.6443  18.15     1.332     1.079   1.7013        327     63.58472
 0.00   1454.4182  99.0000    -64.11365    455.0775   2.44     1.339     0.957  99.0000        328      69.9584
 5.87   1460.4852  19.6017     2395.115    123.4849 -64.05     1.313     1.249   0.0434        329     95.61393
 0.00   1474.1536  99.0000    -33.56287    567.3289 -76.98     1.079     0.413  99.0000        330     42.94395
 0.00   1455.2758  99.0000    -38.65442    717.1210 -62.49     1.426     1.334  99.0000        331     106.1974
 0.00   1482.1497  99.0000    -11.38623   1409.0476 -56.73     1.059     0.797  99.0000        332     48.38072
 5.07   1473.2968  22.2324     212.3378   1562.7554  43.58     2.024     1.916   0.7657        333     149.7128
 8.54   1468.3329  23.0226     102.5509     54.2892  21.93     1.248     0.802   1.3438        334     126.8903
 0.00   1436.0176  99.0000    -6.329224    485.3335  -2.64     1.035     0.841  99.0000        335     86.70982
 0.00   1480.9836  99.0000    -160.4606     23.2866 -31.67     1.305     0.714  99.0000        336     87.52401
 0.00   1419.5212  99.0000    -69.96008   1083.4147   0.10     1.073     0.500  99.0000        337     73.42131
 5.53   1464.4952  25.7486     8.328247    881.9339   6.55     1.083     0.924  10.7604        338     82.51842
 4.12   1361.3853  26.4938     4.192505    520.9531 -63.86     1.183     1.102  18.5113        339     71.46306
 8.38   1458.6672  27.0027     2.623779    502.6410 -44.03     0.588     0.326  22.5914        340     54.58081
 3.50   1461.5692  18.9189     4492.006    250.7218 -72.86     2.031     1.908   0.0248        341     102.4581
 7.53   1460.1299  22.9399      110.673   1250.1620  43.51     0.759     0.574   0.7205        342     73.42131
 3.50   1466.0754  17.9264      11206.1    533.4296  78.83     2.383     2.032   0.0111        343     114.8608
 4.71   1417.7998  22.3724     186.6553    690.6979  88.17     2.543     2.114   0.9539        344     163.9589
 3.50   1398.4067  18.3633     7493.627    898.8309 -75.49     1.882     1.722   0.0313        345     215.7583
 0.00   1413.1299  20.0129     1639.956    965.9013 -51.24     1.554     1.329   0.0712        346      107.522
 5.26   1439.5889  22.7868     127.4365    959.6401 -79.99     1.205     0.936   0.7141        347     83.79786
 5.85   1434.0284  23.4158     71.40027    890.3381  17.39     1.038     0.719   1.1670        348     76.72809
 0.00    862.9485  99.0000    -1.526123    655.0118 -46.53     0.819     0.758  99.0000        349      61.3131
 7.64   1406.3228  24.0649     39.26794    183.3160 -45.35     0.565     0.340   1.3975        350     50.53201
 3.50   1416.1143  18.9165     4501.921    953.2365 -69.51     1.969     1.867   0.0240        351     99.29394
 0.00   1393.4110  99.0000    -33.80188    778.1905  18.91     0.753     0.452  99.0000        352     54.58081
 7.33   1425.8359  24.1364     36.76404    837.5905  11.03     0.877     0.594   2.3071        353     78.10243
 6.51   1410.5024  25.1641     14.26831   1507.0568 -85.46     1.069     0.775   6.7231        354      88.3307
 3.50   1420.0104  21.4116     452.2452   1049.5074 -79.68     1.656     1.515   0.1982        355     82.51842
 6.66   1404.2319  23.3900      73.1145    753.3615 -59.97     1.547     1.113   1.9380        356     130.4731
 0.00   1376.7153  99.0000    -37.19739    522.7999  53.61     1.057     0.521  99.0000        357     42.94395
 7.52   1388.5931  22.7665     129.8331    402.7344  18.63     0.742     0.454   0.5592        358     66.84756
 8.42   1371.8041  23.1531     90.93933   1047.3953 -70.69     0.752     0.446   0.8593        359     71.95762
 0.00   1392.8794  99.0000    -21.50867    213.2036  60.90     1.165     0.431  99.0000        360      74.3811
 0.00   1381.9500  99.0000   -0.8162842    940.0408 -49.56     0.805     0.768  99.0000        361     66.84756
 3.54   1306.6525  21.8062     314.4156    723.4753 -75.39     2.048     1.302   0.3023        362     87.52401
 0.00   1368.2230  99.0000    -14.87793   1364.4091  71.70     0.763     0.452  99.0000        363     58.95401
 3.50   1367.0601  19.5266     2566.548   1438.6954 -69.75     1.877     1.784   0.0406        364      96.0256
 0.00   1364.6747  99.0000    -16.44519   1175.2870 -34.09     1.107     1.002  99.0000        365     53.92712
 4.04    876.1050  22.0318     255.4406   1084.7075 -28.86     1.244     1.203   0.3101        366     72.93668
 5.24    864.4854  23.9307     44.43311    522.6914  24.89     1.216     1.024   2.1193        367     86.70982
 4.26    874.0328  22.2288     213.0553    845.5032 -19.13     1.869     1.214   0.4895        368      96.0256
 3.77   1371.6851  22.8205     123.5386   1249.1526  63.98     1.091     1.014   0.5076        369     57.73833
 4.59   1350.2107  22.7178     135.7953   1493.6960  22.22     1.432     1.350   0.7768        370     97.12727
 3.50   1366.5422  23.3543     75.55603    332.5728 -65.15     1.378     1.155   0.9455        371     65.77794
 0.00   1376.5374  99.0000    -69.22839    567.9445 -43.59     1.566     1.417  99.0000        372     132.6298
 5.68   1364.8011  23.7282     53.54358   1493.2467 -69.63     1.288     1.042   1.9774        373     97.49172
 3.50    873.5823  21.2873      507.064    447.6536 -63.10     1.640     1.543   0.1786        374     83.37357
 0.00    868.1310  99.0000    -25.47852   1057.4645 -21.29     0.886     0.683  99.0000        375     49.82523
 3.54   1307.7341  20.9489     692.5264    133.0576 -38.68     1.657     1.569   0.1321        376     84.22002
 5.79   1325.7029  22.2664     205.7914   1202.3856  79.24     1.228     1.030   0.5126        377     97.12727
 5.47   1312.1108  21.8411     304.4927   1231.6163 -35.66     1.938     1.251   0.4555        378      127.726
 3.54    874.6697  22.0743     245.6187     39.0317 -81.23     1.646     1.528   0.3761        379     85.05805
 0.00    879.6802  99.0000    -81.75391   1222.6667 -44.37     0.571     0.337  99.0000        380       43.762
 3.50   1248.5431  20.1153     1492.344     37.3657 -76.40     1.825     1.713   0.0669        381     91.87319
 3.50    862.3931  15.1053     150618.4   1395.4015 -52.90     3.782     3.484   0.0014        382     189.6354
 3.50   1311.6833  17.6390     14600.97    923.2286 -64.13     2.188     2.059   0.0082        383     110.7741
 4.93   1301.9756  22.2514     208.6644    941.8833 -13.25     1.170     1.086   0.4317        384      82.9471
 3.84   1275.3074  21.7203     340.3121    569.3286 -69.42     1.529     1.447   0.2754        385     86.29984
 7.19   1303.4929  26.2782     5.113525    953.5069  44.98     0.503     0.497  11.8645        386     55.86524
 8.19   1320.5138  22.8454     120.7366   1482.4796  45.51     0.506     0.493   0.5463        387     60.73192
 6.93   1259.3296  23.5275     64.41504    468.0339  43.72     1.017     0.726   1.5160        388     89.92237
 0.00   1301.0029  99.0000    -99.74036   1553.9611 -45.22     0.910     0.525  99.0000        389     69.44961
 3.50   1237.1700  20.3217     1234.024    383.7987 -71.23     1.782     1.702   0.0809        390     91.87319
 3.59   1279.1519  22.9032     114.4821   1141.3660  -7.37     1.463     1.362   0.7146        391     75.32867
 3.50   1244.3210  18.0996     9553.096    569.9016 -68.57     2.097     1.978   0.0120        392     105.8629
 7.50   1268.3602  23.0723     97.96436   1312.2224  19.35     1.065     0.808   1.1435        393      103.148
 3.50   1277.7515  21.3926     460.1989    260.1269  74.55     1.635     1.607   0.2007        394     85.05805
 0.00   1220.1958  99.0000    -5.636719    903.3673  72.31     0.775     0.442  99.0000        395     58.95401
 4.79   1267.2450  23.3210     77.91064   1407.5073  67.33     1.246     1.224   1.2424        396     89.13009
 7.93   1274.4855  23.1028     95.25403    942.0164  57.63     1.016     0.613   1.0518        397     92.25841
 3.79   1270.1284  23.4488     69.26038    755.1631 -40.38     1.172     1.009   0.9704        398     61.88882
 7.35   1254.0199  22.6415     145.6852   1206.6636  89.79     0.736     0.673   0.5788        399     77.64702
 0.00   1261.3464  99.0000    -9.775879   1421.6387 -45.47     1.029     0.851  99.0000        400     89.13009
 0.00   1234.3195  99.0000    -247.3812   1465.1670 -66.17     0.883     0.679  99.0000        401     68.42067
 3.50   1241.7740  21.4463     437.9894    864.6569  62.22     1.620     1.452   0.1981        402     79.89812
 0.00    900.4957  99.0000     -29.8186    298.5353 -47.69     0.506     0.493  99.0000        403     60.73192
 0.00   1251.7294  99.0000    -153.6628   1422.2137  62.76     1.513     0.786  99.0000        404     133.1635
 4.12   1234.7330  23.6174     59.29578    710.9155 -67.00     1.333     1.114   1.3710        405     74.85639
 3.50   1229.0135  21.6157     374.7301    318.5288 -71.82     1.615     1.543   0.2379        406     82.08752
 3.50   1179.0875  21.1058     599.3746      5.8538 -83.74     1.689     1.548   0.1503        407      82.9471
 3.50   1214.1450  17.1751     22384.43   1194.3954 -60.99     2.238     2.104   0.0055        408     112.3635
 4.35   1224.6696  24.0597     39.45813    425.0283  62.52     1.317     1.205   2.2829        409      82.9471
 0.00    905.0942  99.0000    -50.96851   1518.2821  77.45     1.314     0.584  99.0000        410     63.58472
 3.50   1251.3696  21.2747     512.9957    491.9989 -78.80     1.657     1.563   0.1801        411     85.05805
 0.00    888.1315  99.0000    -44.85889    688.9775 -57.79     1.707     1.034  99.0000        412     117.6069
 3.50   1228.9906  19.3721     2959.189   1333.2490 -81.64     1.960     1.871   0.0366        413     99.65047
 3.50    879.8435  17.2748      20421.6    165.4467 -63.62     2.184     2.097   0.0059        414     111.4126
 7.05    973.5118  23.2002     87.07837    281.4951  44.80     0.508     0.492   0.6302        415     50.53201
 4.40    916.7213  22.9199     112.7306   1145.3708 -10.66     1.250     1.064   0.7166        416      74.3811
 0.00   1185.5048  99.0000    -52.71094    283.8190   3.59     1.112     0.978  99.0000        417     94.53674
 3.50   1238.4437  20.9762     675.3365   1245.6625 -68.69     1.644     1.528   0.1334        418      82.9471
 6.96   1198.6920  23.6369     58.24426    463.6628 -82.32     1.183     0.695   1.7697        419     94.91114
 0.00    921.3797  99.0000    -32.74841    224.6592  48.63     1.091     0.925  99.0000        420     74.85639
 3.50    919.1842  18.1483     9134.474    619.8223 -71.50     2.027     1.911   0.0122        421     102.8036
 4.03    922.7933  21.9139     284.7352    505.8558 -66.61     1.413     1.387   0.3196        422     83.79786
 4.20    915.4302  21.0290     643.2714    936.0518  75.53     2.644     1.808   0.2306        423     136.5819
 6.91    921.2067  24.5423     25.29651    853.6528 -71.79     0.953     0.662   3.5426        424     82.51842
 4.64   1178.5764  21.2119     543.5651   1464.2826   2.64     3.073     1.472   0.2943        425     147.3249
 3.50   1197.8568  25.0630     15.66052    610.2325 -45.66     0.700     0.552   2.1853        426     31.51225
 5.57    927.3735  27.2970     2.000854    855.5706 -47.75     1.059     0.862  42.8816        427     79.00538
 4.65   1203.3785  22.2454      209.818   1349.1725 -80.47     1.240     1.074   0.4112        428       79.453
 4.62   1205.8745  25.4180     11.29272    116.8624  43.22     1.186     1.112   7.7686        429     80.78101
 5.49   1189.1964  21.5290     405.8723   1456.5712  36.05     1.889     1.326   0.3447        430     128.8318
 3.50   1193.7871  19.5845      2433.32   1030.6880 -87.23     1.931     1.798   0.0430        431     96.39422
 5.87   1160.6014  27.2625      2.06543   1195.9904  62.62     1.027     0.652  38.0935        432      72.4488
 0.00   1187.9056  99.0000    -122.1512    585.2480  36.51     1.464     1.043  99.0000        433     137.3587
 6.56    935.9239  20.7843      805.924    678.9801   6.73     1.478     1.299   0.1156        434     85.81766
 3.50    932.5441  20.4548     1091.627    944.0935 -74.94     4.527     2.298   0.1672        435     168.0184
 6.34   1153.0000  24.1598     35.98083    542.0130   0.00     0.863     0.289   1.3689        436     45.35387
 0.00    929.8692  99.0000    -20.24475    111.2704 -35.54     1.102     0.521  99.0000        437     76.72809
 5.26   1175.3789  22.6813     140.4375   1044.8125 -21.05     1.156     0.871   0.6109        438     79.00538
 8.45    936.6628  23.5900     60.81396    765.6741 -45.50     0.576     0.334   0.9747        439     54.58081
 6.21   1159.4818  22.4062     180.9364     98.0129  -1.74     0.794     0.499   0.3466        440     57.73833
 5.30   1166.9652  25.0440     15.93665    432.2736 -88.17     0.742     0.657   3.6749        441     53.92712
 3.51    938.6542  22.8638     118.7108    622.0769  23.53     1.046     0.875   0.4493        442     49.10829
 6.66    934.3132  22.4947     166.7755   1019.9688  -9.49     0.725     0.651   0.4421        443     67.90035
 5.97    933.1538  22.6261     147.7603    530.1095 -39.52     0.831     0.674   0.4835        444     65.77794
 3.59    936.8080  20.7045     867.3749    841.7275 -80.24     1.594     1.545   0.1049        445     83.79786
 0.00    972.3481  99.0000    -154.1881   1261.0458  24.17     1.700     0.572  99.0000        446     116.3944
 3.50   1154.0920  20.7199     855.1769    194.7910 -82.67     1.735     1.608   0.1111        447     87.52401
 5.77   1147.7938  26.3138     4.948364    390.1435  39.32     0.810     0.682  14.1974        448     64.69062
 3.50    942.7796  18.7562     5218.029    689.4196 -82.63     1.966     1.886   0.0210        449     100.7125
 3.50   1139.2327  24.8484     19.08252    311.5732 -14.17     0.981     0.960   2.8356        450     49.82523
 3.50   1130.4121  19.0373     4027.764    620.1830 -77.28     1.953     1.841   0.0268        451     99.29394
 0.00   1132.6074  99.0000    -113.1971    292.1523 -19.72     0.728     0.448  99.0000        452     66.84756
 0.00   1074.6722  99.0000    -19.98572    141.8901  73.51     1.817     1.611  99.0000        453     100.0057
 3.50   1029.2568  22.4206     178.5458    309.9079  87.69     1.506     1.360   0.4524        454      74.3811
 4.18   1124.9321  20.8397     765.8328     68.4731  51.88     5.250     2.392   0.3142        455     221.5483
 0.00   1123.9146  99.0000    -43.58191    766.8862  86.58     1.225     0.827  99.0000        456     80.78101
 0.00   1015.9736  99.0000    -40.06775    820.5222 -26.94     0.998     0.661  99.0000        457     41.25921
 7.38   1031.2301  23.4235      70.8927   1367.2107  73.67     0.848     0.345   0.9214        458     60.14512
 3.50   1095.0286  20.3191     1237.013     15.6405 -74.36     1.809     1.689   0.0810        459     92.25841
 3.50   1100.1575  22.2824     202.7894   1451.7600 -87.06     1.335     1.302   0.3664        460     68.42067
 3.50   1110.9348  21.3313     486.9441   1267.3542 -53.56     1.628     1.540   0.1850        461      82.9471
 3.50   1057.9159  20.5247     1023.596    239.0446 -89.28     1.815     1.614   0.0950        462     89.52711
 5.58   1085.2710  27.0789     2.445923    553.7729 -72.17     0.831     0.350  20.1373        463     45.35387
 6.15   1081.9420  23.6853     55.70337   1121.9431  70.76     0.796     0.786   1.3639        464      69.9584
 5.67   1078.0057  25.2027     13.76953    854.9566 -58.76     1.714     0.723   7.4856        465     94.91114
 4.39   1085.1819  23.9376     44.15186    386.2175 -88.27     1.155     0.765   1.5223        466     61.88882
 5.38   1080.6115  24.4743     26.93335    306.4988 -75.20     1.019     0.733   2.8412        467     70.46352
 3.50   1090.2322  20.4996     1047.485    791.8683  77.65     1.735     1.668   0.0912        468     87.92828
 0.00    969.5267  99.0000    -17.86072   1019.4875 -43.79     0.506     0.493  99.0000        469     47.64204
 6.34   1091.0231  23.9524     43.55444   1427.7740  89.07     0.703     0.418   1.2945        470     51.91671
 5.56   1067.3313  23.0394     100.9773   1184.4683  51.33     1.399     0.465   0.7074        471     65.77794
 3.91   1070.1584  22.3581     189.1311     62.2485  24.25     1.393     1.296   0.4588        472     79.89812
 4.07   1027.4890  20.8328     770.6829    607.2560 -18.76     2.941     2.238   0.2182        473     154.8366
 3.80   1042.8846  21.0085     655.5632    423.8866 -42.61     1.752     1.605   0.1597        474     96.39422
 5.23   1064.3309  23.5384     63.77136    531.7479  33.18     1.029     0.908   1.2988        475     76.26447
 4.96   1063.5302  24.7736     20.44336    862.0614 -58.01     1.458     1.242   5.3501        476     100.7125
 4.02   1040.8853  22.3256     194.8746     22.4731  -8.67     1.448     1.403   0.4763        477     85.47398
 7.19   1054.2803  24.5107      26.0437   1320.1046 -69.47     0.947     0.678   3.5986        478     86.29984
 4.46   1011.2761  22.3173     196.3754    374.0196   5.61     1.408     1.367   0.5165        479     93.40452
 0.00   1050.3533  99.0000    -92.71582    312.3636 -17.60     1.447     1.126  99.0000        480     78.10243
 0.00   1049.1913  99.0000    -83.65015    226.7028  59.86     0.859     0.616  99.0000        481     69.44961
 4.67   1047.5114  20.6077       948.27   1382.1768 -66.89     3.633     2.561   0.2429        482     212.0606
 3.50   1006.4554  22.0294     255.9908   1352.7764 -73.64     1.613     1.464   0.3446        483     81.21884
 3.80   1040.3287  21.9394     278.1119   1083.9568 -85.21     1.551     1.422   0.3321        484     85.05805
 3.55   1030.5763  21.5966     381.3969    765.6879  66.42     1.622     1.460   0.2325        485     81.65434
 3.50   1036.8967  22.3838     184.6991    207.5527 -77.78     1.439     1.289   0.4143        486     70.46352
 0.00   1043.1964  99.0000    -145.5483   1597.0045 -58.67     0.812     0.504  99.0000        487     70.46352
 3.50   1021.1419  20.9794     673.3265    105.8904 -72.26     1.699     1.569   0.1379        488     85.47398
 6.18   1035.4849  24.3492     30.22131    621.7720  35.42     1.396     0.666   3.2314        489     89.92237
 0.00   1030.0685  99.0000    -291.3868    847.4033 -65.74     1.627     0.983  99.0000        490     120.5847
 4.29   1020.0123  22.7034     137.6112    502.1168 -87.00     1.466     1.287   0.7034        491     89.13009
 6.03   1009.3141  25.3254     12.29834    185.7090  46.43     0.550     0.345   3.5667        492      40.3905
 5.16    984.0339  22.6837     140.1211    173.4649  83.32     1.164     1.055   0.6495        493     83.79786
 3.50   1001.3738  19.2111     3431.946    997.5110 -79.83     1.961     1.820   0.0311        494     98.21658
 5.70   1002.4895  24.1674     35.73059    292.4987 -44.70     0.505     0.495   1.2540        495     41.25921
 0.00    999.5514  99.0000    -35.88367   1446.3088  78.90     1.041     1.005  99.0000        496     77.64702
 3.50    995.1923  20.2031     1376.468    144.4737 -66.76     1.784     1.650   0.0703        497     89.13009
 8.39    991.9846  24.9544     17.30823   1076.9858 -46.45     0.908     0.527   5.5170        498     87.92828
