#   1 NUMBER                 Running object number                                     
#   2 FLUX_BEST              Best of FLUX_AUTO and FLUX_ISOCOR                          [count]
#   3 FLUXERR_BEST           RMS error for BEST flux                                    [count]
#   4 MAG_BEST               Best of MAG_AUTO and MAG_ISOCOR                            [mag]
#   5 MAGERR_BEST            RMS error for MAG_BEST                                     [mag]
#   6 KRON_RADIUS            Kron apertures in units of A or B                         
#   7 X_IMAGE                Object position along x                                    [pixel]
#   8 Y_IMAGE                Object position along y                                    [pixel]
#   9 A_IMAGE                Profile RMS along major axis                               [pixel]
#  10 B_IMAGE                Profile RMS along minor axis                               [pixel]
#  11 THETA_IMAGE            Position angle (CCW/x)                                     [deg]
         1       958712     171.5191  13.1006   0.0002  3.50   1107.5574    183.5872     5.235     4.880 -24.92
         2      43933.5     202.1742  16.4478   0.0050  4.07     63.6141     54.7853     5.365     4.865  10.86
         3     5972.606     116.9392  18.6144   0.0213  4.05    984.9714     18.2255     4.233     2.082 -89.63
         4     3777.646     71.40068  19.1117   0.0205  4.10     91.2174     19.4714     1.811     1.786 -50.22
         5     9909.256     68.39749  18.0647   0.0075  3.50   1445.6405     16.2575     2.069     1.951  10.92
         6     313.1227     51.37114  21.8155   0.1782  5.88    145.2244      5.8206     1.171     0.700  -0.38
         7     46280.12     80.29659  16.3913   0.0019  3.50   1078.3888     61.4053     2.432     2.332  59.86
         8     134.1003     39.48931  22.7362   0.3198  7.12   1183.2153     11.4046     0.760     0.448  19.10
         9     415.5513     54.76182  21.5082   0.1431  5.38    384.3959     19.2027     1.234     0.891  18.99
        10     1061.489     83.05042  20.4900   0.0850  6.15    366.8643     26.2155     1.520     1.276  22.58
        11     511.7942     74.28255  21.2820   0.1576  8.12    382.6800     25.4832     1.089     0.824  34.63
        12     510.9773     69.91521  21.2838   0.1486  6.45   1110.6578     36.5190     1.297     0.966 -49.38
        13     657.9388       86.239  21.0093   0.1423  6.19    326.7798     34.8941     1.759     1.173  -6.17
        14     44838.84     80.29659  16.4256   0.0019  3.50    537.4344     81.5319     2.423     2.339 -10.68
        15     241.9064     51.37114  22.0957   0.2306  6.57   1170.5585     40.7102     1.270     0.507  40.85
        16      198.442     40.97999  22.3107   0.2243  5.84   1521.2733     40.0144     0.741     0.661  85.98
        17      312.933     54.21144  21.8162   0.1881  5.96    915.1636     44.3193     1.037     0.830 -57.46
        18     265.6788      37.9401  21.9939   0.1551  8.83    440.3448     45.6943     0.570     0.337  43.15
        19     1613.629     61.46999  20.0353   0.0414  3.86    128.1458     76.6940     1.719     1.565 -36.54
        20     1514.785     118.5944  20.1039   0.0850  6.41    376.7003     91.3006     2.278     1.590  59.94
        21     468.6173     71.19037  21.3777   0.1650  5.67    421.1942     84.3876     1.543     1.097 -71.73
        22     66623.95     82.68854  15.9957   0.0013  3.50    788.9817    123.3941     2.490     2.407   1.93
        23     2446.264      72.2358  19.5835   0.0321  4.29     56.0174     98.1544     1.876     1.626  -2.93
        24     739.7351      80.6692  20.8821   0.1184  6.17    452.8300     99.8754     1.469     1.252  11.31
        25     252.5361     45.81702  22.0490   0.1970  5.78    495.7601     92.9686     0.890     0.757  -1.84
        26     256.7535     46.46695  22.0310   0.1965  8.06   1075.7946     97.6176     0.767     0.445  18.16
        27     276.5106     54.48732  21.9505   0.2140  7.50    990.2148    118.7651     0.770     0.712  56.09
        28     286860.5     92.28626  14.4106   0.0003  3.50    317.9610    195.1572     2.782     2.657 -41.25
        29     37439.93     76.86188  16.6214   0.0022  3.50   1468.2515    163.8908     2.301     2.243 -11.43
        30     203.4232     46.14313  22.2838   0.2463  8.09    418.1811    132.3931     0.751     0.447  19.00
        31     8442.417     73.67449  18.2386   0.0095  3.64    877.2230    171.7732     2.117     2.046 -67.73
        32     47245.53     241.3251  16.3689   0.0055  4.14    403.5941    236.5317     6.506     5.518 -41.84
        33     153.3187     36.73534  22.5908   0.2602  6.41    353.9936    148.9917     0.620     0.600 -89.87
        34      130.506     27.92316  22.7657   0.2324  5.04   1280.5729    152.7571     0.724     0.458  70.56
        35     653.0602     49.28564  21.0174   0.0820  3.57    104.0227    167.9652     1.477     1.352 -78.60
        36     1053.485     88.13081  20.4982   0.0909  6.30   1445.8739    166.7165     1.482     1.386  25.89
        37     1425.562     82.86967  20.1698   0.0631  5.49    325.4615    173.1771     1.587     1.503  16.30
        38     115.5385     30.97796  22.8980   0.2912  6.55    634.5322    161.5322     0.509     0.489  45.00
        39      371.952     58.98029  21.6286   0.1722  6.45   1368.4978    170.4766     0.962     0.894   1.76
        40     143.8945     35.90973  22.6597   0.2710  6.49    651.2307    170.4273     0.769     0.448  19.56
        41     621.1864     86.93169  21.0717   0.1520  7.88    575.0485    181.2506     1.588     0.819  33.93
        42     1106.571     72.85587  20.4448   0.0715  5.32   1350.5676    194.2067     1.471     1.371 -61.81
        43     469.0336     60.48641  21.3768   0.1401  6.62   1354.9641    188.1914     1.032     0.844  38.79
        44     5065.552     138.2126  18.7932   0.0296  4.60    827.3505    212.4507     4.311     2.212 -12.74
        45     1983.844     76.66655  19.8110   0.0420  4.85    548.9967    208.1533     1.728     1.561 -56.60
        46      123.072     29.49014  22.8294   0.2602  5.72    268.7589    196.9942     0.669     0.428 -89.70
        47     921.8735     73.06138  20.6431   0.0861  4.64    349.6559    210.1383     1.790     1.474  53.37
        48     1648.584     54.21144  20.0120   0.0357  3.50   1306.0121    213.7668     1.673     1.542  -5.52
        49     5090.757     180.3818  18.7878   0.0385  5.57    561.9375    231.9906     3.530     3.154 -29.90
        50      85405.7      85.1894  15.7261   0.0011  3.50     67.5887    267.4318     2.519     2.455   4.04
        51     283.1819     58.98029  21.9246   0.2262  6.26    250.8450    205.3241     1.499     0.627  36.23
        52     667.1906     76.27439  20.9942   0.1242  5.22    684.2392    212.3623     1.589     1.414 -21.56
        53     121913.6     84.30475  15.3397   0.0008  3.50    997.3770    261.3211     2.487     2.473  -5.15
        54     1858.562     55.57718  19.8818   0.0325  3.62   1226.0276    225.6275     1.638     1.513  56.38
        55     2158.247     126.7828  19.7195   0.0638  8.63   1122.9299    224.0614     1.885     1.218  71.23
        56     743.6832     81.59328  20.8763   0.1192  5.20    345.2687    223.4958     1.862     1.400  38.99
        57     769.0786     64.56323  20.8399   0.0912  4.84    774.7049    224.2253     1.485     1.274 -64.77
        58     1622.848     106.1871  20.0291   0.0711  5.40    112.9577    245.7517     2.269     1.821 -84.19
        59     4263.531     114.9998  18.9804   0.0293  4.76    612.8062    256.8083     2.763     2.241 -31.38
        60      868.422     98.87504  20.7080   0.1236  6.68    838.1740    240.4640     1.587     1.461   3.11
        61     792.9875     83.41072  20.8066   0.1142  6.57   1372.6572    253.3820     1.676     1.007 -77.44
        62     351672.1     91.14183  14.1894   0.0003  3.50    439.4230    313.6555     2.726     2.645 -29.46
        63     392.1851     49.99508  21.5711   0.1384  7.15    107.6562    251.7136     1.286     0.961 -47.45
        64     225.1644      47.1079  22.1735   0.2272  7.46   1352.0001    254.2400     0.825     0.505  52.98
        65     19942.21     74.08041  17.3053   0.0040  3.50   1486.3666    289.1064     2.197     2.143  -0.24
        66     4374.009     67.06926  18.9526   0.0167  3.69   1522.2140    283.4656     1.863     1.834  34.16
        67     201.4993     39.86721  22.2941   0.2149  8.03    123.0000    266.9816     0.858     0.289  90.00
        68     440.8799     68.39749  21.4440   0.1685  6.59   1273.7917    272.2896     1.215     0.927   3.52
        69     14721.33     74.08041  17.6349   0.0055  3.50    201.6470    304.5827     2.214     2.163   7.61
        70     311890.5     91.14183  14.3198   0.0003  3.50    890.7000    352.8533     2.708     2.638 -41.09
        71     58273.14     79.73441  16.1411   0.0015  3.50    905.3373    320.2001     2.371     2.336  17.94
        72     1549.548      60.7338  20.0793   0.0426  3.50    515.0054    291.1290     1.867     1.704  -4.76
        73       300522      90.8122  14.3601   0.0003  3.50   1345.7853    352.8833     2.672     2.630 -27.88
        74     1856.805     61.71344  19.8829   0.0361  3.89   1327.5559    295.5385     1.682     1.633  16.46
        75     884.5861     52.15097  20.6879   0.0640  5.59   1475.5228    294.7319     1.490     1.410 -32.70
        76     1332.194     112.0947  20.2434   0.0914  5.89   1413.5488    298.9774     2.281     1.700 -31.73
        77     9862.407     70.97943  18.0698   0.0078  3.50    697.2145    323.5643     2.098     2.084  48.90
        78     722.2278     61.22557  20.9081   0.0921  4.10    563.4363    303.5893     1.634     1.445 -14.17
        79     192.0378     35.90973  22.3463   0.2031  8.31    247.3226    294.2922     0.554     0.344 -43.23
        80     1009.769     94.53356  20.5442   0.1017  5.61    641.3190    322.5241     1.952     1.535  77.61
        81     438.6527       60.238  21.4495   0.1491  8.04     85.7015    310.1534     1.131     0.517 -35.38
        82     2004.017     91.47028  19.8000   0.0496  5.15    595.4161    328.8730     1.940     1.713 -35.23
        83     6943.085     87.44762  18.4509   0.0137  4.20    867.0420    347.9107     2.264     2.015  25.16
        84     417.1154     62.43808  21.5041   0.1626  6.23   1545.8273    331.3643     1.283     0.835  52.86
        85     188.5988      37.9401  22.3659   0.2185  5.89    955.5109    326.3526     0.926     0.478   0.07
        86     460.5061     57.17302  21.3967   0.1348  6.09     93.5791    333.6950     0.971     0.940  55.69
        87     342.5399      51.6622  21.7180   0.1638  5.78   1439.6562    336.5270     1.042     0.821 -34.70
        88     4909.606     71.81945  18.8272   0.0159  3.69    431.7284    357.2689     2.062     1.955 -73.63
        89     866.0796     68.39749  20.7109   0.0858  5.25     54.6837    351.3244     1.405     1.282  61.37
        90     10045.83     74.08041  18.0498   0.0080  3.71    760.9843    369.6347     2.101     2.028  22.47
        91     49399.87     80.48311  16.3205   0.0018  3.50    231.3483    396.6438     2.424     2.344 -28.26
        92     2010.221     82.86967  19.7967   0.0448  4.89   1500.1429    362.7214     1.894     1.593   0.84
        93     3601.829     61.46999  19.1635   0.0185  3.54    442.7167    368.9449     1.817     1.730  23.76
        94     534.0375     70.76787  21.2359   0.1439  6.61   1033.3591    362.1609     1.241     0.996 -58.97
        95     207.0688     44.82448  22.2645   0.2351  5.00    533.3430    361.2872     1.219     0.716  -8.77
        96       343.99     57.17302  21.7134   0.1805  7.19   1415.9182    364.6555     0.961     0.690 -70.00
        97     709.9421     66.69587  20.9267   0.1020  6.32    753.3804    376.5251     2.021     1.175  45.42
        98     472.9077     70.12935  21.3678   0.1610  5.75   1083.9891    375.3518     1.453     1.092 -64.08
        99      474.899     54.21144  21.3633   0.1240  5.86      1.5932    381.5696     2.024     0.637 -89.37
       100     681.7281     71.40068  20.9708   0.1137  6.06    992.6714    374.2666     1.283     1.155  16.70
       101     359.3328     59.98857  21.6660   0.1813  6.92     72.0737    371.3849     1.328     0.618  -4.98
       102     200.2417     43.80946  22.3009   0.2376  7.71    209.7980    370.4338     0.757     0.448 -20.40
       103     7723.608     67.29245  18.3352   0.0095  3.50    354.4694    399.6199     2.028     1.927  17.69
       104     6868.291     65.48561  18.4627   0.0104  3.50   1461.0906    398.5513     1.985     1.894  -9.16
       105     286.6378     53.93414  21.9114   0.2043  5.48     67.2584    384.9274     1.574     0.663  84.64
       106     118.3723     30.49009  22.8717   0.2797  5.96     87.0265    376.7703     0.694     0.420   1.14
       107     44973.86       78.407  16.4224   0.0019  3.50    433.2188    421.0826     2.332     2.293   2.48
       108     386.0757     57.69516  21.5881   0.1623  6.76    125.8206    382.1244     0.976     0.759 -25.56
       109     1598.557     62.19747  20.0455   0.0423  4.03   1088.6277    395.3357     1.645     1.542  16.80
       110     21582.24     74.28255  17.2195   0.0037  3.50    837.3096    417.0440     2.185     2.170  10.22
       111     738.2087     86.58604  20.8843   0.1274  7.52    626.6414    397.2802     1.368     1.024 -84.28
       112     106.8601     26.26285  22.9827   0.2669  5.78   1196.0000    390.9907     0.849     0.289  90.00
       113     1096.827     76.66655  20.4544   0.0759  6.11      1.9529    413.6238     2.734     0.909  88.05
       114     252.7413     45.48858  22.0481   0.1955  4.90    977.6585    397.7170     1.233     0.712 -45.77
       115     594.9984     81.95998  21.1185   0.1496  7.33    526.4940    405.2974     1.299     1.026  83.57
       116     140815.2     85.89056  15.1832   0.0007  3.50    807.5491    462.6601     2.554     2.475 -14.20
       117      3657.54     60.98018  19.1468   0.0181  3.50    926.3489    425.5665     1.842     1.791  46.72
       118     15991.42     74.08041  17.5451   0.0050  3.50    252.0300    439.4121     2.198     2.152   6.63
       119     324.4181     58.98029  21.7770   0.1974  6.39    281.9646    408.1781     1.164     0.805  29.19
       120     122.4888     31.93135  22.8345   0.2831  5.62    943.7681    403.4152     0.745     0.452 -19.28
       121     986.0686     88.97742  20.5700   0.0980  5.73    159.3221    422.2335     1.823     1.388  51.63
       122     300.9084     62.67777  21.8587   0.2262  7.68    299.5127    426.9838     1.409     0.499  88.57
       123     278.5599      50.4879  21.9425   0.1968  7.33   1204.3013    419.4578     1.015     0.481  -8.30
       124      579.218     80.29659  21.1477   0.1506  7.02   1179.8237    428.1476     1.268     1.091  43.93
       125     1331.782      72.2358  20.2437   0.0589  5.03   1421.9890    434.3694     1.563     1.401 -10.91
       126     343.5237     47.74025  21.7149   0.1509  8.46    133.4180    424.2213     0.751     0.455  71.45
       127     157.1055     36.32488  22.5643   0.2511  5.94   1580.9537    421.4902     0.778     0.499   2.69
       128     224.1688     35.48972  22.1783   0.1719  8.25    136.3273    421.6680     0.574     0.335  45.21
       129     145.8846     36.32488  22.6448   0.2704  7.28   1063.4724    425.5192     0.503     0.496  46.62
       130     465.1128       60.238  21.3859   0.1407  8.39    718.8471    431.2661     1.078     0.508  67.24
       131      8169.15     195.2318  18.2743   0.0260  4.91    850.2258    469.1449     7.532     2.223  21.77
       132     5443.372       78.407  18.7151   0.0156  4.03     21.3153    451.8586     2.088     1.943  -0.20
       133     665.4058     69.05202  20.9971   0.1127  5.98    151.0912    435.1284     1.240     1.134  52.00
       134     624.3286     66.62063  21.0662   0.1159  5.34    305.5745    441.5390     1.441     1.138 -51.09
       135     959.5898     75.08562  20.5996   0.0850  5.43    122.1028    446.8850     1.505     1.355  85.16
       136     80.51379     27.38091  23.2901   0.3693  6.19    353.6779    435.6658     0.573     0.336 -45.55
       137     5676.193     73.47069  18.6696   0.0141  3.93     34.4913    459.3049     1.983     1.870 -43.25
       138      836.313     85.01321  20.7489   0.1104  5.27    883.4819    448.5699     2.147     1.280   7.79
       139     285.4187     55.84632  21.9161   0.2125  8.31    654.3727    445.0175     1.075     0.452 -25.27
       140      1738.22     58.98029  19.9545   0.0368  3.72    468.4330    465.1295     1.736     1.538  46.31
       141     306.4323     45.15775  21.8389   0.1600  5.43   1533.5862    454.5111     0.992     0.775   2.58
       142     590.0736     45.15775  21.1275   0.0831  3.81   1096.4277    462.4622     1.423     1.022  13.23
       143     87.64478     27.92316  23.1980   0.3460  6.24   1224.3202    454.6659     0.572     0.336  45.64
       144     2202.629     68.39749  19.6974   0.0337  4.18    734.7418    473.5637     1.675     1.672 -32.10
       145     347.7919     60.48641  21.7015   0.1889  7.76    723.9955    463.4885     1.225     0.497 -62.96
       146     1512.896     63.62748  20.1053   0.0457  4.23    254.3179    473.0175     1.614     1.461   2.68
       147      2788.92     57.95446  19.4412   0.0226  3.50    922.8689    479.3951     1.738     1.689  50.12
       148     1169.572     64.79506  20.3847   0.0602  4.25   1276.8654    479.2148     1.668     1.470  88.29
       149     164.7476     41.70536  22.5127   0.2749  6.15   1198.3262    468.1648     0.748     0.647 -25.50
       150     106.7286     35.48972  22.9841   0.3611  8.21    561.6643    466.6413     0.589     0.326 -45.84
       151      21464.1     177.0256  17.2255   0.0090  4.30    518.4934    534.3708     4.541     3.949  33.99
       152     760.6414       86.239  20.8518   0.1231  5.41    839.4063    489.4281     2.624     1.021 -82.78
       153     2581.284     122.0832  19.5252   0.0514  5.00     82.7204    497.6219     2.586     2.443 -14.39
       154     2282.215     109.9336  19.6589   0.0523  4.50   1186.5588    497.1445     2.872     2.197 -19.25
       155     254.2489     45.15775  22.0416   0.1929  5.27   1167.6362    477.6234     1.409     0.553 -32.52
       156      1189.07     49.58894  20.3668   0.0453  3.50   1070.7618    485.5692     1.528     1.376 -13.26
       157      161.072     23.87012  22.5372   0.1609  3.50    682.8082    480.6513     0.846     0.613 -28.81
       158     139.0078     30.49009  22.6972   0.2382  5.97   1309.2524    483.2269     0.842     0.349  17.63
       159     11765.21      72.2358  17.8783   0.0067  3.50   1302.1998    513.8845     2.242     2.029 -12.26
       160      139.139     33.75745  22.6962   0.2635  7.02    424.4973    490.9982     0.783     0.319  57.39
       161     1204.784     84.83665  20.3525   0.0765  4.94    762.6536    505.6879     1.866     1.696  29.68
       162     341.2747     59.23397  21.7220   0.1885  6.04    366.5008    499.2488     1.260     0.822  48.61
       163      621.335     45.81702  21.0715   0.0801  3.64    863.6854    503.5775     1.342     1.232  22.73
       164       3239.7     104.3353  19.2785   0.0350  4.16   1461.1040    516.8404     3.621     1.835  25.63
       165     355.3739     57.17302  21.6781   0.1747  6.26   1310.3589    502.6222     1.014     0.855 -36.68
       166     1110.457     44.10003  20.4410   0.0431  4.41   1309.9906    514.6971     1.613     1.381 -41.48
       167     1059.184     104.7655  20.4924   0.1074  6.42    164.7969    511.4173     2.143     1.304  15.76
       168     127.5178     23.87012  22.7909   0.2033  3.50    442.7247    504.0079     0.742     0.697 -86.64
       169     714.0349     49.89039  20.9205   0.0759  3.90   1179.1432    515.1553     1.351     1.290 -11.56
       170     498.2063     46.14313  21.3113   0.1006  3.71    642.2778    520.8369     1.390     1.164   1.63
       171     322831.6     89.64896  14.2823   0.0003  3.50   1315.8739    589.2560     2.686     2.599 -42.29
       172      278.843     61.22557  21.9414   0.2385  7.82    854.1041    522.2987     0.956     0.691 -68.90
       173     249.4711     47.42513  22.0622   0.2065  6.17   1519.3197    519.8758     0.920     0.674  20.54
       174     1546.519     51.95163  20.0814   0.0365  3.50    999.6561    541.7063     1.600     1.510 -28.15
       175     578978.6     95.95046  13.6481   0.0002  3.50    483.1350    632.6228     2.864     2.775 -18.25
       176     411.1909     65.94196  21.5197   0.1742  5.93    404.2007    537.3940     1.629     0.795  25.92
       177     2269.088     59.23397  19.6652   0.0283  3.50   1041.6516    560.4192     1.867     1.613  18.47
       178     6958.343     65.71419  18.4485   0.0103  3.50   1242.7412    574.0022     1.968     1.904  14.96
       179     1599.134     95.79406  20.0451   0.0651  6.18   1336.7483    576.2877     1.689     1.511  46.16
       180     1728.082     93.41666  19.9609   0.0587  4.94     45.8521    572.7739     2.131     1.762  54.85
       181     1568.605     71.81945  20.0660   0.0497  3.50   1448.4083    573.2253     2.428     1.835  31.01
       182      9515.69     70.76787  18.1087   0.0081  3.56    319.1037    583.7048     2.099     2.037  10.35
       183     9466.977     68.83454  18.1143   0.0079  3.50    144.8951    582.1736     2.082     1.967  -0.68
       184     159.3483     35.90973  22.5489   0.2447  6.40    778.6027    557.7811     0.764     0.454  72.66
       185     6217.524     133.4661  18.5707   0.0233  4.05    782.6208    598.1442     3.563     3.261 -52.42
       186     473.4249     64.09707  21.3667   0.1470  5.76    139.6721    566.2109     1.261     1.043 -56.27
       187     137.9365     38.33327  22.7056   0.3018  6.84    633.2249    568.5835     0.738     0.455 -19.07
       188     444.7493     70.76787  21.4345   0.1728  6.26   1001.7804    578.0511     1.682     0.817 -28.13
       189     728.5261     65.71419  20.8987   0.0980  5.30     75.9674    586.1544     1.328     1.229  -8.76
       190     1099.525     54.48732  20.4518   0.0538  3.64   1555.2332   1002.5687     1.624     1.448  79.83
       191     759.5734     56.91015  20.8534   0.0814  4.41    654.3972   1598.1855     1.887     1.210  -0.88
       192     409.5382     45.15775  21.5240   0.1197  3.70    373.5580   1595.8204     1.480     1.018  36.47
       193     487.0419     69.91521  21.3359   0.1559  6.34   1384.2332   1594.4935     1.436     0.913 -29.70
       194     1206.267     73.26632  20.3512   0.0660  4.85   1108.5289   1586.2167     1.711     1.419  10.82
       195     2291.167     78.21552  19.6546   0.0371  4.54     21.5654   1567.9301     1.823     1.751   3.80
       196     1663.702     95.16589  20.0021   0.0621  5.33    784.3434   1567.0110     2.030     1.671 -85.86
       197     194.0388     37.14127  22.3351   0.2079  6.81    670.7685    880.5679     0.733     0.453  20.32
       198     246.7156     50.78402  22.0743   0.2235  8.16    542.0080    878.4954     0.795     0.500   1.12
       199     2458.094     70.76787  19.5783   0.0313  3.65   1103.3278    870.8375     2.023     1.970 -75.84
       200     301597.8     93.09509  14.3562   0.0003  3.50   1224.3727    860.6606     2.793     2.688 -17.04
       201     941.2758     66.62063  20.6205   0.0769  4.19    939.8438    868.9675     1.862     1.435  48.58
       202     168.2544      37.9401  22.4899   0.2449  6.08    643.2283    870.7625     0.935     0.438 -45.21
       203     135.1947     34.19875  22.7274   0.2747  7.88    454.3017    868.9412     0.908     0.211  62.52
       204     696.7664     46.46695  20.9471   0.0724  3.50   1157.1390    861.1002     1.498     1.226  18.12
       205     124.1997     23.23347  22.8195   0.2032  3.50   1554.1732    861.9904     0.917     0.472 -54.13
       206     462.9568     48.36433  21.3909   0.1135  4.21   1339.3500    859.9587     1.495     0.944 -33.28
       207     151.8159     39.48931  22.6015   0.2825  8.51    545.0228    857.5150     0.802     0.312  31.94
       208     185.6426     35.48972  22.3831   0.2076  8.32    363.3300    850.6461     0.585     0.329  45.93
       209     1031.825     54.48732  20.5208   0.0573  3.50   1106.0951    844.6611     1.754     1.489  26.38
       210     503.2131     42.41832  21.3004   0.0915  3.50   1063.7417    845.9619     1.310     1.128 -67.33
       211     826.2869     83.05042  20.7620   0.1092  6.17   1206.1925    845.9415     1.560     1.216 -72.76
       212     2221.787     107.8683  19.6880   0.0527  5.60   1247.2026    839.2313     2.111     1.866 -63.16
       213     1411.141     67.95763  20.1809   0.0523  4.46    298.8445    837.9797     1.631     1.534  12.84
       214     218.7405      47.1079  22.2050   0.2339  6.13   1520.5084    838.5260     1.021     0.596  45.37
       215     277.7821     44.82448  21.9455   0.1752  5.37    818.9592    836.8230     0.944     0.770  62.38
       216     6419.298     71.81945  18.5361   0.0122  3.62    654.3231    824.2859     2.096     1.990  45.13
       217     94.81213     28.97723  23.1126   0.3319  6.99    779.6790    820.6904     0.561     0.341 -44.39
       218     291.5768     53.93414  21.8929   0.2009  7.22    878.2869    817.8287     1.042     0.570 -18.00
       219     5601.639     65.94196  18.6840   0.0128  3.50   1378.5775    804.4241     1.936     1.899  24.13
       220     83.66846     18.97005  23.2484   0.2462  4.95    127.3259    809.3414     0.578     0.333 -45.66
       221      17144.1     83.05042  17.4695   0.0053  3.50    695.5576    799.8766     2.757     2.170  85.99
       222     2731.998     63.86271  19.4636   0.0254  3.60     41.0133    802.0168     1.832     1.772  17.44
       223     286.5681     45.81702  21.9117   0.1736  7.46    295.4833    796.0336     0.794     0.500 -88.72
       224     2587.901     89.31383  19.5224   0.0375  3.80   1427.3660    775.2002     2.890     2.022 -86.99
       225      1469.95     65.48561  20.1365   0.0484  4.00    391.5318    768.1792     1.844     1.529 -34.33
       226     418.1025     66.84532  21.5016   0.1736  6.30    140.4928    768.8489     1.337     0.879 -79.70
       227     417.1259     79.54613  21.5041   0.2071  7.78    193.6100    755.8051     1.706     0.651  86.14
       228     179.3276     39.10776  22.4207   0.2368  7.70   1342.5267    756.4966     0.504     0.495  47.35
       229     1426.334     61.22557  20.1692   0.0466  3.99    556.2839    744.2444     1.633     1.515 -43.37
       230     397400.2      96.2625  14.0567   0.0003  3.50    404.7108    725.5315     2.928     2.738 -22.93
       231       612.42     68.17792  21.0872   0.1209  5.16    649.6646    737.5416     1.432     1.311  80.81
       232     67034.79       82.507  15.9890   0.0013  3.50    848.3533    727.9818     2.439     2.389  27.94
       233     955.6558      50.4879  20.6040   0.0574  3.65   1178.1921    728.8093     1.450     1.412  49.56
       234     409.1117     54.48732  21.5252   0.1446  5.35   1394.9901    722.8375     1.262     0.880  -0.28
       235     525.2012     45.15775  21.2540   0.0934  3.83   1157.9702    739.4140     1.298     1.182  25.31
       236     1408.787     64.33057  20.1827   0.0496  4.09    808.4064    717.2899     1.690     1.558  57.08
       237     1179.048     54.21144  20.3760   0.0499  3.80   1163.6552    710.4381     1.559     1.418  10.15
       238     1524.028     71.61037  20.0973   0.0510  3.97   1339.0944    705.6192     1.922     1.778 -43.80
       239     234.7003     42.41832  22.1285   0.1963  8.85    538.5060    708.5008     0.503     0.497 -45.17
       240     2327.619     58.21261  19.6375   0.0272  3.50    952.3771    704.2918     1.750     1.664  34.75
       241     619.0907     74.88567  21.0754   0.1314  5.60    582.5702    700.6096     1.760     1.081  -7.99
       242     657.4789     54.79951  21.0101   0.0905  4.76   1213.7378    692.9648     1.653     1.310  49.08
       243     389.1022     41.06075  21.5796   0.1146  6.03   1213.9957    688.5043     1.280     0.955  32.90
       244     309.4396     55.03495  21.8283   0.1931  6.69    316.1916    693.2252     1.068     0.678  16.66
       245     2789.073     149.4707  19.4411   0.0582  5.31    472.2632    684.2127     3.176     2.643  80.65
       246     1924.902     62.19747  19.8438   0.0351  3.75    644.1543    686.8886     1.784     1.627  11.80
       247     216.5951      37.9401  22.2157   0.1902  4.71    130.9188    688.8412     0.907     0.746  89.98
       248      2510.97       122.94  19.5552   0.0532  5.91    543.5035    682.6291     2.379     1.928 -61.11
       249     219.5502     43.46585  22.2009   0.2150  8.25    401.0182    686.7358     0.683     0.441   1.01
       250     161.2816     35.48972  22.5358   0.2390  7.16    230.4650    674.4924     0.501     0.498 -55.30
       251     560.0256     52.52569  21.1843   0.1019  4.38    870.9708    656.2733     1.445     1.068 -80.68
       252      66193.5     79.54613  16.0027   0.0013  3.50   1464.2933    649.7220     2.368     2.331   7.81
       253     322.9546     62.67777  21.7819   0.2108  7.04    414.5703   1534.2606     1.290     0.650  -1.92
       254     10198.33     70.34283  18.0335   0.0075  3.50    536.7910    641.2206     2.093     2.008  32.48
       255     651.0768     65.94196  21.0207   0.1100  4.86    806.0596    631.8602     1.448     1.352  -7.26
       256     935.3182     59.48656  20.6274   0.0691  4.44   1581.7684    624.8701     1.486     1.293  -0.44
       257     292.7446     59.73809  21.8886   0.2216  7.60   1151.4739    619.8640     1.117     0.574  26.32
       258     333.6268     59.98857  21.7466   0.1953  7.73    653.2193    647.1571     0.953     0.671 -18.86
       259      87.9635     42.77035  23.1940   0.5280  7.52    946.1575    610.6086     0.761     0.445 -18.98
       260     1095.266     55.57718  20.4560   0.0551  3.92    586.3604    606.9233     1.600     1.321  31.61
       261     406.1151     40.61245  21.5332   0.1086  3.57    960.9187    878.8604     1.204     1.126 -38.72
       262     312.2701     56.91015  21.8185   0.1979  6.26   1100.3423   1521.1362     1.360     0.634 -33.34
       263     109.6508     33.75745  22.9548   0.3343  5.28    882.5083    593.5085     0.982     0.405  70.91
       264     1042.336     71.40068  20.5098   0.0744  5.07    861.0878   1562.5160     1.564     1.347 -75.69
       265     58251.29     83.05042  16.1415   0.0015  3.50    303.8436   1564.8943     2.493     2.394  -8.00
       266     24466.93     159.7507  17.0833   0.0071  3.74    681.9242   1553.8458     4.766     4.085 -32.53
       267     2447.047     75.08562  19.5832   0.0333  4.39    654.2137   1543.8602     1.806     1.722  83.24
       268     1725.205     70.34283  19.9627   0.0443  4.26     92.3905   1571.7207     1.728     1.660  85.35
       269     129.6941     29.49014  22.7725   0.2469  7.15   1565.6927   1564.3650     0.579     0.331  47.41
       270     3221.113     65.71419  19.2848   0.0222  3.70    134.8626   1543.1177     1.861     1.807  13.62
       271     1001.081      72.2358  20.5536   0.0784  4.36    863.0593   1546.9213     2.299     1.275  41.04
       272     353.5377     55.84632  21.6837   0.1715  7.63   1491.3174   1576.4641     1.251     0.465  89.38
       273     58023.87     85.01321  16.1458   0.0016  3.50    487.3318   1559.3071     2.552     2.462  -7.88
       274     558.6122     73.87773  21.1870   0.1436  6.13   1221.4904   1552.6815     1.347     1.128 -81.14
       275     31257.42     81.95998  16.8174   0.0028  3.50    269.0288   1508.4398     2.425     2.347   0.55
       276     841795.8     111.8268  13.2418   0.0001  3.50    183.6469    883.3881     3.359     3.240 -25.60
       277     363.2157     64.33057  21.6544   0.1923  7.54   1429.6595   1536.9376     1.278     0.620 -25.77
       278     146.1189     31.45827  22.6430   0.2338  5.50    733.4183   1529.7546     0.745     0.453 -70.72
       279     7577.052     69.05202  18.3560   0.0099  3.50    392.2966   1516.1572     2.134     1.955   2.53
       280     176.0615     36.32488  22.4406   0.2241  7.47     12.4902   1524.0001     0.803     0.311 -58.10
       281     235.6794     45.48858  22.1240   0.2096  7.85   1096.0143   1505.0273     0.627     0.612 -88.73
       282     633.1705     76.47072  21.0510   0.1312  6.76   1546.2744   1516.7573     1.269     1.081 -58.46
       283     268.1178     55.30673  21.9840   0.2240  5.89     77.9050   1489.2261     1.275     0.721 -85.23
       284     547.3777     45.15775  21.2091   0.0896  3.50   1304.3940    887.0648     1.546     1.153  70.40
       285     330.9041     45.81702  21.7555   0.1504  4.57    483.5974   1515.6066     1.128     0.919 -43.91
       286     495.2471     73.06138  21.3177   0.1602  7.17    339.9195    886.6301     1.415     0.775   1.88
       287      209.033      37.9401  22.2542   0.1971  5.59    844.0128   1499.6895     0.731     0.666   4.94
       288     753.7596     46.78852  20.8617   0.0674  3.71   1499.8872    887.1884     1.355     1.271 -10.50
       289     1154.567     86.93169  20.3987   0.0818  4.79   1177.0895    879.9671     1.925     1.781   1.79
       290     790.6703     55.03495  20.8098   0.0756  4.04    723.2294   1505.4595     1.566     1.307 -27.09
       291     7608.266     182.1191  18.3516   0.0260  4.75    224.2591    880.3963     7.221     2.163  87.86
       292      113.288     26.26285  22.9193   0.2518  5.63    987.0000    898.9808     0.857     0.289  90.00
       293     162.7815     34.63441  22.5258   0.2311  7.90    680.6741    890.3393     0.577     0.334  45.58
       294     1534.056     93.25602  20.0902   0.0660  5.28    538.4159    897.4249     1.894     1.749  29.97
       295     1148.426     106.6099  20.4045   0.1008  6.65    326.2474    890.1077     2.090     1.302  22.80
       296     479.7758     86.06496  21.3522   0.1948  8.32    575.0490   1482.7103     1.286     0.867 -58.96
       297     88.12183      26.8277  23.1921   0.3306  5.26   1494.5192   1491.4724     0.508     0.491 -44.31
       298     465.8293     59.23397  21.3842   0.1381  5.33   1001.2723    913.9099     1.204     1.096 -17.81
       299     430.4769     67.95763  21.4699   0.1714  6.46   1315.1787    905.8102     1.273     0.918 -73.04
       300     113229.9     84.83665  15.4199   0.0008  3.50   1592.4185    881.6274     2.524     2.456  78.51
       301     404.5316     56.91015  21.5374   0.1528  5.33   1425.6116    895.1293     1.332     0.901  22.24
       302     135.7279     42.77035  22.7231   0.3422  7.51   1495.2007   1438.3938     0.765     0.441  19.65
       303     1339.344     56.11417  20.2376   0.0455  3.50    806.9644    923.3138     1.705     1.570  65.58
       304     819.2102     63.39139  20.7713   0.0840  4.61    838.4760    913.9817     1.454     1.365  19.87
       305     2351.558     59.73809  19.6264   0.0276  3.50    308.0300   1409.5125     1.859     1.658  26.47
       306     369.5161     53.65541  21.6357   0.1577  7.47    999.4857   1476.4878     1.041     0.500   0.19
       307     1636.823     65.48561  20.0198   0.0434  4.14   1067.0037    940.5593     1.745     1.480  57.79
       308     6180.388     70.76787  18.5772   0.0124  3.59    302.5987    901.8616     2.056     1.988 -34.10
       309     311.1503     52.23945  21.8224   0.1823  7.53    253.0119    917.6951     0.750     0.681  -8.38
       310     14738.34     73.26632  17.6337   0.0054  3.50   1178.3051    931.0344     2.201     2.101  38.39
       311     99.72363     28.45508  23.0578   0.3099  6.94    647.3334   1439.7006     0.562     0.341  43.21
       312     101.6326     23.23347  23.0372   0.2483  5.30   1346.6786   1438.3149     0.564     0.340  44.67
       313     658.5822     86.93169  21.0083   0.1434  6.70    516.0169    940.1115     1.572     1.142  52.85
       314     985.3142     53.93414  20.5708   0.0594  3.80   1322.3403    929.8040     1.572     1.385  46.83
       315     142189.9     88.97742  15.1726   0.0007  3.50   1090.3253   1435.6713     2.677     2.602 -24.44
       316     2510.631     69.70042  19.5553   0.0301  4.09    618.8486   1441.0920     1.823     1.680 -20.90
       317     203.0327     47.74025  22.2859   0.2554  7.87    266.9670    950.5084     0.797     0.500   0.46
       318     584.1449     51.07843  21.1385   0.0950  3.50    349.3116   1411.7726     1.880     1.195  62.13
       319     442.5435     64.33057  21.4399   0.1579  5.90   1270.9764   1439.8511     1.330     0.943 -20.06
       320     934.8666     68.61636  20.6279   0.0797  4.59    798.0069    982.2236     1.607     1.483   3.67
       321     631.7919     82.68854  21.0533   0.1421  7.31    444.5894    948.8851     1.335     1.036  49.04
       322     3256.432     65.48561  19.2729   0.0218  3.73    224.4045   1436.6449     1.856     1.774  25.06
       323     110.5939     29.99428  22.9455   0.2945  7.35     60.3068    952.6716     0.563     0.340  46.12
       324     966.5122       78.407  20.5918   0.0881  5.01    726.7319   1061.0553     1.869     1.399  -5.53
       325     408.8137     55.57718  21.5260   0.1476  5.60    329.5723   1407.5088     1.107     0.930  42.39
       326     261.7931     49.58894  22.0099   0.2057  7.67    569.1638   1067.8495     0.772     0.568 -43.07
       327     17740.99     78.02358  17.4323   0.0048  3.50   1126.1257   1420.6368     2.318     2.281 -34.36
       328     263.4307     45.81702  22.0031   0.1889  7.31    340.5226   1434.0306     0.823     0.499  88.05
       329     347.4172     48.36433  21.7027   0.1512  6.26      1.4686   1413.4269     1.831     0.497  88.51
       330     335.3708     42.80481  21.7410   0.1386  6.16    452.2737    979.4700     1.245     0.901  72.96
       331     448.2505     69.26883  21.4260   0.1678  6.08    806.3391   1390.4139     1.517     0.893  14.97
       332     363.1195     52.23945  21.6547   0.1562  5.00    416.5706    966.7556     1.190     0.957 -75.97
       333     764.7084     76.27439  20.8460   0.1083  6.89    654.4576    951.8934     1.280     1.030 -83.76
       334     1674.063     74.48413  19.9954   0.0483  4.66   1386.4370   1416.6246     1.742     1.548 -19.31
       335     2512.009     68.61636  19.5547   0.0297  3.94    713.0142   1391.7336     1.876     1.718 -18.73
       336     141.6827     42.77035  22.6765   0.3278  6.43   1362.1821   1404.9912     0.940     0.467 -52.53
       337     79254.66     86.58604  15.8072   0.0012  3.50    114.2351   1394.7192     2.610     2.492  -2.33
       338      542.967     83.05042  21.2178   0.1661  6.60    152.1203   1353.0374     1.536     1.084 -59.00
       339     9074.854     68.39749  18.1602   0.0082  3.50   1148.0122   1083.0811     2.076     1.992   4.60
       340     1750.476     87.96051  19.9469   0.0546  4.51   1218.8108   1073.2249     2.075     1.941 -45.91
       341     322.7958     35.06467  21.7825   0.1180  3.50      6.7693   1064.1989     1.065     0.952  17.79
       342     1360.893     61.22557  20.2202   0.0489  3.90   1038.5681   1393.6564     1.736     1.508  30.23
       343     801290.2     122.4511  13.2953   0.0002  3.50   1159.4253   1367.8368     4.243     3.060  14.94
       344     829.4344     78.97862  20.7578   0.1034  5.47   1031.5410   1401.7460     1.633     1.347 -12.84
       345      7152.16     68.17792  18.4187   0.0104  3.50   1428.3429   1390.1338     2.015     1.981  24.43
       346     518.9877     55.57718  21.2669   0.1163  4.62      6.8716   1074.2052     1.362     1.112 -18.31
       347      289.163     52.23945  21.9019   0.1962  7.54    396.6888   1089.9775     0.741     0.678  78.15
       348     232.8752     37.54281  22.1370   0.1751  5.07   1596.9507   1067.0283     0.796     0.782 -16.17
       349     850.1108     93.73714  20.7311   0.1197  5.70    468.3736   1091.7946     2.025     1.407 -46.23
       350     277.4525     37.54281  21.9468   0.1469  4.11    386.3806   1331.4196     1.014     0.857  44.83
       351     216.6182     35.48972  22.2155   0.1779  8.30    429.3361   1094.3149     0.570     0.337 -44.00
       352     329.8597     58.72551  21.7590   0.1933  7.47   1273.8695   1386.6847     0.947     0.678 -70.91
       353     32552.47     81.77683  16.7733   0.0027  3.50    512.0276   1081.2974     2.425     2.366   3.34
       354     2160.356     137.4511  19.7185   0.0691  6.88    478.9657   1112.3186     2.244     1.894  26.14
       355      8470.39     73.06138  18.2350   0.0094  3.55   1018.7087   1373.8938     2.214     2.032  -5.56
       356     342.1992     57.69516  21.7191   0.1831  6.20   1452.9968   1087.1072     1.198     0.771 -58.43
       357     13551.63     125.8331  17.7248   0.0101  3.64    609.6885   1274.1567     4.494     2.827 -59.67
       358     782.6826     57.69516  20.8208   0.0801  4.53    892.7053   1306.1177     1.545     1.114  10.67
       359     728.8007     84.48242  20.8983   0.1259  6.51    674.4939   1115.3567     1.509     1.177  11.95
       360      907.136     90.31551  20.6606   0.1081  6.19    678.2977   1106.8710     1.730     1.319 -51.68
       361     6723.064     71.81945  18.4859   0.0116  3.61    427.8470   1108.7615     2.142     1.984 -15.39
       362     754.7522     49.89039  20.8603   0.0718  3.50    107.1236   1333.7377     1.515     1.391 -13.21
       363      10374.2     73.26632  18.0149   0.0077  3.50    751.7592   1105.7592     2.197     2.087  12.39
       364      4030.73     66.16896  19.0413   0.0178  3.56   1331.1583   1279.3622     1.973     1.870  75.39
       365     279.0087     56.11417  21.9407   0.2184  5.99    604.6953   1347.4882     1.121     0.830 -37.75
       366     30279.56      91.9502  16.8519   0.0033  3.50    659.7673   1321.3125     2.415     2.358  26.44
       367     3334.161     61.59643  19.2473   0.0201  3.78    655.5963   1331.2336     2.026     1.840  21.58
       368     1319.245     103.9033  20.2540   0.0855  6.80   1139.4945   1332.0455     1.839     1.328 -84.41
       369     478.3755     42.06335  21.3554   0.0955  3.50    263.9218   1320.5798     1.356     1.157  87.87
       370     257.1555     47.42513  22.0293   0.2003  8.41     53.7503   1300.4139     0.759     0.449 -19.42
       371     400.4801     58.21261  21.5483   0.1579  7.46    607.3632   1134.8855     0.926     0.679  18.15
       372     2863.839     64.55465  19.4124   0.0245  4.31    669.5031   1308.7135     2.212     1.704 -40.71
       373     425.1663     56.11417  21.4834   0.1433  6.42     47.7611   1239.1719     0.957     0.857 -21.29
       374     2525.897     84.48242  19.5487   0.0363  4.01   1035.8164   1308.8643     2.483     1.886 -37.66
       375      9305.72     73.67449  18.1329   0.0086  3.50   1194.6746   1220.2122     2.221     2.136  79.30
       376     187732.9     95.63741  14.8709   0.0006  3.50    724.7348   1299.5779     3.006     2.626 -13.72
       377     6735.518     76.47072  18.4839   0.0123  3.55    762.0449   1292.6382     2.462     2.015 -19.58
       378     820.2604     57.95446  20.7699   0.0767  4.29    412.4755   1293.8401     1.530     1.267  -9.04
       379     762.5054     72.64977  20.8492   0.1035  5.70    547.3597   1130.1278     1.403     1.218 -12.51
       380     470.4983     69.05202  21.3734   0.1594  7.10    855.2509   1263.6656     1.106     0.924  59.97
       381     176.5496     39.48931  22.4376   0.2429  7.20    545.4184   1292.7781     0.753     0.449 -70.33
       382     274.1952     53.37522  21.9596   0.2114  7.25    357.5125   1132.3717     1.445     0.399 -36.20
       383     1214.178     71.81945  20.3441   0.0642  4.07    432.3235   1260.6809     2.006     1.652  39.19
       384     3211.483     68.17792  19.2880   0.0231  3.81    807.7172   1266.6024     1.921     1.787  21.31
       385      403.837       60.238  21.5393   0.1620  5.84   1153.2823   1229.8680     1.141     0.989  39.15
       386      1215508     186.9136  12.8429   0.0002  3.50    994.9560   1222.6515     5.721     5.297 -18.85
       387      257.564     52.81039  22.0276   0.2227  7.16    697.8719   1275.1455     0.820     0.682  44.55
       388     129.7639     35.48972  22.7719   0.2970  6.30    857.8015   1239.4313     0.723     0.459 -19.51
       389     770.0258     48.98046  20.8385   0.0691  3.68    672.2609   1243.6359     1.512     1.251  45.24
       390     214.4017     39.48931  22.2267   0.2000  8.04    216.5174   1262.5000     0.507     0.493  45.65
       391     30730.51     80.48311  16.8359   0.0028  3.50    147.8721   1139.7532     2.420     2.293   8.49
       392     1651.521     93.09509  20.0101   0.0612  4.85    124.0824   1196.0813     2.138     1.819 -57.97
       393       2617.9     66.39518  19.5099   0.0275  3.92    304.5524   1235.6237     1.862     1.665  17.18
       394     1598.675     68.17792  20.0454   0.0463  4.41   1553.3666   1238.3259     1.624     1.543 -27.74
       395     889.2198     87.78988  20.6823   0.1072  6.26    599.4329   1231.2922     1.531     1.376   2.44
       396     1036.697      81.4093  20.5157   0.0853  4.85   1441.9395   1201.8480     1.812     1.625  52.88
       397     1637.089     111.9608  20.0196   0.0743  5.50   1429.0648   1213.8219     2.314     1.913  62.25
       398     196.8823     39.86721  22.3193   0.2199  7.87    914.0066   1229.0000     0.858     0.289   0.00
       399     14212.12     73.87773  17.6731   0.0056  3.50    512.8164   1215.8934     2.202     2.129  15.78
       400     727494.2     101.1242  13.4002   0.0002  3.50    693.7171   1152.9501     3.016     2.910 -19.54
       401     7299.127       127.96  18.3966   0.0190  3.63    757.7162   1174.0677     3.644     3.620 -45.34
       402     1411.314     61.71344  20.1807   0.0475  3.50   1075.6238   1204.6260     1.933     1.730  31.30
       403     16188.64     75.48396  17.5318   0.0051  3.50    813.5752   1011.1388     2.236     2.154  15.29
       404     126.9358     30.97796  22.7958   0.2650  6.73   1216.5016   1205.4939     0.501     0.499 -44.35
       405        538.9      51.6622  21.2260   0.1041  4.29    549.4454   1182.1754     1.339     1.138  52.54
       406     389.6145     69.26883  21.5782   0.1931  6.34   1053.3743   1197.8005     1.564     0.815  43.07
       407      181.972     42.06335  22.4048   0.2510  5.56    176.4455   1183.4515     1.019     0.596  43.21
       408     14600.42     155.6623  17.6439   0.0116  3.50   1278.7762   1211.9427     5.910     3.549  81.36
       409     1719.667     71.19037  19.9662   0.0450  4.66    838.6198   1209.0648     1.629     1.531 -85.48
       410      265.355      50.4879  21.9952   0.2066  6.98    673.8151   1184.0507     0.843     0.646  49.31
       411     255.7736     51.95163  22.0351   0.2206  7.66    769.3144   1146.9288     0.740     0.661 -78.58
       412     148.7113     30.97796  22.6239   0.2262  7.59   1599.5153   1168.4935     0.514     0.486  45.20
       413      16159.1     76.86188  17.5337   0.0052  3.50    183.3221   1131.2684     2.263     2.227 -33.12
       414     49539.02     81.95998  16.3174   0.0018  3.50   1299.5200   1166.4520     2.443     2.420 -18.22
       415     110.8656     30.97796  22.9428   0.3034  6.11     18.4826   1177.4873     0.507     0.492 -45.27
       416     1527.404      75.8802  20.0949   0.0540  4.60     99.1998   1152.6638     1.736     1.672   1.48
       417     417.2638     60.98018  21.5038   0.1587  5.70    887.9297   1162.4755     1.214     0.999  -3.09
       418     577.3931     66.39518  21.1511   0.1249  5.47    219.2832   1131.3656     1.407     1.133   5.72
       419     5516.793     70.34283  18.7006   0.0138  3.66    236.1456   1159.0969     2.114     1.861  28.13
       420      1403.72     53.65541  20.1866   0.0415  3.50    338.7113   1203.1788     1.595     1.555 -30.19
       421     197.4061     46.46695  22.3164   0.2556  7.47    566.4995   1159.0020     0.808     0.499 -87.40
       422     867.4067     72.85587  20.7092   0.0912  4.83   1352.9104   1154.7657     1.614     1.496 -16.12
       423     83.17358     18.97005  23.2548   0.2477  4.86    921.3041   1080.3595     0.575     0.333 -47.44
       424     676.3783     82.32507  20.9793   0.1322  7.50    662.0576   1142.4078     1.224     1.053  77.12
       425     2520.534     104.0475  19.5511   0.0448  4.51    329.5204   1121.3683     2.915     1.938  59.09
       426     835.3528     64.56323  20.7501   0.0839  4.88   1526.4592   1096.9320     1.378     1.340  39.67
       427      2986.98     65.25624  19.3667   0.0237  3.72    642.2306   1090.5541     1.830     1.775  36.55
       428     29397.47     78.97862  16.8840   0.0029  3.50    777.9907   1096.1063     2.352     2.299  20.55
       429     326.8036     48.36433  21.7691   0.1607  4.75    329.8643   1080.5232     1.275     0.874 -14.82
       430     210.5013     30.49009  22.2466   0.1573  3.84   1136.1642   1096.0427     0.929     0.750  -2.80
       431     8268.345     72.44308  18.2612   0.0095  3.63    525.2812   1039.9791     2.100     2.006  39.19
       432     411.8148     59.73809  21.5180   0.1575  5.11     42.7669   1084.7773     1.515     0.952  -2.67
       433     1049.579     93.09509  20.5022   0.0963  6.06   1563.1591   1066.8558     1.791     1.399  75.22
       434     186.9443      37.9401  22.3755   0.2204  8.91   1268.9786   1022.3207     0.914     0.210  27.92
       435     200.9967     42.06335  22.2968   0.2273  6.71    452.9904   1015.7997     0.813     0.506 -57.19
       436     42043.43     81.04009  16.4955   0.0021  3.50    632.9153   1041.5137     2.383     2.353  15.00
       437     505.6356     71.40068  21.2952   0.1534  7.54    121.8496   1039.7445     1.327     0.716  -7.06
       438     470772.2     95.32333  13.8728   0.0002  3.50     50.2350   1025.0127     2.858     2.765 -13.87
       439     150.6949     35.06467  22.6095   0.2527  7.17    467.0000   1041.9910     0.854     0.289  90.00
       440     1837.943     96.10661  19.8940   0.0568  4.45    302.4050   1031.5867     2.790     1.770  70.40
       441     18859.12      75.8802  17.3660   0.0044  3.50   1379.8351   1027.0432     2.265     2.218  39.68
       442     2369.167     70.55567  19.6183   0.0323  4.11    344.5635   1012.5897     1.809     1.763  27.07
       443     28971.38       78.598  16.8999   0.0029  3.50    558.3832    986.2089     2.341     2.296  37.48
       444     1775.034     112.3619  19.9318   0.0687  6.13    454.2320    987.8520     1.987     1.789  47.58
       445     110.0336     30.97796  22.9510   0.3057  6.80    266.9891   1011.5045     0.807     0.310 -31.78
       446      2708.26     70.55567  19.4731   0.0283  3.95    542.3765   1002.9374     1.957     1.741  41.74
       447     227.5775     56.91015  22.1620   0.2716  7.06    232.9362    999.1951     1.047     0.668 -30.84
       448     695.2339     52.52569  20.9495   0.0820  4.14   1273.6106   1001.1895     1.429     1.189  -3.59
