#   1 KRON_RADIUS            Kron apertures in units of A or B                         
#   2 MAGERR_APER            RMS error vector for fixed aperture mag.                   [mag]
#   3 Y_IMAGE                Object position along y                                    [pixel]
#   4 X_IMAGE                Object position along x                                    [pixel]
#   5 THETA_IMAGE            Position angle (CCW/x)                                     [deg]
#   6 FLUX_APER              Flux vector within fixed circular aperture(s)              [count]
#   7 A_IMAGE                Profile RMS along major axis                               [pixel]
#   8 B_IMAGE                Profile RMS along minor axis                               [pixel]
#   9 FLUX_RADIUS            Fraction-of-light radii                                    [pixel]
#  10 FLUXERR_APER           RMS error vector for aperture flux(es)                     [count]
#  11 MAG_APER               Fixed aperture magnitude vector                            [mag]
#  12 NUMBER                 Running object number                                     
 4.66   0.0000     53.3701     63.9065   0.33     27963.46     5.346     4.847     13.118  0.006052839  16.9335          1
 4.79   0.0000     16.7161    985.4154 -86.84     4449.546     3.984     2.201      6.830   0.00605695  18.9292          2
 5.07   0.0000     18.1894     91.5415  86.21     4215.995     2.215     2.110      1.142  0.006059005  18.9877          3
 3.50   0.0000     14.9013   1446.0841 -41.38     11056.42     2.448     2.348      1.452  0.006048725  17.9410          4
 3.50   0.0000     60.0040   1078.7539 -68.39     39838.86     2.944     2.936      1.777  0.006059005  16.5492          5
 7.01   0.0000     25.0118    367.4980 -87.68     803.2924     1.484     1.238      1.063  0.006052153  20.7878          6
 3.50   0.0000    182.2392   1107.8169 -37.57     654181.1     4.759     4.425      6.464  0.006057635  13.5108          7
 8.46   0.0000     34.7508   1109.7596  72.02     370.8098     0.859     0.352      3.770   0.00605695  21.6271          8
 3.50   0.0000     80.3017    537.8538 -63.57     35687.66     2.884     2.811      1.758   0.00604941  16.6687          9
 5.64   0.0000     75.2082    128.0785   7.55     1749.631     1.848     1.579      1.187   0.00605695  19.9426         10
 3.50   0.0000    122.0068    789.4358 -48.27     53124.27     3.024     2.920      1.792  0.006056265  16.2368         11
 5.48   0.0000     96.8864     56.4073 -71.89     2567.657     1.997     1.926      1.122  0.006054895  19.5262         12
 7.78   0.0000     90.1377    376.6794 -84.05     667.6392     1.663     0.811      4.390  0.006051468  20.9886         13
 3.50   0.0000    193.6548    318.2545 -64.86     181231.8     3.604     3.206      2.066   0.00605558  14.9044         14
 8.31   0.0000     98.4899    452.9708   1.55     471.3681     0.801     0.500      3.447  0.006053524  21.3666         15
 3.50   0.0000    162.6065   1468.6003 -48.91     32927.45     2.857     2.740      1.802  0.006052839  16.7561         16
 4.30   0.0000    170.5437    877.6212 -24.83     9927.326     2.450     2.384      1.261  0.006057635  18.0579         17
 4.81   0.0000    234.9494    403.9689 -40.42     24951.19     6.462     5.517     17.035  0.006057635  17.0573         18
 7.66   0.0000    166.7667    104.6338 -51.15     586.5913     1.190     0.814      1.145   0.00605832  21.1292         19
 7.78   0.0000    165.0963   1446.3479 -19.74     682.4984     0.931     0.682      1.581  0.006050096  20.9647         20
 7.36   0.0000    192.8807   1350.2953 -39.52     978.8222     1.495     1.122      8.219  0.006050096  20.5732         21
 5.87   0.0000    211.0185    828.4678  -4.65     3042.811     3.453     2.315      9.021  0.006057635  19.3418         22
 5.29   0.0000    206.7520    549.3409 -45.49     1810.166     1.916     1.730      1.051   0.00605421  19.9057         23
 4.92   0.0000    212.4464   1306.3748 -86.34     1704.877     1.854     1.649      1.039   0.00605832  19.9708         24
 6.31   0.0000    230.1041    562.0859 -34.65     2786.252     3.211     2.625     10.141  0.006048725  19.4374         25
 7.04   0.0000    209.0439    349.7184   5.59     892.9602     2.056     1.260      2.076  0.006052839  20.6729         26
 3.50   0.0000    260.0271    997.7144 -32.96     86268.45     3.108     3.027      1.908  0.006054895  15.7104         27
 4.71   0.0000    224.0652   1226.2837 -20.72     2077.517     1.857     1.718      0.947  0.006051468  19.7561         28
 9.06   0.0000    210.5037    683.9939 -32.35      427.005     0.790     0.316      2.250   0.00605421  21.4739         29
 8.20   0.0000    221.4668    346.4656  46.51     530.7352     1.425     1.262      3.959  0.006051467  21.2378         30
 3.50   0.0000    266.0551     67.7294 -46.53     65205.95     3.069     2.956      1.824  0.006052839  16.0143         31
 6.58   0.0000    223.0545    774.9872  32.06      667.973     1.233     1.218      1.424   0.00605832  20.9881         32
 7.21   0.0000    243.5259    113.3848 -72.38      1114.29     2.132     1.609      9.372  0.006059689  20.4325         33
 5.38   0.0000    255.5203    613.4874 -34.80     2890.202     2.722     2.229      6.947  0.006050782  19.3977         34
 3.50   0.0000    312.5810    439.6433 -46.91     219673.9     3.341     3.242      2.231  0.006056265  14.6956         35
 8.45   0.0000    239.0145    838.5069  88.39     361.2348     0.800     0.500      1.961   0.00605421  21.6555         36
 3.55   0.0000    287.8746   1486.6700 -37.53     19669.14     2.729     2.624      1.533  0.006050782  17.3155         37
 3.54   0.0000    282.1709   1522.5713 -57.11     4815.267     2.237     2.131      1.058  0.006056265  18.8434         38
 3.67   0.0000    303.2971    201.9391 -62.46     15669.88     2.638     2.559      1.455  0.006051468  17.5623         39
 3.50   0.0000    318.9419    905.7490 -50.05     45803.75     2.960     2.898      1.820   0.00605421  16.3977         40
 5.86   0.0000    290.0642    515.4205 -43.74     1515.832     1.859     1.703      1.782  0.006057635  20.0984         41
 3.50   0.0000    351.6704    891.0421 -42.49     196478.4     3.363     3.241      2.123  0.006054895  14.8167         42
 5.18   0.0000    294.2253   1327.8463 -64.99     2018.055     1.811     1.691      1.245   0.00605832  19.7877         43
 3.50   0.0000    351.7484   1346.0500 -36.39     187421.1     3.313     3.171      2.149   0.00605832  14.8680         44
 8.32   0.0000    297.8438   1414.4490 -85.07     711.8352     1.301     0.486      4.355   0.00605695  20.9191         45
 3.71   0.0000    322.2881    697.4871 -25.38      11341.9     2.435     2.390      1.294  0.006050782  17.9133         46
 6.51   0.0000    303.0039    563.4498  87.15     845.0492     1.162     0.981      1.511  0.006059689  20.7328         47
 6.06   0.0000    327.7697    595.6106 -71.53     1476.384     1.974     1.918      1.814  0.006057635  20.1270         48
 4.92   0.0000    346.6015    867.2303  18.69     6941.031     2.861     2.381      1.293  0.006053524  18.4464         49
 8.53   0.0000    323.2297    640.0140  -0.59     648.4648     0.698     0.421      3.596   0.00605832  21.0203         50
 4.76   0.0000    356.0260    432.0794  87.11      4986.55     2.496     2.332      1.493   0.00605558  18.8055         51
 4.17   0.0000    368.3613    761.2231 -35.81      11394.8     2.615     2.420      1.437   0.00605695  17.9082         52
 6.36   0.0000    350.1034     54.6538 -21.73     960.9189     1.382     1.164      1.160  0.006051468  20.5933         53
 4.87   0.0000    367.4929    442.9348 -35.45     4100.853     2.199     2.160      1.159  0.006053524  19.0178         54
 4.78   0.0000    361.4933   1500.6189 -39.83     1923.292     1.812     1.670      1.164  0.006054895  19.8399         55
 3.50   0.0000    395.3764    231.6054 -61.83     39785.48     2.946     2.880      1.789   0.00605558  16.5507         56
 7.80   0.0000    361.1692   1034.1797  42.65     455.5979     0.767     0.572      1.438  0.006054895  21.4035         57
 5.65   0.0001    381.0497      1.7524  88.80     64.40945     2.135     0.727      3.948  0.004715863  23.5276         58
 8.06   0.0000    372.7130    992.8636 -66.61     508.5038     0.965     0.672      1.312  0.006052153  21.2843         59
 4.12   0.0000    398.3277    354.7166   5.68     8992.517     2.419     2.381      1.260  0.006050782  18.1653         60
 3.64   0.0000    397.4610   1461.3257 -23.83       7937.3     2.404     2.266      1.225  0.006053524  18.3008         61
 3.50   0.0000    419.8367    433.5835 -58.69     37619.17     2.834     2.817      1.728  0.006057635  16.6115         62
 3.51   0.0000    415.8958    837.5114 -48.18     20949.71     2.714     2.631      1.550  0.006048725  17.2471         63
 3.84   0.0000    393.8893   1088.9030 -24.19     1861.407     1.829     1.746      1.190  0.006048725  19.8754         64
 5.52   0.0000    412.5150      2.1003  89.26     140.9971     3.144     1.055      5.972  0.004818564  22.6770         65
 8.72   0.0000    398.0094    626.0000  90.00     570.7947     0.853     0.289      3.422  0.006052839  21.1588         66
 3.50   0.0000    461.3327    807.6813 -41.80     98701.27     3.125     3.024      1.952  0.006051468  15.5642         67
 3.93   0.0000    424.4247    926.5838 -73.49     4166.994     2.218     2.075      1.161  0.006054895  19.0004         68
 3.54   0.0000    438.2094    252.3092 -22.94     17247.89     2.667     2.585      1.509  0.006053524  17.4582         69
 7.96   0.0000    421.4103    159.0942  66.35     693.5579     1.299     1.123      2.382  0.006053524  20.9473         70
 4.92   0.0000    433.2141   1422.2384  75.75     1218.952     1.587     1.455      0.882  0.006057635  20.3350         71
 4.58   0.0000    450.5570     21.3708 -80.62     5663.885     2.283     2.197      1.161   0.00605832  18.6672         72
 4.48   0.0000    457.9465     34.5625 -25.31     6392.401     2.433     2.277      1.170  0.006056265  18.5358         73
 5.57   0.0000    467.9408    850.8246  23.70     3581.105     6.481     2.304     14.996   0.00605832  19.1650         74
 9.10   0.0000    434.5980    150.8039  18.87     571.0414     0.771     0.446      1.357   0.00605421  21.1583         75
 6.79   0.0000    440.1227    306.1780 -32.48     614.4564     1.137     0.800      1.364  0.006056265  21.0788         76
 7.63   0.0000    445.2960    122.4233  33.99      671.168     1.291     0.942      1.617   0.00605421  20.9829         77
 8.37   0.0000    447.9803    885.2001  17.76     675.4005     1.345     0.552      4.142   0.00605558  20.9761         78
 4.64   0.0000    463.8789    468.8594  55.78     1865.425     1.963     1.724      1.243  0.006053524  19.8731         79
 4.62   0.0000    472.3755    735.0891  25.44     2361.058     1.930     1.809      1.037   0.00605421  19.6172         80
 5.75   0.0000    471.6077    254.6995  85.35     1625.416     1.743     1.651      1.284  0.006052839  20.0226         81
 7.46   0.0000    461.1063   1097.1104  75.57     570.0964     0.975     0.702      1.573  0.006050096  21.1601         82
 3.93   0.0000    478.1623    923.1752 -38.12     3003.952     2.130     1.850      1.085   0.00605695  19.3558         83
 5.27   0.0000    478.3757   1277.2144 -76.28     1035.286     1.623     1.316      0.998  0.006054895  20.5123         84
 4.68   0.0000    484.0925   1070.7201 -63.60     1346.701     1.691     1.476      1.172  0.006052153  20.2268         85
 6.81   0.0000    495.7200     82.9163 -84.39     1761.746     2.354     1.996      7.760  0.006052153  19.9351         86
 5.93   0.0000    495.9522   1186.4457  -9.05      1773.21     2.797     1.785      6.591   0.00605832  19.9281         87
 4.76   0.0000    533.2038    519.0621  37.98     13597.99     4.396     3.915     12.969  0.006059689  17.7163         88
 3.71   0.0000    512.7703   1302.9841   1.53     13425.62     3.214     2.410      2.064  0.006057635  17.7302         89
 7.82   0.0000    504.2839    762.8732 -18.39      1007.02     1.322     1.098      3.028  0.006051468  20.5424         90
 6.13   0.0000    502.7135    863.6923  -7.41      675.662     1.318     0.852      1.219  0.006050096  20.9757         91
 4.70   0.0000    515.7469   1461.2188  20.18     2343.823     3.707     1.729      8.127  0.006057635  19.6252         92
 7.98   0.0000    509.8079    166.5956  70.58     684.1717     0.763     0.446      1.701  0.006054895  20.9621         93
 8.01   0.0000    509.5138    454.4899 -44.65     142.3717     0.503     0.496      1.958  0.006050782  22.6664         94
 8.05   0.0000    513.6719   1179.6215  13.08     754.2803     1.164     0.603      1.144  0.006059005  20.8562         95
 3.50   0.0000    588.1991   1315.9669 -38.53     196384.3     3.254     3.137      2.228  0.006054895  14.8172         96
 8.59   0.0000    518.5825    643.1854 -19.40     518.4665     0.773     0.446      2.431   0.00605558  21.2632         97
 3.93   0.0000    540.4721   1000.0886 -46.92     1916.604     1.999     1.628      1.029  0.006051468  19.8437         98
 4.56   0.0000    559.1486   1041.7238 -49.55     2540.283     1.905     1.756      1.080  0.006051468  19.5378         99
 3.87   0.0000    572.9556   1242.8220 -28.33     7965.225     2.382     2.281      1.425   0.00605695  18.2970        100
 3.50   0.0000    631.4180    483.3808 -44.31     317474.3     3.471     3.329      2.684   0.00605558  14.2957        101
 4.00   0.0000    580.9852    144.9868 -62.85     11265.76     2.482     2.376      1.443   0.00605558  17.9206        102
 5.98   0.0000    571.3608     45.9273  64.65     1560.562     2.063     1.660      3.430  0.006054895  20.0668        103
 3.88   0.0000    582.3660    319.3436 -29.95     11008.68     2.531     2.405      1.273   0.00605695  17.9457        104
 6.00   0.0000    571.9494   1447.6144  45.99     1357.806     1.879     1.528      4.226  0.006057635  20.2179        105
 4.89   0.0000    596.9901    782.7942  84.19     4281.193     3.294     3.137      8.483  0.006053524  18.9711        106
 7.19   0.0000    575.0060   1336.7366 -69.33     1145.874     1.694     1.614      1.261  0.006059005  20.4022        107
 6.96   0.0000    584.8660     75.8078  79.67     620.6714     1.095     0.859      1.265  0.006059689  21.0678        108
 4.47   0.0000   1001.7277   1555.5181 -34.07     1274.646     1.504     1.278      1.190  0.006050782  20.2865        109
 8.60   0.0000   1598.7208    655.0220  -1.97     373.1045     0.741     0.679      4.445  0.004881867  21.6204        110
 5.55   0.0000   1565.9288    784.8401  77.23     1684.632     1.810     1.476      1.895   0.00605558  19.9837        111
 3.50   0.0000   1558.1409    487.7713 -79.67     46122.95     2.884     2.853      1.796  0.006057635  16.3902        112
 5.16   0.0000    886.1887   1500.2479 -31.93       919.22     1.475     1.194      1.157  0.006057635  20.6415        113
 6.66   0.0000    877.9839   1177.5114 -16.81     955.5106     1.390     1.207      2.544  0.006054895  20.5994        114
 3.50   0.0000    859.6315   1224.5569 -40.22     182597.1     3.278     3.133      2.073   0.00605832  14.8963        115
 6.45   0.0000    868.6469    939.6868  10.70     996.6083     1.646     0.960      3.463  0.006053524  20.5537        116
 6.52   0.0000    860.1113   1157.0590  81.66     930.1013     1.303     0.900      1.496  0.006052153  20.6287        117
 8.81   0.0000    859.0093   1339.4808 -89.34     713.3998     0.801     0.500      1.450  0.006054895  20.9167        118
 4.62   0.0000    869.8472   1103.8760 -38.57     2413.826     2.090     1.909      1.623  0.006052839  19.5932        119
 6.04   0.0000    843.8174   1106.2993  23.41     1080.613     1.522     1.174      1.475  0.006053524  20.4658        120
 7.61   0.0000    845.0912   1064.6450  19.49     571.8324     0.955     0.682      1.140  0.006051468  21.1568        121
 5.90   0.0000    838.1814   1246.9702 -20.17     1543.258     1.978     1.742      1.844  0.006056265  20.0789        122
 5.51   0.0000    836.7602    298.9550 -65.05     1567.053     1.834     1.556      1.143  0.006056265  20.0623        123
 3.69   0.0000    823.2612    654.5356 -35.60     7022.404     2.359     2.282      1.215  0.006052839  18.4338        124
 3.67   0.0000    803.4128   1378.7422 -54.00     6708.526     2.300     2.183      1.227  0.006057635  18.4834        125
 3.50   0.0000    798.7738    695.8101 -84.75     18373.53     3.076     2.543      4.144   0.00605558  17.3895        126
 5.04   0.0000    800.9283     41.3083 -29.45     3114.363     2.080     1.919      1.139  0.006052153  19.3166        127
 5.20   0.0000    774.6801   1427.5056 -73.06     2157.495     2.432     2.040      6.131  0.006051468  19.7151        128
 6.16   0.0000    766.9759    392.1918  19.80     1359.998     1.712     1.448      1.146   0.00605558  20.2162        129
 4.96   0.0000    742.9076    556.5101 -23.97     1629.337     1.705     1.658      1.059  0.006050096  20.0200        130
 3.50   0.0000    724.3961    405.0894 -41.01     218486.7     3.434     3.279      2.337  0.006053524  14.7014        131
 7.44   0.0000    738.0159   1157.9910 -44.70     571.2401     0.909     0.532      1.267  0.006052839  21.1580        132
 6.06   0.0000    736.1520    649.9449 -39.82     632.5993     1.234     0.944      1.151   0.00605558  21.0472        133
 3.50   0.0000    726.8686    848.5687 -57.32      50990.5     2.984     2.915      1.786  0.006056265  16.2813        134
 5.12   0.0000    727.7788   1178.4082 -13.06     1110.194     1.537     1.448      1.236  0.006054895  20.4365        135
 4.33   0.0000    716.0901    808.4656 -15.44      1416.46     1.606     1.513      1.009  0.006053524  20.1720        136
 4.84   0.0000    709.1076   1164.1731 -23.00     1455.913     1.652     1.382      1.214  0.006053524  20.1422        137
 5.30   0.0000    704.4922   1339.0616 -15.57      1399.27     1.766     1.733      1.870  0.006053524  20.1852        138
 3.59   0.0000    703.0034    952.5806  46.55     2590.456     1.868     1.843      1.165  0.006054895  19.5166        139
 8.49   0.0000    691.0121   1214.2306  71.87     921.5898     1.013     0.760      5.007  0.006057635  20.6387        140
 4.37   0.0000    685.7341    644.3630  89.09     2104.694     2.081     1.796      1.119  0.006056265  19.7420        141
 7.36   0.0000    683.1537    472.2704 -85.37     1509.952     2.308     2.158      7.383   0.00605421  20.1026        142
 6.11   0.0000    681.5815    543.7034 -69.59     1483.627     2.273     1.857      4.355   0.00605421  20.1217        143
 3.50   0.0000    648.6836   1464.4570 -40.95     50111.18     2.942     2.859      1.890  0.006052839  16.3002        144
 7.64   0.0000    654.4812    871.4532   0.21     643.3902     1.120     0.500      1.156  0.006051467  21.0288        145
 4.29   0.0000   1542.6431    654.8121 -45.38     3142.005     2.035     1.962      1.142  0.006056265  19.3070        146
 3.84   0.0000    639.9423    536.9742 -83.24     11707.12     2.556     2.431      1.395  0.006057635  17.8789        147
 6.89   0.0000    630.9633    806.3074   1.12     683.3198     1.247     0.766      1.117  0.006052153  20.9634        148
 4.40   0.0000    623.5655   1581.1472 -50.13     1154.515     1.500     1.436      1.311  0.006057635  20.3940        149
 4.98   0.0000    605.5164    586.4456  53.86     1198.362     1.543     1.389      1.122  0.006053524  20.3535        150
 3.50   0.0000   1563.8098    304.2241 -45.62     47509.36     2.923     2.836      1.796   0.00605558  16.3581        151
 6.05   0.0000    896.0804    538.6010  44.70     1389.257     1.940     1.683      3.906   0.00605695  20.1930        152
 6.31   0.0000   1561.8214    861.9495 -23.36     1645.061     1.254     1.102      1.505   0.00605695  20.0095        153
 7.94   0.0000    888.6888    325.7478 -26.08     819.5577     1.100     0.556      3.150  0.006052153  20.7661        154
 4.17   0.0000   1585.0242   1108.9159 -36.40     2085.767     1.570     1.469      1.022   0.00605558  19.7518        155
 3.90   0.0000   1541.9293    134.9480 -79.12     4340.241     2.113     2.001      1.254  0.006053524  18.9562        156
 4.35   0.0000   1570.5538     92.6839 -82.82     2280.563     1.675     1.601      1.095  0.006053524  19.6549        157
 3.90   0.0000   1566.7479     22.0650  46.46     2726.094     1.904     1.724      1.107  0.006053524  19.4611        158
 3.65   0.0000   1552.8644    682.3029 -26.94     18169.96     4.577     4.079     10.802  0.006053524  17.4016        159
 4.79   0.0000   1546.1251    863.1489   0.94     1370.503     1.559     1.136      1.953  0.006051468  20.2078        160
 5.99   0.0000    879.3414    224.6320  89.38     3174.583     6.321     2.205     13.491   0.00605695  19.2958        161
 3.50   0.0000    930.0131   1178.5142 -35.58     16425.71     2.638     2.492      1.493   0.00605558  17.5112        162
 4.34   0.0000    900.7332    303.0154 -33.42      7138.75     2.396     2.249      1.347   0.00605832  18.4159        163
 4.78   0.0000    928.9879   1322.4180  -2.86     1155.847     1.448     1.229      1.472   0.00605421  20.3927        164
 3.50   0.0000    880.6500   1592.4626 -67.28     58947.41     3.022     2.865      1.997  0.006054895  16.1238        165
 3.50   0.0000    882.3133    184.0869 -36.96     404082.3     3.661     3.466      3.629  0.006050782  14.0338        166
 3.50   0.0000   1507.2863    269.3642 -55.26     30202.41     2.776     2.727      1.675  0.006054895  16.8499        167
 3.50   0.0000   1514.9552    392.6727 -40.13      9011.44     2.408     2.298      1.342  0.006052839  18.1630        168
 6.84   0.0000   1504.2517    723.3992   3.72     1210.298     1.245     1.100      1.076  0.006059689  20.3428        169
 3.81   0.0000    913.3832    838.5964 -70.89     966.8604     1.416     1.182      1.150  0.006053524  20.5866        170
 8.38   0.0000    937.4312    515.9896 -41.76     723.4536     1.719     0.336      2.603   0.00605695  20.9015        171
 4.66   0.0000    939.6102   1067.3234  62.99     2049.619     1.767     1.675      1.126  0.006059005  19.7708        172
 8.40   0.0000    951.9966    655.0145  45.79     907.3862     0.916     0.532      2.770  0.006053524  20.6555        173
 7.40   0.0000    986.9854    454.1955 -72.89     1177.037     1.665     1.351      9.274  0.006052839  20.3730        174
 7.21   0.0000    981.2272    797.9749 -40.12     987.0058     1.370     1.138      1.671  0.006056265  20.5642        175
 4.04   0.0000   1435.4056    224.8692  69.60     4355.458     2.071     2.012      1.165  0.006059005  18.9524        176
 3.50   0.0000   1040.5176    633.2557 -56.50     35323.25     2.915     2.790      1.763  0.006052153  16.6798        177
 8.83   0.0000   1036.6763    122.0085  28.11     695.3567     0.911     0.211      2.131   0.00605832  20.9445        178
 8.07   0.0000   1410.2239    350.8887 -55.08     1084.546     1.111     0.518      2.425  0.006054895  20.4619        179
 7.12   0.0000   1059.8051    727.0422  22.86     927.9874     1.446     1.211      1.551  0.006057635  20.6311        180
 4.89   0.0000   1030.0771    302.9827  62.68      1805.98     2.455     1.806      4.853  0.006057635  19.9082        181
 3.52   0.0000   1439.8595    619.2115 -53.38      3338.37     2.028     1.867      1.084   0.00605832  19.2412        182
 7.53   0.0000   1400.9907   1031.1080  62.47     1317.106     1.218     0.964      1.478   0.00605421  20.2509        183
 4.32   0.0000   1390.6733    713.2567 -25.84     3299.154     2.024     1.816      1.203  0.006052153  19.2540        184
 3.50   0.0000   1389.0052   1428.4016 -75.58     8964.028     2.345     2.261      1.348   0.00605421  18.1687        185
 6.59   0.0002   1412.4006      1.4424 -87.09     22.56458     1.521     0.491      3.172  0.004615372  24.6664        186
 3.50   0.0000   1434.5811   1090.4209 -56.50     98382.43     3.109     3.046      1.995   0.00605558  15.5677        187
 3.50   0.0000   1419.4752   1126.3267 -53.69     19833.88     2.719     2.604      1.653  0.006052153  17.3065        188
 5.42   0.0000   1392.6332   1038.8308 -54.91     2467.103     1.710     1.553      1.098  0.006057635  19.5695        189
 3.79   0.0000   1408.4124    308.4418 -34.70     3197.996     1.921     1.833      1.101  0.006056265  19.2878        190
 3.50   0.0000   1366.4841   1159.1648  14.36     387067.5     4.364     3.465      3.253   0.00605558  14.0805        191
 5.44   0.0000   1072.7351   1218.8517 -80.91     1895.305     2.020     1.714      6.355  0.006053524  19.8558        192
 4.59   0.0000   1415.5695   1386.4916 -27.54      2230.13     1.759     1.629      1.140  0.006052839  19.6792        193
 7.97   0.0000   1063.3893      7.1556 -33.15      504.737     1.033     0.828      1.216  0.005988056  21.2923        194
 4.38   0.0000   1089.7240    642.5345 -53.67     3414.912     2.080     1.922      1.227  0.006050096  19.2166        195
 3.96   0.0000   1158.1172    236.4313 -18.82     6413.355     2.336     2.288      1.204  0.006054895  18.5323        196
 3.50   0.0000   1104.7473    751.8883 -60.16     12246.83     2.538     2.428      1.411  0.006050782  17.8299        197
 3.50   0.0000   1393.5439    114.3784 -51.80     61270.44     2.979     2.903      1.914   0.00605832  16.0819        198
 8.46   0.0000   1066.1111   1562.2987 -38.50     1096.356     1.290     0.612      5.626   0.00604941  20.4501        199
 7.88   0.0000   1110.6405    479.4750 -75.35     1776.148     1.692     1.063      7.426  0.006054895  19.9263        200
 4.91   0.0000   1307.7799    669.7328 -45.25     3150.611     2.149     1.879      1.218   0.00605695  19.3040        201
 3.57   0.0000   1372.7421   1019.0563 -12.05     9819.075     2.446     2.385      1.352  0.006052839  18.0698        202
 6.34   0.0000   1330.9302   1139.6189 -53.82     1059.694     1.784     1.272      2.149   0.00605832  20.4870        203
 6.28   0.0000   1130.1913    547.1422  46.62     727.8872     1.265     0.755      1.706  0.006060374  20.8948        204
 3.50   0.0000   1138.7388    148.0359 -47.60      28956.6     2.822     2.723      1.620   0.00605558  16.8956        205
 4.39   0.0000   1307.7767   1036.2616 -38.97     2388.826     2.412     2.012      3.353  0.006057635  19.6045        206
 8.98   0.0000   1130.7733    220.6080  71.73     743.7809     0.760     0.449      1.991   0.00605558  20.8714        207
 3.82   0.0000   1107.6841    428.1483  85.15     7869.099     2.403     2.317      1.294  0.006051468  18.3102        208
 3.50   0.0000   1321.1366    659.6424 -65.46     27268.31     4.111     2.738      9.183   0.00605421  16.9609        209
 6.21   0.0000   1333.1331    107.2922 -26.48     1260.828     1.317     1.072      1.195  0.006052839  20.2984        210
 7.21   0.0000   1319.3269    264.1315 -65.56     1111.357     0.953     0.683      1.107  0.006050782  20.4354        211
 3.54   0.0000   1278.3237   1331.2803   7.28     4871.497     2.141     2.047      1.165  0.006053524  18.8308        212
 4.35   0.0000   1293.0660    413.0294 -70.67     1407.712     1.479     1.346      1.165   0.00605558  20.1787        213
 6.28   0.0000   1242.6903    672.8441 -59.51     1138.521     1.494     1.059      1.094  0.006052839  20.4091        214
 3.50   0.0000   1298.5955    724.9852 -24.19     121942.8     3.357     3.086      2.061  0.006053524  15.3346        215
 3.50   0.0000   1221.6570    995.2193 -30.89     743729.2     5.188     4.768      7.127  0.006056265  13.3715        216
 5.86   0.0000   1304.7373    892.9993 -78.67     1014.431     1.329     1.123      0.951  0.006059689  20.5344        217
 3.93   0.0000   1291.6128    762.0432 -29.50     7467.896     2.553     2.273      1.510  0.006056265  18.3670        218
 3.50   0.0000   1130.1974    183.5348 -42.49      17705.3     2.670     2.529      1.490  0.006059005  17.4297        219
 6.54   0.0000   1259.3177    432.5393 -13.36     1857.738     1.656     1.453      3.333  0.006051468  19.8775        220
 3.77   0.0000   1273.0594    609.8814 -54.76     11010.24     4.249     2.895      9.062  0.006052839  17.9455        221
 3.76   0.0000   1265.7656    807.8748 -45.06     3785.942     2.118     1.967      1.243   0.00605421  19.1046        222
 3.50   0.0000   1210.8607   1278.8812  85.27     9843.908     5.420     3.530     11.494  0.006051468  18.0671        223
 6.74   0.0000   1212.9182   1430.0757  76.86     1781.832     1.633     1.380      8.357  0.006052153  19.9228        224
 4.91   0.0000   1237.1328   1553.4299  19.95     2021.942     1.759     1.565      1.076  0.006056265  19.7856        225
 5.41   0.0000   1151.2628     99.6046 -12.84       1599.8     1.811     1.490      1.167  0.006059689  20.0398        226
 7.31   0.0000   1231.0635    598.3688  16.53     863.0678     1.097     0.742      2.838  0.006056265  20.7099        227
 4.50   0.0000   1234.5651    305.0172 -77.93      3188.52     1.983     1.904      1.146  0.006056265  19.2910        228
 4.70   0.0000   1208.0999    839.1505  -7.95     2098.265     1.782     1.613      1.421  0.006046666  19.7453        229
 4.77   0.0000   1202.1235    339.2855 -51.45     2036.296     1.778     1.628      1.008  0.006050096  19.7779        230
 3.53   0.0000   1219.1207   1194.8530  28.80     11140.97     2.470     2.397      1.397  0.006052153  17.9327        231
 5.48   0.0000   1201.2926   1441.9923  70.14     1351.923     1.382     1.265      1.905   0.00605421  20.2226        232
 4.26   0.0000   1172.8992    757.9268 -62.15     6401.688     3.505     3.444      7.199  0.006050096  18.5343        233
 6.29   0.0000   1195.2961    124.1752 -65.46     1823.032     1.948     1.606      5.297   0.00605421  19.8980        234
 3.50   0.0000   1026.0765   1380.0057 -50.02      19784.1     2.669     2.563      1.509   0.00605695  17.3092        235
 4.94   0.0000   1096.1345   1526.9423   4.26      1074.25     1.286     1.229      1.551  0.006052839  20.4722        236
 3.50   0.0000   1165.4862   1299.7622 -46.94     41902.49     2.874     2.794      1.819  0.006054895  16.4944        237
 3.50   0.0000   1214.8379    513.1538 -61.10      16928.6     2.667     2.560      1.461   0.00605695  17.4784        238
 6.38   0.0000   1153.6172   1352.6188   9.39     1092.105     1.278     0.992      1.761   0.00605558  20.4543        239
 5.96   0.0000   1120.4965    330.1535  52.06     2388.382     2.393     1.893      5.878  0.006048725  19.6047        240
 3.50   0.0000   1151.9579    693.9688 -40.83     367613.4     3.473     3.326      2.861   0.00605832  14.1365        241
 6.55   0.0000   1161.9502    887.8767 -18.24     721.2492     1.108     0.852      1.291  0.006051468  20.9048        242
 5.80   0.0000   1203.5452   1075.3683  82.62     1554.669     1.833     1.518      1.879   0.00605695  20.0709        243
 6.28   0.0000   1181.4033    549.7607 -87.22     817.8456     1.505     0.718      1.232   0.00605558  20.7683        244
 9.54   0.0000   1080.4822    330.5127 -44.64     640.5598     0.506     0.494      1.936  0.006052153  21.0336        245
 3.50   0.0000   1080.1893    512.2960 -62.36     29895.36     2.827     2.748      1.698  0.006053524  16.8610        246
 3.50   0.0000   1095.2242    778.2455 -43.44     26804.69     2.824     2.731      1.690   0.00605832  16.9795        247
 3.50   0.0000   1082.0486   1148.2305 -27.05     10950.18     2.480     2.396      1.405  0.006057635  17.9514        248
 3.50   0.0000   1038.8699    525.6148 -68.20     9297.209     2.465     2.373      1.314  0.006059689  18.1291        249
 7.76   0.0000   1073.1113      6.8627  41.02      670.257     0.834     0.672      1.296  0.005945639  20.9844        250
 4.47   0.0000   1000.2449   1273.9552 -45.55     982.7744     1.259     1.126      1.233   0.00605695  20.5689        251
 3.50   0.0000   1010.0789    813.8175 -76.17        18152     2.620     2.592      1.522  0.006057635  17.4027        252
 3.50   0.0000   1023.8043     50.3221 -46.35     265148.7     3.465     3.295      2.274  0.006056265  14.4913        253
 3.50   0.0000    985.1698    558.6539 -50.76     26667.92     2.812     2.722      1.650   0.00605695  16.9850        254
 4.16   0.0000   1011.7323    344.9422 -57.72     2740.443     2.070     1.908      1.271  0.006052839  19.4554        255
 4.46   0.0000   1002.0021    542.7068 -48.16     2904.878     2.015     1.939      1.223  0.006052839  19.3922        256
