#   1 KRON_RADIUS            Kron apertures in units of A or B                         
#   2 Y_IMAGE                Object position along y                                    [pixel]
#   3 MAG_BEST               Best of MAG_AUTO and MAG_ISOCOR                            [mag]
#   4 FLUX_BEST              Best of FLUX_AUTO and FLUX_ISOCOR                          [count]
#   5 X_IMAGE                Object position along x                                    [pixel]
#   6 THETA_IMAGE            Position angle (CCW/x)                                     [deg]
#   7 A_IMAGE                Profile RMS along major axis                               [pixel]
#   8 B_IMAGE                Profile RMS along minor axis                               [pixel]
#   9 MAGERR_BEST            RMS error for MAG_BEST                                     [mag]
#  10 NUMBER                 Running object number                                     
#  11 FLUXERR_BEST           RMS error for BEST flux                                    [count]
 0.00     54.0606  99.0000    -170.7557     63.4906  10.24     5.079     4.642  99.0000          1     280.2136
 3.50     17.6089  23.9848     42.27551    984.8857 -88.11     4.179     1.842   3.7348          2     145.3863
 3.50     18.7909  22.2239     214.0178     91.0583 -77.68     1.665     1.590   0.4337          3     85.47398
 3.50     15.4372  24.1570     36.07458   1445.5699 -58.56     1.765     1.663   2.7189          4     90.31591
 8.71      7.7679  22.7431     132.6631   1469.4524 -68.75     0.745     0.449   0.6089          5      74.3811
 0.00      4.5160  99.0000    -66.00916    145.3089  44.41     1.257     0.896  99.0000          6     78.55521
 0.00     10.4944  99.0000    -12.39954   1183.4982  44.88     0.503     0.497  99.0000          7     55.86524
 3.50     60.5870  22.4187     178.8657   1078.2454  78.89     2.101     1.994   0.6468          8     106.5308
 7.81     14.3362  23.1815     88.59302    839.6812  45.80     0.572     0.336   0.6364          9     51.91671
 3.71     25.5086  25.1504     14.44861    367.0246 -44.58     1.386     1.224   5.3714         10     71.46306
 0.00     17.9751  99.0000    -32.07581    384.0876  -6.21     1.065     0.750  99.0000         11     50.53201
 0.00    182.7325  99.0000    -772.3953   1107.3342 -33.02     5.842     5.048  99.0000         12     283.9851
 0.00     24.5880  99.0000    -167.4861    383.1618  87.82     1.000     0.715  99.0000         13     100.0057
 7.77     35.5278  22.7688     129.5591   1110.5074  83.69     1.018     0.640   0.7861         14     93.78344
 0.00     34.3293  99.0000    -114.7209    326.4466 -55.26     1.064     0.824  99.0000         15     97.12727
 0.00     38.8936  99.0000    -43.88953   1521.2977  57.82     1.154     0.680  99.0000         16     75.32867
 0.00     39.8461  99.0000    -24.63721   1170.4801  -0.97     0.941     0.732  99.0000         17     71.95762
 0.00     45.8528  99.0000    -184.3633    440.1219 -39.18     1.403     1.002  99.0000         18     98.93612
 0.00     43.2799  99.0000    -112.7842    915.3459 -44.82     1.174     0.700  99.0000         19      46.1292
 3.50     80.9598  22.2903     201.3252    537.4124 -67.89     2.020     1.918   0.5564         20      103.148
 0.00     40.5038  99.0000    -28.63928   1225.9862 -32.64     0.782     0.319  99.0000         21     47.64204
 6.55     51.1657  23.0139     103.3834    265.9854  36.65     0.939     0.465   0.6910         22     65.77794
 0.00     51.0299  99.0000    -16.58203   1435.2108 -33.32     0.788     0.497  99.0000         23     58.34934
 6.80     49.3377  23.5953     60.51709   1233.6754  45.58     0.575     0.334   0.7853         24       43.762
 0.00     75.9613  99.0000    -35.92163    127.6706  65.46     1.365     1.260  99.0000         25     67.37601
 5.75     82.8388  22.2502     208.8833    421.4473 -51.35     1.212     0.808   0.4422         26     85.05805
 5.12     91.5345  21.6971     347.6493    376.7948 -74.03     1.886     1.573   0.4101         27      131.286
 3.50    122.5929  22.4361     176.0234    788.9210 -57.93     2.107     1.961   0.6531         28     105.8629
 3.64     97.3432  22.8077     125.0056     55.9943  -9.78     1.501     1.385   0.6825         29     78.55521
 6.18     92.9185  22.7798     128.2539    495.8493  75.14     1.341     0.684   0.7411         30     87.52401
 0.00     98.7693  99.0000    -7.409912    452.5781 -24.86     1.703     0.981  99.0000         31     117.3049
 4.43     96.5883  23.4488      69.2594   1075.8324  21.36     0.766     0.435   0.6052         32     38.59446
 8.01    114.3489  23.0112     103.6422    270.3333 -45.61     0.584     0.329   0.5651         33     53.92712
 7.06    117.8673  23.2949     79.80322     66.8318  46.85     0.748     0.562   0.9311         34     68.42067
 6.06    118.7044  24.4049     28.71118    990.6282 -41.71     0.576     0.332   1.4942         35     39.50269
 8.28    118.5058  26.6097     3.768188    154.4909  45.33     0.502     0.498  17.5031         36     60.73192
 0.00    235.9001  99.0000    -1846.071    403.1562 -56.45     6.429     5.300  99.0000         37     369.3218
 0.00    194.4204  99.0000    -105.1401    317.8754 -62.51     2.391     2.159  99.0000         38     118.2084
 0.00    163.1395  99.0000    -75.44739   1468.1359 -60.49     1.999     1.918  99.0000         39     101.4143
 0.00    132.4922  99.0000    -48.23413    418.0420   0.54     0.804     0.500  99.0000         40     47.64204
 3.50    171.1363  29.1093    0.3769531    877.1224 -68.32     1.766     1.710 260.1997         41     90.31591
 5.36    147.2958  23.0126     103.5077    353.1507 -30.05     0.879     0.605   0.6122         42     58.34934
 0.00    152.5081  99.0000    -138.4141   1279.9960  -1.46     0.803     0.500  99.0000         43     63.02449
 4.82    172.3745  23.7850     50.81445    325.0115 -64.12     1.467     1.346   2.1674         44     101.4143
 3.59    165.8674  23.3848     73.46484   1445.5350  -0.27     1.320     1.134   0.9724         45     65.77794
 4.17    167.5935  22.9777      106.887    104.3067 -28.86     1.173     1.010   0.6738         46     66.31491
 0.00    170.4302  99.0000    -47.59668   1368.2188 -47.27     1.080     0.717  99.0000         47     66.84756
 0.00    169.4399  99.0000     -47.4967    651.5150 -35.83     0.503     0.493  99.0000         48     42.94395
 0.00    181.2359  99.0000    -91.04675    574.8821  23.27     1.275     0.773  99.0000         49     66.31491
 4.36    193.3881  24.9006     18.18628   1350.3933 -35.33     1.357     1.132   4.7976         50     80.34077
 0.00    186.9876  99.0000    -55.20007   1354.0366 -74.11     0.796     0.783  99.0000         51     99.29394
 3.72    211.5532  22.4830     168.5831    827.4822  -7.29     3.936     1.949   0.9841         52     152.7613
 0.00    207.5034  99.0000    -130.7346    548.9205 -81.30     1.549     1.369  99.0000         53      74.3811
 0.00    196.0324  99.0000    -15.69702    267.5382  56.83     0.765     0.324  99.0000         54     58.34934
 0.00    229.8139  99.0000    -12.37378    414.8996 -19.48     1.967     1.652  99.0000         55     62.45924
 0.00    211.4506  99.0000    -9.291382    684.4574 -82.33     1.680     1.042  99.0000         56     70.96505
 4.07    209.4233  23.6500     57.54504    349.7025  43.13     1.598     1.217   1.6364         57     86.70982
 3.50    204.3587  23.5136     65.24622    250.6058 -42.34     0.981     0.848   0.8053         58     48.38072
 3.50    212.9739  24.2076     34.43286   1305.9009  53.84     1.403     1.346   2.2065         59      69.9584
 4.51    231.0750  22.5888     152.9308    562.2184  -9.41     3.381     2.852   1.4820         60      208.689
 3.50    204.4280  26.1417     5.798584   1498.4841 -36.27     0.505     0.489   5.4640         61     29.17467
 7.06    205.7527  24.1067     37.78418    937.2287 -19.28     0.855     0.346   1.6418         62      57.1208
 3.57    224.5217  24.2900     31.91565   1225.8657 -53.97     1.548     1.416   2.6883         63     79.00538
 0.00    260.5782  99.0000    -206.7935    997.2145 -60.88     2.174     2.033  99.0000         64     109.1616
 3.50    266.7132  23.4847     67.00574     67.3777 -78.85     2.116     1.998   1.7266         65     106.5308
 0.00    223.1785  99.0000    -109.4294    345.6050 -22.38     1.579     1.463  99.0000         66     117.0022
 0.00    223.2261  99.0000    -100.8832    774.7524 -19.32     1.202     1.068  99.0000         67     59.55255
 0.00    219.2476  99.0000    -24.99646    740.7268 -18.84     0.845     0.353  99.0000         68     58.95401
 4.32    244.2684  23.5201     64.85632    112.8208  77.16     2.123     1.544   1.9439         69     116.0893
 0.00    256.2215  99.0000     -200.392    612.7909 -37.89     2.503     1.802  99.0000         70     142.6778
 6.09    239.9036  21.3271     488.8259    838.4949 -37.93     1.369     1.007   0.2381         71     107.1946
 5.00    240.0472  23.8381     48.39001   1478.8186 -53.93     0.940     0.464   1.1021         72     49.10829
 3.50    313.2080  24.1361     36.77673    439.2092 -58.52     2.401     2.209   3.5521         73     120.2902
 6.70    252.6677  21.4589     432.9409   1372.6152 -44.30     1.226     0.877   0.2596         74     103.4913
 0.00    251.4614  99.0000    -3.218506    107.4959 -45.23     1.084     0.836  99.0000         75     98.93612
 0.00    254.3471  99.0000    -22.92151   1352.5072   0.00     0.868     0.476  99.0000         76     53.26542
 0.00    288.3375  99.0000    -132.9177   1486.2755 -55.67     1.869     1.782  99.0000         77     95.65556
 3.50    282.7324  23.1198     93.77441   1522.1934 -43.42     1.561     1.489   0.9304         78     80.34077
 6.94    271.2609  23.2766     81.16333   1273.5472 -11.08     1.161     0.926   1.4431         79     107.8542
 3.57    290.6129  24.6692     22.50696    514.7311 -61.03     1.859     1.552   4.3956         80     91.09788
 0.00    319.4862  99.0000    -78.72253    905.2509 -61.70     2.069     1.942  99.0000         81     104.5143
 3.50    303.9936  22.2268     213.4403    201.5941 -73.78     1.829     1.708   0.4752         82     93.40452
 5.16    297.8686  23.0253     102.3044   1413.5083 -39.26     2.150     1.549   1.4906         83     140.4228
 3.56    294.7549  22.1945      219.882   1327.3584 -23.02     1.400     1.322   0.3602         84     72.93668
 3.50    352.2489  22.2146     215.8481   1345.7200 -52.96     2.313     2.158   0.5841         85     116.0893
 0.00    352.2323  99.0000     -248.306    890.5778 -52.57     2.350     2.174  99.0000         86     118.2084
 6.19    294.2966  24.6878       22.125   1475.4912 -66.12     1.171     0.977   4.8209         87     98.21658
 3.50    302.8696  23.5983     60.34924    563.5292  64.37     1.321     1.261   1.1837         88     65.77794
 0.00    322.8518  99.0000    -72.51038    697.1324 -67.39     1.711     1.657  99.0000         89     87.11787
 0.00    309.7060  99.0000    -63.63879     85.4069 -81.45     1.983     0.885  99.0000         90      127.448
 5.00    322.1810  22.4786     169.2671    641.0074 -76.22     2.195     1.269   0.7960         91     124.0638
 4.49    328.1170  21.8050     314.7621    595.2689 -50.18     1.627     1.559   0.3733         92     108.1826
 0.00    317.8036  99.0000    -10.80737    226.3809 -71.76     0.752     0.447  99.0000         93     45.35387
 0.00    347.0935  99.0000    -143.5492    866.9109 -38.15     1.821     1.669  99.0000         94      96.0256
 5.35    332.8581  23.2900     80.16479     93.4377  -7.83     1.068     0.836   1.0394         95     76.72809
 4.20    330.3324  25.1308     14.71252   1545.6162  -6.15     0.994     0.631   3.6778         96     49.82523
 4.50    335.7877  26.0557     6.276489   1440.3218 -48.97     0.986     0.855  10.6088         97      61.3131
 3.79    356.5633  22.4209      178.504    431.6613 -76.63     1.957     1.739   0.6317         98     103.8334
 3.50    350.8575  24.7176     21.52661     54.4747 -39.25     1.290     1.224   3.2636         99     64.69062
 5.14    348.6108  22.9769     106.9639     42.2829 -59.05     0.983     0.545   0.5799        100      57.1208
 0.00    368.9762  99.0000    -95.12122    760.8817 -55.02     1.739     1.636  99.0000        101     86.70982
 0.00    351.1112  99.0000    -112.8353    920.2661 -17.72     0.939     0.676  99.0000        102     83.79786
 3.50    362.0320  22.2956     200.3275   1500.1698  10.15     1.428     1.398   0.3954        103     72.93668
 3.61    368.2886  22.4561      172.803    442.6443 -44.79     1.606     1.455   0.5186        104     82.51842
 6.16    353.6877  24.3930     29.02783    350.3493  43.36     0.575     0.334   1.5436        105     41.25921
 0.00    396.0084  99.0000    -196.4001    231.2756 -59.51     2.003     1.932  99.0000        106     101.4143
 6.26    360.5867  22.5781     154.4412    533.2850  21.62     1.031     0.915   0.6433        107     91.48636
 3.53    361.4968  23.4566     68.76599   1033.7421 -34.22     1.094     0.910   0.8090        108     51.22904
 0.00    363.8832  99.0000    -124.5613   1415.6968 -78.20     1.038     0.416  99.0000        109     58.34934
 3.50    373.7502  23.7280     53.55579    992.1270 -58.62     1.191     1.021   1.1456        110     56.49651
 0.00    373.9765  99.0000    -120.2289   1083.8434 -45.30     1.443     1.000  99.0000        111      88.3307
 0.00    369.9420  99.0000    -23.56104    210.5096  87.58     0.786     0.499  99.0000        112      57.1208
 6.59    371.1455  23.9117     45.21875     71.4292 -16.36     1.204     0.716   2.2065        113     91.87319
 6.58    376.9810  22.9641     108.2365    753.9877  38.43     1.723     0.867   1.2099        114     120.5847
 0.00    397.8752  99.0000    -52.89783   1461.0035 -57.54     1.678     1.607  99.0000        115     85.05805
 5.17    376.6144  22.7373     133.3722     86.3840  23.01     1.364     0.457   0.4945        116     60.73192
 0.00    398.9585  99.0000    -42.01489    354.4046 -56.82     1.759     1.641  99.0000        117     89.52711
 5.97    380.9103  23.1066     94.91711    125.6369 -22.70     0.902     0.682   0.8062        118     70.46352
 3.64    394.5150  23.4850     66.98682   1088.6681 -16.65     1.553     1.372   1.2808        119     79.00538
 0.00    420.3994  99.0000    -75.07532    433.1460 -57.35     1.997     1.878  99.0000        120      101.064
 3.50    416.4439  25.0095     16.45166    837.1794 -67.30     1.895     1.794   6.3874        121     96.76144
 0.00    390.0044  99.0000    -23.37622   1195.2917  85.80     0.739     0.674  99.0000        122     55.22676
 6.62    390.2305  23.4688     67.99243    260.4030  71.18     0.744     0.452   0.9024        123     56.49651
 0.00    397.2771  99.0000    -53.76514    977.5050 -21.24     1.103     0.780  99.0000        124     66.84756
 0.00    397.9344  99.0000    -20.62695    626.5070  15.77     1.528     0.795  99.0000        125     100.0057
 0.00    440.8153  99.0000    -41.96191    305.5588 -50.74     1.189     1.082  99.0000        126     59.55255
 6.01    407.6977  23.7628     51.86658    281.6329 -82.40     1.007     0.467   1.3196        127     63.02449
 0.00    415.6719  99.0000     -210.986      2.5615  28.95     1.141     0.754  99.0000        128     82.08752
 0.00    404.5128  99.0000    -145.2628    526.8889  -1.99     0.784     0.499  99.0000        129     72.93668
 3.50    425.0124  23.9579     43.33313    926.1458 -46.76     1.635     1.521   2.0680        130     82.51842
 3.50    461.8470  23.4319      70.3479    807.3679 -54.81     2.148     2.048   1.6902        131      109.486
 7.26    413.7131  23.6720     56.38928   1562.2982 -60.78     1.155     0.451   1.5042        132     78.10243
 0.00    438.7642  99.0000    -126.0771    251.9271 -54.88     1.813     1.728  99.0000        133     92.64202
 4.91    421.8596  21.4821       423.79    158.7295  50.88     1.660     1.444   0.2904        134     113.3064
 0.00    412.6987  99.0000       -63.12    199.3263  43.64     0.560     0.342  99.0000        135     36.71066
 9.12    415.3152  24.9033     18.14136    558.6304  42.89     0.584     0.328   3.4930        136     58.34934
 0.00    419.5396  99.0000    -94.25903   1203.5216  13.28     1.222     0.608  99.0000        137       79.453
 0.00    433.6358  99.0000    -56.03503   1421.9036 -17.73     1.428     1.337  99.0000        138      72.4488
 0.00    427.7109  99.0000    -44.47058   1179.3110  20.69     1.296     0.986  99.0000        139     102.1113
 0.00    420.6244  99.0000    -10.21594   1579.7715  17.88     0.757     0.446  99.0000        140     49.10829
 0.00    424.8950  99.0000    -16.47412   1063.8502 -46.61     0.815     0.670  99.0000        141       79.453
 0.00    431.8513  99.0000    -142.7761    717.7710 -64.55     0.930     0.895  99.0000        142     94.16084
 0.00    434.9498  99.0000    -11.63159    151.0015  25.47     1.154     0.980  99.0000        143     78.55521
 4.46    468.5386  20.7515     830.5917    850.1890  22.22     7.442     1.903   0.3278        144     250.6872
 3.51    451.1122  23.8467      48.0094     21.1382 -39.37     1.703     1.572   1.9428        145      85.8879
 0.00    446.1109  99.0000    -74.16187    122.1262 -32.70     1.653     1.204  99.0000        146     113.9307
 7.20    434.6680  26.3693     4.701782    353.3013  46.61     0.562     0.341  10.4757        147     45.35387
 3.57    448.0235  26.2671     5.165894    884.3464  -1.26     2.252     1.419  20.0311        148     95.28407
 0.00    458.6750  99.0000    -43.60352     34.3958 -60.50     1.679     1.537  99.0000        149     84.22002
 5.33    444.1706  24.7865     20.20276    654.5854 -70.39     0.757     0.448   2.5207        150     46.89172
 0.00    464.5988  99.0000    -78.10901    468.4730 -73.92     1.596     1.441  99.0000        151       79.453
 0.00    453.8176  99.0000    -83.38879   1533.1399  37.42     0.790     0.678  99.0000        152     47.64204
 5.10    461.9113  25.1523     14.42358   1096.1396  54.35     1.156     1.063   6.3728        153     84.64007
 0.00    472.0582  99.0000    -38.66736    254.1115 -72.83     1.524     1.321  99.0000        154     73.90276
 0.00    462.3787  99.0000     -49.8114    724.6503 -28.34     1.116     0.728  99.0000        155     68.93706
 7.22    457.7005  23.7927     50.45618   1223.6603 -42.96     0.565     0.339   0.9929        156      46.1292
 0.00    472.9619  99.0000    -74.11279    734.7728 -38.58     1.496     1.347  99.0000        157     73.90276
 0.00    478.7596  99.0000    -133.3096    922.8173 -35.41     1.544     1.447  99.0000        158     78.10243
 0.00    478.7934  99.0000    -92.20728   1276.8331 -53.38     1.380     1.256  99.0000        159     76.72809
 0.00    476.5136  99.0000    -26.22168   1168.0371 -89.76     0.813     0.676  99.0000        160     49.10829
 4.27    533.7934  20.9321      703.313    518.6295  28.40     4.107     3.566   0.3758        161     243.3652
 3.50    484.9557  26.6000     3.802002   1070.4277 -66.11     1.365     1.226  19.2452        162     67.37601
 0.00    473.4778  99.0000    -25.85168    781.5225  45.02     0.505     0.494  99.0000        163     60.73192
 4.94    496.9649  22.2497     208.9912     82.5904  56.28     2.338     2.068   0.8441        164     162.4377
 0.00    489.7222  99.0000    -137.0356    839.5610  85.43     1.974     0.945  99.0000        165     105.8629
 0.00    496.5237  99.0000    -358.0651   1186.6776 -15.91     2.961     1.842  99.0000        166     142.6778
 4.58    481.6935  24.0965     38.14148   1309.1306  71.28     0.894     0.694   1.5725        167     55.22676
 3.62    479.8593  24.5637     24.80371    682.6145  17.68     1.030     0.720   2.0197        168      46.1292
 0.00    481.6788  99.0000    -59.27588   1520.4889  -0.10     0.921     0.467  99.0000        169     58.34934
 0.00    513.2880  99.0000    -52.03735   1302.2382 -66.23     1.839     1.727  99.0000        170     89.13009
 3.73    505.2572  22.2982     199.8572    763.0609  35.25     1.787     1.614   0.5137        171     94.53674
 3.50    516.2645  22.0876     242.6447   1460.9927  24.44     4.349     1.624   0.6228        172     139.1543
 3.50    502.7133  24.9841     16.84119    863.5478  86.67     1.248     1.114   4.0277        173     62.45924
 3.50    498.6334  24.0948     38.20288    366.2104 -49.91     1.014     0.951   1.4563        174     51.22904
 3.93    502.3745  24.1595     35.98987   1310.0952 -19.71     1.173     0.897   1.7970        175     59.55255
 0.00    514.1793  20.6065     949.2587   1310.0308  82.91     1.494     1.427   0.1196        176     104.5558
 0.00    514.5804  99.0000    -85.51318   1179.1089 -56.89     1.341     1.068  99.0000        177     60.73192
 0.00    510.5956  99.0000    -65.29712    164.3583  -2.33     2.204     1.004  99.0000        178     123.4908
 0.00    520.3478  99.0000    -134.9303    641.4071 -66.00     1.226     0.908  99.0000        179     65.77794
 8.37    511.4778  23.9570      43.3717    453.4842  44.04     0.503     0.496   1.5207        180     60.73192
 0.00    519.1760  99.0000    -8.857178   1518.8837  43.20     0.828     0.669  99.0000        181     38.59446
 3.50    588.6913  22.5830     153.7477   1315.8531 -46.59     2.329     2.162   0.8328        182      117.908
 0.00    521.5092  99.0000    -10.30151    854.4668 -59.60     0.500     0.498  99.0000        183     60.73192
 0.00    541.0020  99.0000     -79.5426    999.7307 -58.21     1.569     1.410  99.0000        184     96.39422
 4.50    536.8311  23.5592     62.56055    404.4706  47.38     1.380     0.681   1.1230        185     64.69062
 0.00    545.6520  99.0000    -2.422119    933.8276  70.97     1.235     0.753  99.0000        186     94.53674
 3.50    631.9619  22.8435     120.9447    483.1478 -47.23     2.858     2.668   1.2945        187     144.1615
 0.00    559.8239  99.0000      -56.729   1041.5421 -18.76     1.577     1.488  99.0000        188     85.47398
 3.50    573.4060  26.3278      4.88501   1242.7255 -48.70     1.761     1.644  19.8148        189     89.13009
 4.47    597.4254  23.0698     98.19495    782.7070 -83.48     3.545     3.355   2.5543        190     230.9533
 4.22    571.6400  24.6915     22.05005     45.6350  59.09     1.992     1.404   5.2139        191     105.8629
 4.18    556.2180  23.3096     78.73389    778.7782  45.57     0.804     0.683   0.6363        192      46.1292
 3.50    581.4234  24.5352      25.4646    144.8262 -85.18     1.779     1.649   3.7671        193      88.3307
 3.50    572.2832  21.7088     343.9364   1448.0365  21.10     2.736     1.688   0.3558        194     112.6787
 0.00    565.5809  99.0000    -24.62671    139.6900 -53.99     1.148     1.009  99.0000        195     62.45924
 3.50    582.9928  22.4601     172.1661    318.9863 -39.14     1.741     1.667   0.5546        196     87.92828
 0.00    563.6564  99.0000    -82.49573    905.5596   5.49     1.049     0.627  99.0000        197     77.18892
 0.00    575.7251  99.0000     -85.1543   1336.6144 -63.76     1.448     1.293  99.0000        198     113.3064
 6.82    576.9731  24.5038     26.21082   1001.5249 -66.98     1.399     1.121   5.3151        199     128.2801
 3.50    585.4980  24.3071     31.41699     75.9934  34.12     1.282     1.160   2.2171        200     64.14005
 5.61    576.2507  23.1658      89.8866    549.0676  -3.84     0.664     0.432   0.5480        201     45.35387
 7.52    579.6700  26.6030      3.79126    740.6813 -45.54     0.569     0.338  14.0670        202     49.10829
 4.02   1002.4446  24.1301      36.9801   1555.2887 -75.10     1.475     1.318   2.4609        203     83.79786
 0.00   1597.9525  99.0000    -34.41943    655.1014 -32.85     1.793     1.294  99.0000        204     89.92237
 0.00   1595.9124  99.0000    -88.54114    374.0342  41.13     1.272     1.258  99.0000        205     99.29394
 6.88   1594.0922  23.4675     68.07861   1384.9441 -19.49     1.473     0.518   1.4218        206     89.13009
 6.99   1592.8507  24.6635     22.62549    567.1038  41.77     0.836     0.671   3.7706        207     78.55521
 3.51   1571.3456  26.6111     3.763306     92.7359 -46.28     1.463     1.342  21.3266        208     73.90276
 3.50   1523.4841  24.7835      20.2583     14.4994  44.62     0.509     0.490   1.5640        209     29.17467
 3.50   1515.7332  24.0827     38.62952    392.7216 -44.48     1.718     1.630   2.5057        210     89.13009
 0.00   1516.1362  99.0000    -108.5841   1547.0354  59.82     1.454     1.004  99.0000        211       98.577
 6.41    952.6561  24.1461     36.43811    886.7118 -47.95     0.561     0.340   1.2550        212     42.11001
 0.00    950.6980  99.0000    -31.50024    267.9047  28.11     0.947     0.863  99.0000        213     47.64204
 3.53    948.7698  24.4920      26.4967    445.2767  -8.36     1.064     0.910   2.0711        214     50.53201
 3.50    947.9496  23.1014     95.37756    133.2829  89.95     0.730     0.666   0.4180        215     36.71066
 3.72    939.9116  23.9336     44.31531   1067.0671 -40.96     1.543     1.337   1.9471        216       79.453
 7.61    942.2944  25.7357     8.428223    725.6536  42.39     0.565     0.339   6.3277        217     49.10829
 7.42    939.1722  27.1416     2.308716    515.9601  26.90     1.278     0.921  56.3054        218     119.6991
 3.50    930.5093  23.0101     103.7399   1178.4397 -63.94     1.809     1.764   0.9698        219     92.64202
 0.00    933.8318  99.0000    -125.1379   1118.5709  12.09     0.875     0.614  99.0000        220     61.88882
 7.04    933.5328  23.3874     73.29016   1027.5371  45.25     0.516     0.481   0.7488        221     50.53201
 0.00    929.1013  99.0000    -194.3228   1322.4060 -85.48     1.407     1.267  99.0000        222     94.91114
 0.00    926.4553  99.0000    -55.35938    665.7037 -88.92     0.928     0.456  99.0000        223     62.45924
 8.62    926.6777  24.1260     37.11865    934.3347  44.43     0.573     0.336   1.6529        224     56.49651
 0.00    926.6449  99.0000     -7.89978     46.6976 -47.40     0.572     0.335  99.0000        225     31.51225
 6.33    919.9985  22.8793     117.0272   1027.5399  56.68     0.762     0.323   0.4421        226     47.64204
 8.42    918.4757  23.5234     64.65991    252.9750  32.09     0.796     0.313   1.0200        227     60.73192
 4.47    913.5744  23.7698      51.5321    838.4932 -17.32     1.372     1.256   1.8615        228      88.3307
 4.51    913.3035  22.8896     115.9161   1000.9104 -11.44     1.225     0.979   0.6879        229     73.42131
 0.00    908.4130  99.0000    -30.56982    658.8084 -20.19     0.749     0.447  99.0000        230     72.93668
 5.80    905.2918  24.5257     25.68652   1315.1288  40.86     1.390     0.833   3.9006        231     92.25841
 3.50    901.2191  22.6380     146.1549    302.8273 -74.09     1.691     1.589   0.6320        232     85.05805
 3.50    882.8359  20.8741     741.9467    183.6337 -36.29     4.129     3.698   0.2994        233     204.5697
 4.11    879.3942  24.3763     29.47583    224.3853 -89.82     7.579     1.983   8.7656        234     237.9122
 5.48    886.6755  23.0923     96.17664   1304.8312  69.25     1.659     1.272   1.3483        235     119.4025
 0.00    889.4891  99.0000    -131.6632    680.4579  50.42     0.503     0.495  99.0000        236     60.73192
 0.00    896.9634  99.0000    -167.8651    538.7819  -3.00     2.098     1.525  99.0000        237     120.5847
 0.00    886.5468  99.0000    -65.75012   1500.5457   3.01     1.461     1.296  99.0000        238     85.05805
 0.00    885.8094  99.0000    -170.7413    339.2329 -50.57     1.330     0.893  99.0000        239     70.96505
 5.88    879.0529  22.2834     202.5941   1177.1078  78.38     1.941     1.680   0.8518        240      158.906
 4.58    878.3823  22.8406      121.267    960.6887  83.41     1.256     1.192   0.7466        241     83.37357
 0.00    879.8236  99.0000    -47.59949    673.3711   4.42     0.996     0.374  99.0000        242     64.14005
 0.00    877.6362  99.0000    -59.67456    541.8445 -68.79     0.889     0.666  99.0000        243      57.1208
 4.43    870.1768  23.2508     83.11292   1103.6156 -61.56     2.074     1.779   1.6617        244     127.1694
 3.50    860.0833  21.6510     362.7507   1224.4911 -47.68     2.319     2.159   0.3485        245     116.3944
 5.29    868.6845  22.5536     157.9586    939.5432  25.12     1.995     1.411   0.9137        246     132.8969
 0.00    870.6064  99.0000    -26.05603    643.5370 -54.39     1.037     0.813  99.0000        247     70.46352
 0.00    889.3626  99.0000    -124.6947    325.6322  17.18     1.630     1.281  99.0000        248     84.22002
 7.64    867.6809  24.9672     17.10522    454.3147  45.23     0.563     0.341   3.1179        249     49.10829
 0.00    892.3138  99.0000    -40.26282   1453.3175 -44.80     0.562     0.341  99.0000        250     29.17467
 8.00    898.5093  25.1051     15.06494    987.5135  45.27     0.505     0.495   4.3780        251     60.73192
 0.00    881.0706  99.0000    -120.8347   1592.5045 -66.40     2.127     1.980  99.0000        252     108.1826
 0.00    900.5183  99.0000    -60.18127    379.4817 -45.00     0.511     0.488  99.0000        253     41.25921
 4.33    860.3961  24.9163     17.92664   1157.4747  -1.20     1.415     1.294   5.3267        254     87.92828
 6.61    861.1950  24.5209     25.80164   1554.1703  42.07     0.759     0.567   2.7686        255     65.77794
 4.62    859.2386  24.1088     37.71082   1339.8370 -46.16     1.590     1.265   2.8180        256     97.85482
 0.00    894.8569  99.0000    -40.41858   1425.8367 -39.54     1.211     1.023  99.0000        257     71.46306
 0.00    856.4521  99.0000    -35.53711    545.3185  83.02     1.014     0.653  99.0000        258     47.64204
 6.69    845.8800  21.9351     279.2399   1206.5642  85.17     1.807     1.294   0.5941        259     152.7613
 4.64    845.9662  25.5293     10.19226   1063.6742  89.16     1.197     1.105   8.4181        260     79.00538
 0.00    847.6516  99.0000    -19.86316    358.7094 -47.94     0.564     0.339  99.0000        261     54.58081
 4.01    844.1765  23.4735     67.70361   1106.0085  18.02     1.649     1.396   1.4550        262     90.70773
 0.00    838.6929  99.0000    -10.08472   1247.0768 -32.77     2.123     1.570  99.0000        263     146.1163
 3.50    837.3973  24.4438     27.70105    298.6949 -26.40     1.378     1.249   2.6824        264     68.42067
 5.57    837.5710  23.6097     59.72205   1520.2875   7.21     0.957     0.484   1.0610        265     58.34934
 0.00    836.5140  99.0000     -68.3075    819.0198  -0.57     1.082     0.929  99.0000        266     65.23655
 0.00    823.7377  99.0000    -47.02344    654.3710 -54.11     1.702     1.624  99.0000        267     86.70982
 0.00    820.7242  99.0000     -105.861   1398.2626 -45.46     1.033     0.755  99.0000        268      74.3811
 6.21    819.5537  23.5918     60.71399    702.4227  75.71     0.930     0.814   1.4528        269     81.21884
 0.00    803.8622  99.0000    -9.620605   1378.6096 -21.73     1.740     1.702  99.0000        270     89.13009
 3.50    799.2562  27.5357     1.605957    695.5490 -86.67     2.594     1.857  77.0436        271     113.9307
 0.00    801.5494  99.0000    -67.19446     41.1097 -47.21     1.556     1.367  99.0000        272     76.72809
 3.50    786.3645  27.6242     1.480225   1348.2412  16.84     0.742     0.450  22.2787        273     30.36596
 0.00    774.9242  99.0000    -380.0094   1427.4871 -80.02     2.969     2.204  99.0000        274     180.2387
 0.00    767.5738  99.0000    -188.5614    391.7379 -67.87     1.399     1.279  99.0000        275     70.46352
 0.00    768.5201  99.0000    -116.0466    140.3967 -55.99     1.096     0.753  99.0000        276     90.31591
 0.00    759.9716  99.0000    -40.57703   1020.4913  57.79     0.794     0.314  99.0000        277     60.73192
 0.00    758.7314  99.0000    -4.370605   1341.6193 -19.11     0.999     0.595  99.0000        278     92.25841
 0.00    755.4391  99.0000    -160.6193    195.3306  50.93     1.281     0.507  99.0000        279     93.40452
 0.00    754.6496  99.0000    -17.47876    433.6602 -45.40     0.587     0.327  99.0000        280       43.762
 0.00    753.2500  99.0000    -8.005615   1080.7517 -18.40     0.867     0.354  99.0000        281     67.90035
 0.00    743.5427  99.0000    -1.846802    556.2998 -21.20     1.383     1.282  99.0000        282     78.55521
 0.00    724.9424  99.0000    -79.16858    404.7045 -46.93     2.406     2.206  99.0000        283     120.2902
 0.00    738.9064  99.0000    -27.76648   1157.9508   1.73     1.220     1.143  99.0000        284     86.29984
 0.00    736.8120  99.0000    -243.7246    649.5158 -57.46     1.284     1.211  99.0000        285     106.5308
 3.50    727.4276  23.2563     82.69373    848.3037 -42.83     2.120     2.006   1.4078        286     107.1946
 4.33    728.2363  22.6903     139.2799   1178.2656 -71.71     1.497     1.275   0.6981        287     89.52711
 6.81    740.3104  23.9132     45.15649   1272.3551 -43.06     0.576     0.333   1.0525        288       43.762
 0.00    722.1498  99.0000    -5.586548   1394.6674  67.01     1.174     1.065  99.0000        289     107.8542
 0.00    716.7179  99.0000    -311.6398    808.2800 -58.15     1.484     1.251  99.0000        290     82.08752
 0.00    709.5805  99.0000    -1.670898   1163.7408  10.74     1.443     1.381  99.0000        291      110.132
 4.50    704.9365  22.4239     178.0126   1339.0225 -35.32     1.746     1.681   0.7007        292     114.8608
 3.50    707.9461  25.4922     10.54651    794.6355  86.27     0.715     0.646   3.5757        293      34.7248
 0.00    703.4935  99.0000    -94.14026    952.2862 -18.86     1.625     1.545  99.0000        294     93.02405
 0.00    699.7203  99.0000     -27.5979    582.8018   2.02     1.869     0.964  99.0000        295     89.92237
 5.28    692.6083  99.0000   -0.5230713   1213.5952  57.54     1.506     1.276  99.0000        296      46.1292
 5.60    687.6442  21.0795     614.0489   1213.6564 -40.15     1.307     0.976   0.1266        297      71.6092
 4.40    693.6906  25.4382     11.08472   1316.2979  45.71     0.551     0.345   2.8583        298     29.17467
 0.00    692.8769  99.0000    -118.5092    316.1330  48.88     0.828     0.663  99.0000        299     65.77794
 4.67    684.0256  23.7047     54.71619    472.4936  52.83     2.910     2.718   3.9059        300     196.7939
 3.57    686.2902  23.6536     57.35291    644.0512  42.53     1.531     1.435   1.4960        301     79.00538
 0.00    688.1401  99.0000    -6.575073    130.8793  46.46     0.805     0.656  99.0000        302     36.71066
 4.57    682.3370  24.6848     22.18665    543.4663 -63.27     2.121     1.519   6.0165        303     122.9151
 0.00    673.8572  99.0000    -18.76929    231.1585  61.85     1.162     0.421  99.0000        304     55.86524
 0.00    669.7614  99.0000     -21.0354   1221.3247 -22.02     0.974     0.859  99.0000        305     92.64202
 6.71    667.3170  24.2544     32.97888   1180.0011   2.17     0.731     0.668   2.2701        306     68.93706
 3.50    649.1271  23.0414     100.7911   1464.2974 -58.66     2.075     1.942   1.1334        307     105.1908
 0.00    655.4444  99.0000    -64.53125    870.9727   6.69     1.205     1.054  99.0000        308     83.37357
 3.50   1551.7955  22.9804     106.6166   1221.6729 -32.21     1.026     0.978   0.5288        309     51.91671
 0.00    646.8544  99.0000    -5.927734    652.7488  27.70     0.962     0.824  99.0000        310     55.22676
 3.50    640.5812  22.3335     193.4661    536.7190 -68.30     1.775     1.691   0.5092        311     90.70773
 7.03    642.0137  23.5225      64.7124    276.5096 -87.93     0.787     0.499   1.0948        312     65.23655
 0.00    631.7795  99.0000    -98.16699    805.9449 -67.46     1.254     1.124  99.0000        313     90.31591
 0.00    629.6339  99.0000    -54.92639    941.6058 -21.03     1.042     0.326  99.0000        314      40.3905
 5.45    624.2540  23.0241     102.4176   1581.3296 -24.63     1.442     1.261   1.1712        315     110.4535
 0.00    619.1545  99.0000    -21.81274   1151.0912  43.65     1.117     0.934  99.0000        316     106.5308
 0.00    616.4916  99.0000    -46.50586   1234.5254 -74.41     0.500     0.499  99.0000        317     55.86524
 0.00    610.1631  99.0000    -91.25232    944.9097  41.60     0.839     0.661  99.0000        318     82.51842
 0.00    608.4720  99.0000    -51.09045   1011.9153   4.20     0.785     0.497  99.0000        319     33.68801
 3.50    606.2894  22.4686     170.8218    586.0947 -31.41     1.357     1.343   0.4448        320      69.9584
 0.00   1562.1376  99.0000    -58.92847    861.4935   5.33     1.262     1.158  99.0000        321     61.88882
 0.00   1529.5508  99.0000    -25.88989    733.3308  32.68     1.023     0.681  99.0000        322     75.32867
 5.15    589.1851  24.8108     19.75513   1139.4061  71.47     0.742     0.454   2.3608        323     42.94395
 0.00   1566.7651  99.0000    -228.5685    784.6982 -84.12     1.821     1.377  99.0000        324      117.908
 0.00   1581.9138  99.0000    -10.16846   1414.7047  68.45     1.253     0.472  99.0000        325     65.77794
 3.51   1553.5024  21.6608      359.476    682.1384 -29.96     4.698     3.910   0.6760        326     223.7782
 0.00   1585.7356  99.0000    -9.773804   1108.8071 -45.53     1.410     1.206  99.0000        327     67.90035
 3.50   1564.5630  23.0290     101.9507    304.2780 -45.84     1.966     1.875   1.0653        328     100.0057
 0.00   1542.6790  99.0000     -107.871    135.1462 -57.03     1.585     1.524  99.0000        329     81.65434
 0.00   1576.4824  99.0000    -87.68298   1491.4977  44.73     0.516     0.483  99.0000        330     55.86524
 3.50   1586.8705  22.8866     116.2377   1069.2076 -26.32     0.977     0.733   0.4164        331     44.56504
 3.50   1558.8706  22.8372     121.6506    487.7123 -43.24     1.943     1.876   0.8864        332     99.29394
 0.00   1562.9105  99.0000    -38.22559   1566.5850 -28.67     1.434     0.440  99.0000        333     41.25921
 0.00   1565.3141  99.0000    -18.38293    386.6744  64.22     0.775     0.483  99.0000        334     73.42131
 3.50   1567.4845  21.1116     596.1693     22.0536 -35.09     1.501     1.336   0.1372        335     75.32867
 0.00   1546.9426  99.0000    -46.48816    863.4279  79.12     1.442     1.277  99.0000        336     70.96505
 4.21   1536.6472  23.2983     79.55444   1429.4083 -57.98     1.567     0.952   1.0537        337     77.18892
 0.00   1543.5000  99.0000    -124.0739    654.6492 -44.43     1.543     1.391  99.0000        338     83.37357
 7.78   1477.6925  24.0871     38.47498    198.6753 -44.09     0.562     0.341   1.4654        339     51.91671
 4.68   1533.0137  24.0729     38.97876    415.7943 -28.03     1.657     1.117   2.6129        340     93.78344
 4.87   1519.6189  23.6713     56.42566     84.3914  80.11     1.501     0.882   1.5882        341     82.51842
 7.56   1502.3057  23.5966     60.44556   1412.6653  43.54     0.566     0.339   0.8823        342     49.10829
 0.00   1525.2084  99.0000    -3.120605    378.9753  80.66     1.380     0.702  99.0000        343     86.29984
 0.00   1539.6632  99.0000    -2.657593    263.3266  45.45     0.576     0.334  99.0000        344       43.762
 7.05   1527.5273  22.7066     137.2059    878.5313  49.71     0.500     0.498   0.4055        345     51.22904
 0.00    951.5252  99.0000    -346.2865    654.1403  78.51     2.123     1.347  99.0000        346     144.6526
 6.67   1504.6394  22.9995     104.7632   1312.1968 -60.46     1.233     0.361   0.6930        347     66.84756
 0.00   1508.0370  99.0000    -29.93677    269.3830 -51.48     1.875     1.773  99.0000        348     95.28407
 0.00   1521.7552  99.0000    -7.351074   1100.5942 -83.82     0.997     0.482  99.0000        349     68.93706
 4.14   1515.3909  23.0540     99.62964    483.6699 -45.90     1.145     1.021   0.7170        350     65.77794
 0.00   1499.2957  99.0000    -49.99219    844.5074  14.72     1.147     0.828  99.0000        351     81.65434
 0.00   1497.3391  99.0000    -22.95898    930.6786  45.79     0.575     0.335  99.0000        352     50.53201
 5.15   1504.9111  23.6420     57.97144    723.3754 -14.58     1.267     1.119   1.7138        353     91.48636
 5.01   1483.2747  24.7255     21.37061    575.1030 -33.51     1.906     1.010   5.2766        354     103.8334
 0.00    977.4967  99.0000    -16.43726   1280.5354  84.64     0.500     0.499  99.0000        355     41.25921
 0.00    953.0150  99.0000   -0.4627686     61.2813 -34.44     1.174     0.434  99.0000        356     50.53201
 0.00    979.2097  99.0000    -78.13403    452.6703  73.39     1.079     0.952  99.0000        357     82.51842
 0.00    982.8316  99.0000    -15.95691   1487.1891 -47.73     0.766     0.557  99.0000        358     55.86524
 0.00    972.4925  99.0000   -0.5040283   1499.4553 -53.16     0.502     0.495  99.0000        359     60.14512
 6.56   1489.0807  23.0089     103.8621     77.8819 -75.41     0.962     0.688   0.8447        360     80.78101
 0.00   1476.3274  99.0000    -90.93188    998.5892  -9.60     1.603     0.944  99.0000        361     100.0057
 4.69    987.5121  23.9342     44.29053    453.9747  88.37     1.715     1.484   2.7318        362     111.4126
 0.00    965.8497  99.0000    -87.43079    416.2971 -35.18     1.233     0.947  99.0000        363     56.49651
 4.19   1479.4890  24.7251     21.37805    638.4839  46.79     0.501     0.499   1.4821        364     29.17467
 0.00   1439.3828  99.0000    -80.54443   1271.1970  84.54     1.095     0.914  99.0000        365     80.78101
 0.00    985.6581  99.0000     -37.8147    558.4474 -60.54     1.860     1.774  99.0000        366     94.16084
 3.50    998.9910  24.1396      36.6571    233.2787 -18.29     1.047     0.720   1.3436        367     45.35387
 0.00    981.6761  99.0000    -35.87048    797.9857 -22.91     1.536     1.395  99.0000        368     126.6105
 4.79   1407.2278  22.9104      113.725    329.8878  77.17     1.283     1.109   0.8241        369     86.29984
 5.76   1453.8417  23.7939     50.40039    391.7621  21.98     1.190     0.813   1.8238        370     84.64007
 0.00   1060.6309  99.0000    -124.1837    726.9678  18.85     1.586     1.368  99.0000        371     94.16084
 5.67    993.0269  24.7775     20.37109    500.0000  90.00     0.838     0.289   2.1533        372      40.3905
 0.00   1065.3551  99.0000    -49.39783    292.5060  -0.67     0.931     0.478  99.0000        373     52.59538
 0.00    992.5980  99.0000    -32.99146      9.8381  20.92     0.779     0.432  99.0000        374     55.22676
 0.00   1063.8134  99.0000    -113.4711      7.4519 -49.92     1.309     0.988  99.0000        375     59.55255
 0.00   1439.4318  99.0000    -8.288696    646.8270  47.40     1.087     0.718  99.0000        376     76.72809
 3.50   1436.1301  22.9615     108.4926    224.7948 -34.44     1.604     1.459   0.8086        377     80.78101
 0.00   1440.6519  99.0000    -100.3367    619.1653   9.05     1.445     1.337  99.0000        378     73.42131
 0.00   1084.5770  99.0000    -53.97522     43.0163  33.22     1.129     1.014  99.0000        379     55.86524
 8.23   1450.7783  23.7147     54.21545     88.3631 -73.90     0.748     0.452   1.4414        380     71.95762
 3.50   1386.5995  25.4647     10.81726   1274.1162 -79.55     1.184     0.678   4.7830        381     47.64204
 0.00   1073.9574  99.0000    -9.070312      6.6659 -10.48     1.253     1.042  99.0000        382     59.55255
 3.50   1435.2332  24.1277     37.06091   1090.4421 -47.26     2.094     1.972   3.1314        383     106.8632
 0.00   1432.6862  99.0000    -175.2264    341.5507  -7.52     1.510     1.030  99.0000        384     135.8007
 6.66   1069.3281  26.1147     5.944824   1182.6630  44.61     0.577     0.334   7.9944        385       43.762
 0.00   1416.2998  99.0000    -89.74902   1386.6493  19.76     1.425     1.377  99.0000        386     80.34077
 3.50   1389.6022  24.9203     17.86035   1428.5128 -35.92     1.644     1.588   5.1210        387     84.22002
 4.22   1437.3093  23.0589     99.18103   1347.0366  73.00     1.028     0.724   0.5905        388     53.92712
 3.50   1067.5095  24.3206     31.02905    568.8696 -74.17     1.051     0.731   1.6412        389     46.89172
 0.00   1079.9409  99.0000     -95.0415    330.0615 -62.65     1.125     0.943  99.0000        390     69.44961
 3.52   1393.0532  25.9363     7.005859   1038.7660  36.71     1.381     1.366  11.0777        391     71.46306
 0.00   1066.6592  99.0000    -89.05847   1597.1162  36.70     1.159     0.981  99.0000        392     64.14005
 0.00   1072.8472  99.0000    -36.21814   1219.1344 -71.81     2.172     1.586  99.0000        393     145.8734
 0.00   1414.8446  99.0000    -1.061401      1.3369  76.87     1.069     0.416  99.0000        394     53.92712
 3.50   1420.1652  25.5257     10.22632   1126.3615 -58.87     1.926     1.752  10.2367        395     96.39422
 4.51   1360.4252  99.0000    -474.6344   1135.0798  85.51     6.676     5.131  99.0000        396     188.5099
 0.00   1079.6525  99.0000    -11.93579    921.6893 -46.67     0.573     0.335  99.0000        397     47.64204
 0.00   1412.1393  99.0000    -20.88513    350.1120  23.37     1.424     1.101  99.0000        398     105.1908
 0.00   1409.1057  99.0000    -166.3978    308.4276  -7.76     1.523     1.467  99.0000        399     78.10243
 3.50   1367.0492  23.9261     44.62488   1159.7756 -48.42     3.323     3.056   4.0632        400     166.9597
 0.00   1162.6458  99.0000    -42.19836    887.7574 -42.33     1.404     1.128  99.0000        401     64.69062
 0.00   1096.1305  99.0000    -39.23682   1526.4138 -79.64     1.384     1.254  99.0000        402     93.40452
 5.79   1401.4601  24.1213     37.28174   1031.5901  46.87     1.406     1.196   3.2547        403     111.7305
 3.50   1394.2668  22.0581      249.317    114.4738 -48.42     2.040     1.936   0.4538        404     104.1744
 0.00   1389.5433  99.0000    -25.95776    806.6446   0.13     0.949     0.941  99.0000        405     91.09788
 0.00   1391.2551  99.0000    -59.04333    713.2373  26.66     1.497     1.456  99.0000        406     91.48636
 6.13   1388.2180  23.8215      49.1366   1384.9540   1.83     0.696     0.413   1.1012        407     49.82523
 5.41   1388.9937  23.9444     43.87732   1584.7758 -89.72     0.686     0.417   1.0831        408       43.762
 5.53   1380.3506  23.1379     92.22131    318.5949  -4.36     1.034     0.628   0.7934        409     67.37601
 0.00   1094.4969  99.0000    -137.0051    429.0226  -2.01     0.796     0.500  99.0000        410     79.00538
 5.88   1371.3206  23.0394      100.984    705.8511 -32.13     1.214     0.408   0.6656        411     61.88882
 3.74   1371.5497  25.3782     11.71399   1215.7539  21.02     0.718     0.456   3.0240        412     32.61827
 7.57   1353.2751  24.4295     28.06616    152.0077  17.83     1.231     1.094   5.1009        413     131.8252
 0.00   1157.6599  99.0000    -73.25317    568.3308  45.39     0.579     0.332  99.0000        414     60.14512
 0.00   1105.3257  99.0000    -138.4092    751.8358 -44.66     1.770     1.620  99.0000        415     89.13009
 3.50   1373.4700  24.5372     25.41589   1018.9562 -23.41     1.815     1.707   3.9585        416     92.64202
 7.83   1260.4321  20.3765     1173.307   1015.6125  58.28     1.971     1.064   0.0834        417     90.05285
 5.52   1294.2798  22.7990      126.005    742.2533  72.75     1.481     1.308   0.9846        418     114.2416
 3.50   1292.2153  23.0059     104.1464    762.1052 -25.95     2.162     1.723   1.0575        419     101.4143
 0.00   1369.4689  99.0000     -76.2251    149.4737  17.40     0.499     0.499  99.0000        420      57.1208
 0.00   1131.8344  99.0000    -369.8528    359.0297  34.13     1.138     1.043  99.0000        421     113.3064
 0.00   1130.7366  99.0000    -21.06885    183.5802 -57.92     1.787     1.711  99.0000        422     91.48636
 0.00   1331.2352  99.0000    -173.9957    386.9082   1.03     1.306     0.996  99.0000        423     89.92237
 0.00   1139.3163  99.0000    -24.26099    148.0981 -46.09     1.899     1.811  99.0000        424     97.12727
 0.00   1346.4969  99.0000    -36.62097    605.5798 -50.92     1.185     0.774  99.0000        425     71.95762
 4.18   1308.3901  22.4752     169.7996    669.6346 -12.17     1.506     1.500   0.5925        426     92.64202
 5.12   1333.5925  22.1336     232.5803    107.4225 -28.91     1.327     1.156   0.4432        427     94.91114
 0.00   1090.0750  99.0000    -123.3213    642.4633 -46.35     1.578     1.413  99.0000        428     79.00538
 3.50   1320.9133  23.1056     95.00806    659.9951 -43.03     1.941     1.824   1.1309        429     98.93612
 0.00   1331.2213  99.0000    -34.19739   1139.4135 -89.82     1.767     1.445  99.0000        430     121.4638
 5.43   1320.0242  21.8895     291.2006    264.0417 -45.50     1.309     1.038   0.3526        431     94.53674
 0.00   1330.7634  99.0000    -98.10266    655.8417   4.85     1.684     1.650  99.0000        432     68.93706
 3.78   1278.8961  26.3088     4.971436   1331.4630 -56.91     1.622     1.533  19.5570        433     89.52711
 3.83   1305.5667  22.5028      165.532    892.8640  77.78     1.231     1.139   0.4489        434     68.42067
 0.00   1245.3409  99.0000    -86.34497    614.2117  55.72     1.066     0.800  99.0000        435     74.85639
 3.50   1299.2703  21.6718     355.8669    724.8672 -47.60     2.192     2.053   0.3410        436     111.7305
 4.36   1308.5709  22.4315     176.7651   1036.2755 -36.97     2.662     1.897   0.8992        437     146.3588
 0.00   1307.6787  99.0000    -34.58264    574.6574 -44.07     0.576     0.334  99.0000        438     54.58081
 3.90   1273.5858  23.8315     48.68555    610.0049 -58.39     4.226     2.471   4.1797        439     187.3777
 0.00   1300.2339  99.0000    -153.8352     54.0051 -29.97     1.122     0.858  99.0000        440     63.02449
 0.00   1263.1622  99.0000    -48.73816    215.8559 -41.55     0.728     0.565  99.0000        441     37.66434
 0.00   1292.0193  99.0000    -34.83301    545.9752 -45.38     0.899     0.525  99.0000        442     52.59538
 3.50   1293.9078  23.3123     78.53467    412.7370  23.44     1.287     1.129   0.8558        443     61.88882
 4.35   1260.2809  26.6296     3.699585    432.4522 -61.87     1.924     1.810  35.3108        444     120.2902
 0.00   1278.3990  99.0000    -18.09094    343.4074  -1.19     0.918     0.658  99.0000        445     69.44961
 0.00   1274.1146  99.0000     -35.2074    698.3151 -74.17     1.243     0.866  99.0000        446     82.51842
 0.00   1158.6622  99.0000    -40.03149    186.2973  47.11     0.563     0.340  99.0000        447     55.22676
 0.00   1266.2653  99.0000    -37.94934    807.8691 -34.50     1.553     1.437  99.0000        448     78.55521
 0.00   1213.6493  99.0000    -114.2731   1429.3060  77.16     2.725     2.083  99.0000        449     200.5427
 5.86   1238.9690  23.3589     75.23608    857.0435 -50.04     0.811     0.782   1.0098        450      69.9584
 5.05   1131.0317  22.5882      153.014    219.3827 -20.53     1.568     1.132   0.7098        451     100.0057
 0.00   1235.1206  99.0000    -142.2784    304.8844 -70.00     1.601     1.472  99.0000        452      85.8879
 0.00   1230.6104  99.0000    -261.0182    599.0931  13.10     1.561     1.462  99.0000        453     149.2383
 5.15   1203.8763  21.8176     311.1458   1075.5712  37.43     2.022     1.572   0.4776        454     136.8413
 0.00   1238.0283  99.0000    -56.31604   1553.5206 -12.61     1.431     1.370  99.0000        455     73.90276
 3.66   1243.3585  24.3462     30.30627    672.6531 -75.48     1.362     1.197   2.5069        456      69.9584
 0.00   1222.2170  99.0000     -104.701    995.1972 -29.50     6.401     5.215  99.0000        457     302.2549
 0.00   1211.9683  99.0000    -53.89209    829.0000  90.00     0.845     0.289  99.0000        458      40.3905
 0.00   1215.4215  99.0000    -29.35413    513.0118 -59.01     1.744     1.692  99.0000        459     88.73129
 4.69   1154.6307  22.9476     109.8904   1353.0853 -56.52     1.612     1.412   1.0295        460     104.1744
 3.50   1219.7524  18.3540     7558.171   1195.0623  47.81     1.918     1.903   0.0144        461     100.0057
 5.03   1229.3567  23.3637      74.9093   1153.9326 -13.34     1.229     0.989   1.2025        462      82.9471
 0.00   1208.4735  99.0000    -185.0287    838.8270 -35.35     1.394     1.273  99.0000        463     69.44961
 5.23   1195.7808  24.5584      24.9259    124.2719  85.27     1.875     1.703   6.0961        464     139.9168
 4.55   1205.1183  26.6474     3.639526   1217.1880 -44.51     0.858     0.657  15.4915        465     51.91671
 0.00   1262.9902  99.0000    -50.09155    855.3846   0.11     1.019     0.768  99.0000        466     64.14005
 0.00   1202.6338  99.0000    -272.5187    339.0765 -83.95     1.516     1.396  99.0000        467     95.65556
 4.00   1238.4276  23.4259     70.73511     48.1247 -11.79     1.158     0.950   0.9676        468     63.02449
 0.00   1028.6923  99.0000    -111.9307    463.6869 -44.70     0.557     0.343  99.0000        469     36.71066
 3.50   1211.5623  21.7047     345.2523   1279.0439  81.01     5.652     3.475   0.7298        470     232.0258
 0.00   1182.5493  99.0000    -43.00684    176.5511   8.16     1.425     0.969  99.0000        471       98.577
 5.57   1159.2971  25.1483     14.47754    970.3315 -43.15     0.560     0.341   2.7538        472     36.71066
 4.80   1183.5492  22.8218     123.3845    673.2097 -21.31     1.027     0.930   0.6202        473     70.46352
 0.00   1130.0508  99.0000     -97.3136    547.4385 -65.12     1.184     1.024  99.0000        474     68.93706
 0.00   1152.1665  99.0000    -12.03552     99.4363  -5.07     1.309     1.208  99.0000        475     66.31491
 7.58   1167.6770  23.1098     94.63684   1599.3630  46.34     0.885     0.518   0.6834        476     59.55255
 3.50   1165.9740  21.9389     278.2606   1299.8141 -73.19     1.994     1.896   0.3917        477     100.3597
 4.29   1134.6660  25.4626     10.83801    607.3837 -45.52     0.986     0.862   6.0267        478     60.14512
 3.70   1173.1541  23.9712      42.8064    757.8781 -78.56     3.576     3.345   4.8394        479     190.7542
 0.00   1152.4623  99.0000    -110.4359    693.8153 -37.57     3.504     3.217  99.0000        480     175.2505
 6.77   1169.6912  27.3309     1.939209    385.3456  43.30     0.572     0.336  24.5077        481       43.762
 0.00   1181.6404  99.0000    -24.63281    549.2858 -17.70     1.166     0.942  99.0000        482     53.92712
 3.62   1158.6710  24.0749     38.90723    236.4378 -45.47     1.660     1.640   2.5209        483     90.31591
 6.85   1197.1642  23.7656     51.73425   1053.6813  19.67     0.936     0.685   1.7049        484     81.21884
 0.00   1201.8149  99.0000    -205.5529   1442.1520 -87.53     1.659     1.491  99.0000        485     114.8608
 6.43   1178.4944  23.6293     58.65271   1597.7561  72.38     1.154     0.262   0.9738        486     52.59538
 0.00   1142.0636  99.0000    -118.9572    661.8563 -73.51     0.961     0.718  99.0000        487     87.92828
 0.00   1080.7614  99.0000    -215.6318    512.1377 -66.90     1.874     1.779  99.0000        488     94.91114
 0.00   1121.0293  99.0000      -480.05    329.8812  58.47     2.566     1.726  99.0000        489     169.4895
 0.00   1108.1862  99.0000      -117.23    427.9433 -54.08     1.692     1.627  99.0000        490      85.8879
 0.00   1111.4923  99.0000    -259.9515    479.1404  -7.99     2.159     1.548  99.0000        491     146.1163
 0.00   1115.1155  99.0000    -104.7841    674.4976 -60.84     1.343     1.079  99.0000        492     94.91114
 0.00   1095.7281  99.0000    -223.2563    778.1761 -41.61     1.938     1.855  99.0000        493     99.29394
 0.00   1091.6051  99.0000    -76.38611    468.4292 -68.10     1.906     0.987  99.0000        494     105.5274
 0.00   1105.9491  99.0000    -214.9557    679.0923  38.97     1.516     1.082  99.0000        495     84.64007
 0.00   1095.1104  99.0000    -233.9518   1136.4398 -85.66     1.091     0.933  99.0000        496     81.65434
 0.00   1082.6000  99.0000    -76.78259   1148.1749 -75.07     1.756     1.711  99.0000        497     90.31591
 0.00   1040.7959  99.0000    -52.67175    467.1765  60.45     1.002     0.638  99.0000        498     65.77794
 0.00   1085.8284  99.0000     -38.1969   1452.5986  76.35     0.929     0.621  99.0000        499     73.42131
 0.00   1066.0032  99.0000    -31.97156   1562.7290 -64.61     2.578     1.374  99.0000        500     172.3941
 0.00   1020.1995  99.0000    -114.0698   1267.6206  25.73     0.733     0.656  99.0000        501     80.34077
 5.27   1004.8460  24.3195     31.06018   1237.8386  49.76     0.764     0.567   1.8152        502     51.91671
 7.53   1052.5183  20.9837     670.6672    238.0324  26.05     1.259     0.570   0.1549        503     95.65556
 0.00   1030.9935  99.0000    -62.08496    302.5808  71.36     2.461     1.757  99.0000        504     108.5099
 0.00   1001.6425  99.0000    -28.75769   1025.6887 -46.97     0.578     0.332  99.0000        505     37.66434
 0.00   1044.5297  99.0000    -14.33704    809.4821 -44.15     0.509     0.490  99.0000        506     60.73192
 0.00   1039.5049  99.0000    -17.29749    525.3945 -59.24     1.681     1.610  99.0000        507     87.52401
 0.00   1042.6610  99.0000    -131.9625   1095.3132  46.21     0.571     0.337  99.0000        508     58.34934
 3.50   1024.3846  22.9842     106.2466     50.1910 -43.62     2.321     2.148   1.1990        509     117.3049
 3.50   1041.0366  24.5412     25.32251    633.0386 -49.21     1.900     1.824   4.1967        510     97.85482
 0.00   1026.5739  99.0000     -222.204   1379.9857 -68.53     1.930     1.815  99.0000        511     97.85482
 0.00   1038.8489  99.0000    -69.91968    121.9955 -35.31     2.009     0.803  99.0000        512     105.5274
 0.00   1010.6155  99.0000    -160.6892    813.6567 -57.65     1.843     1.780  99.0000        513     93.40452
 5.79   1026.6541  24.5279     25.63525   1028.6674 -45.54     0.582     0.330   1.6350        514     38.59446
 0.00   1038.3229  99.0000    -13.19897    242.3527 -43.78     0.581     0.331  99.0000        515      46.1292
 0.00   1014.3884  99.0000    -49.49402    453.2856 -71.18     0.977     0.589  99.0000        516     61.88882
 3.50   1012.0173  22.7507     131.7401    344.6626 -58.15     1.552     1.358   0.6363        517     77.18892
 0.00   1000.6549  99.0000    -216.3374   1273.9332 -43.42     1.549     1.290  99.0000        518     83.79786
 0.00   1002.4809  99.0000    -228.4949    542.4350  72.62     1.531     1.462  99.0000        519     80.78101
 0.00   1020.8218  99.0000    -15.54065   1154.6001  71.58     0.761     0.450  99.0000        520     53.92712
 0.00   1011.5944  99.0000    -25.58582    268.0587 -42.84     1.170     0.663  99.0000        521     55.86524
