#   1 KRON_RADIUS            Kron apertures in units of A or B                         
#   2 Y_IMAGE                Object position along y                                    [pixel]
#   3 MAG_BEST               Best of MAG_AUTO and MAG_ISOCOR                            [mag]
#   4 FLUX_BEST              Best of FLUX_AUTO and FLUX_ISOCOR                          [count]
#   5 X_IMAGE                Object position along x                                    [pixel]
#   6 THETA_IMAGE            Position angle (CCW/x)                                     [deg]
#   7 A_IMAGE                Profile RMS along major axis                               [pixel]
#   8 B_IMAGE                Profile RMS along minor axis                               [pixel]
#   9 MAGERR_BEST            RMS error for MAG_BEST                                     [mag]
#  10 NUMBER                 Running object number                                     
#  11 FLUXERR_BEST           RMS error for BEST flux                                    [count]
 3.50      8.5337  16.2155     54175.25    753.8251  60.49     1.375     1.363   0.0009          1     47.28382
 3.98     33.6869  18.2147     8592.351    450.4712 -45.79     1.232     1.145   0.0059          2     46.95431
 8.71     69.8053  19.0355     4034.565   1463.4071 -71.30     0.761     0.450   0.0137          3     50.76745
 9.38     96.1218  17.6675     14223.47   1125.8981 -76.47     0.992     0.705   0.0059          4     77.21416
 3.72     95.9752  16.5954     38180.86    917.6512   8.18     1.345     1.282   0.0014          5     48.25885
 3.67     95.3703  19.2244     3390.461    347.6633 -41.15     0.970     0.857   0.0104          6      32.4927
 6.46    107.2876  19.3656     2976.769     47.8193 -73.14     1.074     0.656   0.0196          7     53.73878
 5.82    126.5465  19.6768     2234.989    301.4945  36.21     0.502     0.495   0.0143          8     29.48664
 3.50    151.7228  17.4220     17831.52     46.1761  12.84     1.247     1.146   0.0025          9     41.70041
 6.17    144.6546  29.5658    0.2475586    213.2779  48.77     0.557     0.341 119.7578         10     27.29933
 6.89    159.4227  18.8868     4626.798     50.8405  64.72     1.123     0.576   0.0127         11     54.02692
 3.50    213.1703  13.8967     458465.6    967.8254   6.11     1.690     1.644   0.0001         12      57.3719
 3.72    186.2118  18.1366     9233.621    378.7480  -8.72     1.115     1.041   0.0047         13     39.79527
 8.58    184.6100  19.0355     4034.626   1263.2317 -17.68     0.736     0.455   0.0132         14     48.89806
 4.25    205.7045  19.4563     2738.386    986.0535   7.47     0.713     0.672   0.0113         15     28.41404
 3.77    206.9375  19.0694     3910.603     21.8411  -5.76     0.908     0.735   0.0085         16     30.52157
 3.50    238.2898  14.4652     271602.3   1390.1582  -3.69     1.593     1.538   0.0002         17     54.02692
 3.50    225.9340  17.3985     18222.31   1093.7515  -6.04     1.211     1.140   0.0024         18     39.79527
 8.08    219.6556  19.9377     1757.594   1021.6714 -45.65     0.580     0.332   0.0223         19     36.11361
 6.60    227.1519  18.7566     5216.203    975.7388  23.84     0.947     0.665   0.0108         20     51.67679
 6.70    237.4840  19.7724      2046.66    837.9660   0.46     0.799     0.500   0.0217         21     40.94899
 4.65    243.6980  18.6382     5817.415    567.0759   5.73     1.012     0.867   0.0080         22     42.80281
 4.93    248.5117  18.8765     4670.971    578.0966  76.98     0.974     0.870   0.0105         23     45.27081
 4.06    259.9771  17.8206     12352.24   1427.0297  32.54     1.079     1.060   0.0038         24     43.52224
 6.18    287.5581  17.6032     15090.41   1328.6306 -75.04     1.710     1.123   0.0061         25     84.14217
 6.90    279.9722  19.9448     1746.071   1129.0000  90.00     0.842     0.289   0.0193         26      31.0261
 3.50    282.1113  19.4784     2683.158    955.6761  18.33     0.884     0.682   0.0108         27     26.72454
 4.51    314.7289  18.8705     4696.773    793.1882  -7.86     1.095     0.833   0.0098         28     42.43853
 7.99    324.9998  21.0304      642.467    290.0000  90.00     0.820     0.289   0.0659         29     39.00716
 3.98    333.7581  18.2788     8100.173    789.7813 -85.07     1.149     1.032   0.0057         30     42.80281
 3.85    339.0500  17.1980     21918.48    596.8334  21.31     1.347     1.203   0.0024         31     48.25885
 3.50    374.9164  14.3470       302820   1263.4199 -11.08     1.642     1.558   0.0002         32     56.00245
 6.01    362.1308  19.2522     3304.495    709.0848 -45.63     0.858     0.668   0.0148         33     44.92654
 5.33    361.2755  21.1963     551.4391    640.6434  40.68     0.560     0.339   0.0466         34     23.64191
 6.53    364.4894  19.8075     1981.602    504.5386 -48.87     0.504     0.494   0.0173         35     31.52255
 6.31    375.8721  18.0733     9787.523   1364.7144 -44.39     1.518     1.170   0.0092         36     82.84045
 5.69    373.6692  26.0178     6.499756   1563.6791 -45.47     0.571     0.337   4.1638         37     24.92076
 4.26    390.4198  18.6567     5718.821   1463.5830 -51.15     1.057     0.829   0.0075         38     39.40318
 4.41    393.4999  19.8691     1872.193   1318.5051 -45.08     0.505     0.495   0.0129         39     22.28981
 7.72    402.7296  18.9175     4497.783    825.3961 -72.26     0.749     0.454   0.0108         40     44.57961
 3.50    414.5235  17.4138      17967.9     67.9640 -88.51     1.241     1.170   0.0025         41     41.70041
 3.50    418.0926  17.0538     25030.91   1308.7546   3.31     1.335     1.217   0.0019         42     44.22997
 0.00    434.0663  99.0000    -21.57422    658.3311  82.38     0.744     0.644  99.0000         43     23.64191
 3.50    458.7441  15.6524     90999.31     13.2296 -37.37     1.492     1.401   0.0006         44     49.52903
 6.71    452.7018  18.3580     7529.742   1221.1836  40.36     1.095     0.694   0.0085         45     58.70942
 3.50    466.9967  16.3339     48578.71   1075.5585 -20.62     1.427     1.273   0.0011         46     47.28382
 3.50    489.1604  18.2872     8037.181    574.9230 -19.29     1.101     1.035   0.0049         47     36.54101
 4.24    506.3505  18.1817     8857.604   1142.7244  14.55     1.038     0.914   0.0051         48     41.32641
 5.31    509.2778  26.4348     4.426758   1563.6588  41.37     0.555     0.342   5.8000         49     23.64191
 0.00    530.2516  99.0000    -14.97498    212.6039 -72.48     0.755     0.454  99.0000         50     36.54101
 3.50    548.4669  17.3983     18225.21    374.6524 -51.27     1.288     1.176   0.0025         51     41.70041
 8.55    538.6262  18.9011     4566.253    353.7966  17.85     0.770     0.444   0.0117         52     49.21456
 3.74    558.4240  17.3454     19136.07   1456.6426   6.24     1.280     1.147   0.0025         53     44.92654
 3.50    562.7390  16.7764     32318.91    583.6765 -16.93     1.355     1.223   0.0015         54     44.92654
 3.50    567.6361  17.0448     25239.77    956.5933  15.22     1.442     1.242   0.0020         55     46.95431
 3.73    573.9706  17.0714     24628.89   1028.8879  38.10     1.257     1.245   0.0020         56     46.28826
 7.00    580.9031  19.3418      3042.97   1366.3043  23.29     0.899     0.675   0.0193         57     54.02692
 6.26   1015.3428  24.9439     17.47595   1447.2975 -47.29     0.565     0.339   1.7314         58     27.86226
 3.50    943.5165  16.4713     42803.41    690.0786  44.57     1.322     1.305   0.0011         59     44.57961
 4.62    937.6874  18.6878     5557.307    842.4064  48.68     1.018     0.918   0.0086         60     43.87753
 3.50    920.0018  15.8472     76050.54    620.5195 -33.60     1.483     1.397   0.0007         61     49.21456
 0.00    914.4984  99.0000    -33.00964    471.5129 -45.48     0.505     0.495  99.0000         62     19.30354
 0.00    912.5112  99.0000    -17.79163    567.6704  18.28     1.466     0.550  99.0000         63     48.25885
 3.50    880.6385  14.9576     172566.9    166.1975 -41.67     1.558     1.488   0.0003         64      53.1578
 3.50    880.5171  17.5980     15163.37   1341.4749   9.62     1.209     1.098   0.0029         65     40.18352
 6.80    875.4247  18.8832     4642.046     39.7761  86.87     0.956     0.724   0.0130         66     55.72452
 5.55    874.3450  18.7719     5143.194    448.3039  43.81     0.990     0.862   0.0108         67     51.07236
 3.50    863.2215  14.1136     375458.5   1395.8429 -43.35     1.804     1.772   0.0002         68      62.0522
 3.50    850.7582  16.2561     52184.89    215.2323 -15.35     1.419     1.270   0.0010         69     46.95431
 3.50    840.5008  14.1433     365321.1    275.8560  -5.60     1.631     1.541   0.0002         70     54.31354
 0.00    829.3097  99.0000    -9.870483    910.3375 -43.66     0.569     0.338  99.0000         71     18.48173
 7.29    795.2935  21.9043     287.2576    936.6273  41.56     0.575     0.332   0.1154         72     30.52157
 3.50    787.8984  16.9419     27748.66    528.0440  -7.80     1.357     1.174   0.0017         73     44.22997
 3.50    777.6007  14.9055     181051.2    728.2275 -17.65     1.551     1.487   0.0003         74     52.27423
 3.59    771.6260  16.3013     50058.16    369.8672 -20.92     1.358     1.285   0.0010         75     46.62247
 5.83    729.6534  23.6495     57.56836   1577.3302  45.66     0.582     0.331   0.4817         76     25.53618
 7.36    723.1130  16.4314     44405.23    199.3556  77.08     1.775     1.505   0.0029         77      118.995
 4.80    710.7004  18.8842     4637.961   1354.8799  30.74     0.982     0.870   0.0101         78     43.16402
 3.50    711.4685  24.7893     20.15088    555.9477 -79.89     0.747     0.662   1.2741         79     23.64191
 5.92    703.1860  19.3561     3003.012   1040.1483 -39.52     0.792     0.684   0.0157         80     43.52224
 3.78    698.8950  18.1382     9219.667     97.0887 -20.52     1.115     1.020   0.0046         81     39.40318
 3.54    669.6442  17.9866     10601.38   1090.6628   8.72     1.047     1.002   0.0037         82      35.6811
 3.50    665.5748  13.8482     479435.8   1487.1353 -35.97     1.683     1.600   0.0001         83       56.279
 3.50    655.1586  19.1990     3470.521    312.7132 -16.37     0.942     0.825   0.0096         84     30.52157
 5.95    654.0309  19.2323     3365.662     16.6808 -78.37     0.721     0.673   0.0135         85     41.70041
 6.22    637.3861  18.3189     7806.015    871.4728 -25.80     1.153     0.959   0.0090         86     64.74604
 7.31    614.4613  19.6471     2296.987    572.5083 -37.94     0.502     0.496   0.0175         87     36.96346
 4.70    612.9728  19.7745     2042.592    590.0347   3.86     0.616     0.604   0.0145         88     27.29933
 0.00    586.6627  99.0000    -11.03613    389.6753 -45.56     0.575     0.334  99.0000         89     19.30354
 0.00   1576.1272  99.0000    -26.67712   1129.8270 -45.15     0.714     0.555  99.0000         90     22.28981
 0.00    990.9874  99.0000    -28.91492    213.5000  88.54     0.780     0.500  99.0000         91     40.94899
 4.21   1567.7410  18.4809     6724.274     19.5486 -16.06     0.948     0.896   0.0062         92     38.60708
 5.70   1560.4543  18.0743     9778.775   1362.2059 -55.20     1.014     0.892   0.0059         93     53.44908
 3.64   1462.3051  16.4034     45564.12    251.3973 -29.15     1.361     1.283   0.0011         94     47.61105
 6.87   1525.6722  23.1501     91.19067   1294.9987  28.23     0.911     0.211   0.3448         95     28.95531
 6.33   1524.5082  20.4810     1065.616   1515.4877 -45.11     0.511     0.488   0.0321         96     31.52255
 4.20   1535.6650  18.0365     10125.04    875.8801  -6.41     1.177     0.918   0.0046         97     43.16402
 3.50   1511.4844  15.6306     92841.82   1282.0679 -12.86     1.396     1.325   0.0006         98     47.61105
 3.50   1466.7014  15.4249     112212.7    534.0131   7.30     1.485     1.406   0.0005         99     50.15207
 6.98   1473.5054  19.8955     1827.326   1563.5198  45.70     0.507     0.492   0.0190        100      32.0113
 4.57    996.0776  17.9674     10790.49    145.2588 -57.67     1.157     1.067   0.0051        101     50.76745
 3.50   1416.8661  16.4226     44767.68    953.8477 -14.13     1.338     1.256   0.0011        102     45.27081
 3.50   1002.2164  16.8966     28929.46    998.0946 -24.76     1.272     1.210   0.0016        103     43.16402
 6.76   1421.0579  19.0353     4035.311   1049.7332 -84.33     0.734     0.667   0.0124        104     45.95161
 5.22   1007.1936  19.1040     3787.915   1353.1521  11.97     0.930     0.677   0.0116        105     40.56806
 5.30   1021.9153  18.5153     6514.341    106.6269  18.07     1.213     0.932   0.0093        106     55.72452
 6.91   1028.5962  18.2697     8168.076    607.5695 -21.97     1.473     0.868   0.0103        107     77.81506
 3.50   1399.4707  18.2256     8506.694    899.5739 -11.32     1.124     0.939   0.0045        108     35.24328
 3.50   1385.8469  15.7834     80658.33    907.5899 -24.23     1.459     1.308   0.0006        109     47.93604
 7.29   1341.2932  24.3550     30.06177    390.3075 -44.10     0.548     0.346   1.1026        110     30.52157
 3.50   1037.6610  21.2350     532.0863    208.6505 -44.61     0.587     0.327   0.0279        111     13.64966
 6.29   1029.7521  19.5882     2424.958    310.5815 -19.83     0.986     0.572   0.0215        112     47.93604
 8.74   1041.5128  19.7100     2167.781     23.5005  44.65     0.507     0.493   0.0216        113     43.16402
 3.50   1368.0732  17.1456     23000.64   1439.2480   4.56     1.202     1.170   0.0019        114     40.56806
 4.19   1040.8652  19.7378     2112.961   1084.6525 -77.15     1.067     0.424   0.0146        115     28.41404
 3.97   1238.0380  17.9950     10519.64    384.3324 -47.75     1.162     0.969   0.0043        116     41.70041
 4.52   1239.3766  18.6296     5863.794   1246.1620  83.09     1.113     0.816   0.0078        117     42.07109
 5.55   1308.5393  18.5344     6400.968    133.5595 -25.13     1.015     0.999   0.0092        118     54.31354
 3.50   1312.5579  15.1615     143026.4    923.8445 -14.76     1.515     1.403   0.0004        119     51.07236
 5.81   1278.6492  18.8514     4780.315    260.9317 -60.73     0.875     0.681   0.0103        120     45.27081
 6.60   1276.3993  19.6577     2274.646    569.8483 -19.92     0.734     0.448   0.0174        121     36.54101
 3.50   1285.5226  24.5750     24.54663   1127.4628 -47.20     0.505     0.493   0.8540        122     19.30354
 4.28   1249.1250  17.7862     12750.44     37.9862 -30.12     1.104     0.982   0.0037        123     43.87753
 4.32   1252.7129  18.8613     4736.695    492.8547  79.93     1.093     0.705   0.0085        124     36.96346
 6.90   1242.5549  19.2994     3163.915    865.7887  77.15     0.838     0.621   0.0168        125     48.89806
 3.50   1215.0698  14.7464     209620.1   1195.0428 -78.16     1.476     1.470   0.0003        126     51.97637
 3.50   1245.1102  15.6766      88995.4    570.5760 -22.37     1.442     1.362   0.0006        127     48.57951
 0.00   1111.9489  99.0000     -1.44165      1.8598 -42.34     0.807     0.612  99.0000        128     22.28981
 3.50   1229.8593  16.9703     27032.78   1333.8658  -9.71     1.293     1.205   0.0017        129     43.52224
 4.20   1229.8514  18.8123     4955.568    319.1284 -41.42     0.857     0.839   0.0076        130     34.79995
 3.50   1187.1475  24.8800      18.5354     31.4201 -20.18     0.857     0.651   1.5314        131     26.13712
 4.66   1132.9907  25.6644     8.999634    529.0000  90.00     0.781     0.289   2.7725        132     22.97581
 3.92   1194.6493  17.1348     23230.69   1031.4041 -23.51     1.276     1.133   0.0022        133     47.28382
 4.26   1179.7045  18.7085     5452.729      6.4451 -61.55     0.997     0.933   0.0082        134     40.94899
 0.00   1174.6692  99.0000    -28.45715   1126.6654 -44.84     0.577     0.334  99.0000        135     19.30354
 3.50   1142.4834  25.0813     15.39795    937.0837  -1.92     0.719     0.499   1.5721        136     22.28981
 7.91   1146.6865  25.0003     16.59167    720.6721 -44.28     0.566     0.339   2.2778        137     34.79995
 4.08   1154.6710  18.3553     7549.021    195.5327   4.60     1.130     0.937   0.0060        138     41.70041
 3.50   1131.2783  16.6480     36374.13    620.9372 -10.55     1.352     1.281   0.0014        139     45.61248
 5.02   1111.6760  18.9462     4380.535   1268.2570 -43.85     1.055     0.848   0.0116        140     46.95431
 4.08   1043.7810  18.5797     6139.166    424.6862   0.46     1.163     0.829   0.0071        141     40.18352
 3.50   1091.0695  18.2070      8653.41    792.6173  57.02     1.128     1.058   0.0046        142     36.96346
 3.50   1095.6605  17.9909     10559.66     16.4552  68.25     1.076     1.007   0.0037        143     36.11361
 4.46   1058.5704  18.0632     9879.596    239.6436 -28.15     1.108     0.998   0.0051        144     46.28826
 7.05   1031.4886  19.5205     2581.045    765.5862 -57.52     0.505     0.487   0.0141        145     33.43471
