#   1 KRON_RADIUS            Kron apertures in units of A or B                         
#   2 Y_IMAGE                Object position along y                                    [pixel]
#   3 MAG_BEST               Best of MAG_AUTO and MAG_ISOCOR                            [mag]
#   4 FLUX_BEST              Best of FLUX_AUTO and FLUX_ISOCOR                          [count]
#   5 X_IMAGE                Object position along x                                    [pixel]
#   6 THETA_IMAGE            Position angle (CCW/x)                                     [deg]
#   7 A_IMAGE                Profile RMS along major axis                               [pixel]
#   8 B_IMAGE                Profile RMS along minor axis                               [pixel]
#   9 MAGERR_BEST            RMS error for MAG_BEST                                     [mag]
#  10 NUMBER                 Running object number                                     
#  11 FLUXERR_BEST           RMS error for BEST flux                                    [count]
 3.61     53.5252  16.5377     40265.38     63.7997  -3.90     4.685     4.247   0.0043          1     158.6233
 3.60     17.1269  18.6087     5977.595    985.1923 -87.68     4.346     1.817   0.0181          2     99.64371
 3.50     18.1446  19.1436     3652.279     91.5192 -68.12     1.481     1.375   0.0147          3      49.3555
 3.50     15.3536  18.0343     10146.07   1445.8591 -71.14     1.634     1.584   0.0059          4     55.52927
 7.98     13.6931  21.5329     404.4124    841.9979 -72.76     1.135     0.458   0.1542          5     57.43993
 6.92      4.0879  21.3815     464.9615    145.5426  70.74     1.217     0.921   0.1496          6     64.03948
 3.50    182.5938  13.6279     587293.1   1107.5367 -37.44     5.950     5.006   0.0003          7     188.3089
 5.26     10.5726  22.2770     203.7904   1183.7943  -6.90     0.958     0.485   0.1872          8     35.11979
 3.50     60.3875  16.3571     47551.46   1078.6909  79.25     2.045     1.844   0.0015          9      66.8661
 5.43     17.6537  21.4152     450.7367    385.0799 -14.05     1.203     0.929   0.1364         10     56.62897
 4.96     24.8541  20.6520     910.3619    367.3887 -86.69     1.250     1.183   0.0713         11     59.80685
 4.53     24.3010  21.5329     404.4188    383.1667 -40.04     1.084     0.951   0.1211         12     45.11219
 7.23     24.3144  22.9943      105.262    699.3123 -45.11     0.560     0.342   0.3138         13     30.41463
 6.22     35.9995  21.3288     488.0728   1110.7292 -83.70     1.298     0.963   0.1518         14     68.23551
 6.32     26.7504  22.8474      120.517    703.2515 -18.89     0.856     0.351   0.3044         15     33.77714
 6.70     26.6736  23.2863     80.44238    531.3240  45.12     0.570     0.337   0.3895         16     28.85386
 5.92     32.4863  22.0445     252.4594   1109.5005 -23.32     1.065     0.802   0.1691         17     39.29971
 5.25     33.6167  21.8664     297.4628    327.2390 -61.74     1.084     0.801   0.1756         18     48.08976
 5.09     39.6455  21.5741     389.3678   1170.9567 -85.60     1.099     0.966   0.1411         19     50.58957
 6.35     38.0633  21.9922     264.9186   1521.8109  -9.34     0.915     0.741   0.2086         20     50.89342
 6.24     44.6940  21.7262     338.4695    440.4556 -55.17     1.104     0.815   0.1886         21     58.76665
 3.50     80.4046  16.4156      45057.5    537.8243 -86.01     1.911     1.773   0.0015         22     63.31311
 6.15     42.8763  21.8548      300.666    915.6876   9.79     0.989     0.752   0.1903         23     52.67969
 7.49     51.1983  22.2222     214.3445   1435.1534  46.45     0.751     0.565   0.2404         24     47.44423
 7.11     51.2205  22.1614     226.6852    265.1693 -11.77     1.187     0.344   0.2178         25     45.45267
 3.50     75.3237  20.0708     1554.847    128.3723 -79.51     1.370     1.250   0.0313         26     44.76913
 9.47     65.4919  21.9592     273.0931   1147.4990 -44.71     0.503     0.497   0.1874         27     47.11815
 4.62     82.5204  21.2761     512.3506    421.9448 -60.87     1.433     1.080   0.1200         28     56.62897
 7.35     72.5246  22.6908     139.2156   1322.9462 -32.29     0.791     0.315   0.2873         29     36.83395
 5.03     90.8113  20.5469     1002.882    377.1675 -11.16     1.789     1.450   0.0867         30     80.08546
 3.50    122.2698  15.9706     67880.02    789.3429 -84.85     1.978     1.874   0.0011         31     66.40335
 3.93    235.4554  16.3767     46701.84    403.5172 -57.68     6.084     5.378   0.0051         32     221.2826
 3.50     96.7895  19.5970     2405.411     56.3872 -57.13     1.500     1.435   0.0227         33     50.28389
 6.73     92.0598  21.8182     310.9749    496.0466  41.74     0.813     0.749   0.1840         34     52.67969
 4.76     98.5079  21.2994     501.4523    453.0963 -13.59     1.273     0.993   0.1135         35     52.38621
 6.76     96.0782  21.9189     283.4167   1076.6273  21.71     0.958     0.687   0.2041         36     53.26181
 6.06    103.0046  22.2862     202.0819    518.0137 -42.61     0.901     0.528   0.2233         37      41.5543
 6.47    107.5073  22.9425     110.4091   1099.5221  45.50     0.512     0.487   0.3090         38      31.4121
 4.57    117.3928  22.2778     203.6493     68.1370 -13.99     1.221     0.695   0.2196         39     41.18161
 7.98    115.2657  22.0498     251.2405    415.9847 -55.24     0.810     0.494   0.2106         40     48.72674
 6.19    117.2545  22.2097     216.8356    990.6464  -7.63     0.905     0.753   0.2518         41     50.28389
 5.71    118.0163  22.5661     156.1562    153.5004 -87.61     0.784     0.499   0.2473         42     35.55608
 3.50    193.9391  14.3786     294142.8    318.2505 -63.89     2.285     2.063   0.0003         43     74.50034
 8.63    126.5118  21.7812       321.74    494.9810  -0.47     0.807     0.500   0.1798         44     53.26181
 5.92    131.3040  22.3555     189.5822    418.1985 -28.57     0.847     0.599   0.2380         45      41.5543
 3.50    163.0547  16.5898     38376.02   1468.4854 -77.89     1.817     1.736   0.0017         46     61.83478
 5.11    147.4694  21.8706     296.3191    354.2550 -83.24     0.993     0.939   0.1774         47     48.40929
 7.55    142.6608  22.5931     152.3268    886.6586 -44.91     0.583     0.330   0.2375         48     33.31756
 3.50    170.6976  18.2190     8558.202    877.4740 -82.76     1.685     1.611   0.0072         49     56.62897
 7.93    152.4654  22.5091     164.5687   1280.4971 -39.37     0.502     0.496   0.2642         50     40.04273
 8.17    156.3305  22.8736      117.637     82.7033  46.84     0.560     0.342   0.3282         51     35.55608
 5.02    165.8473  20.8551       755.01   1445.8843 -42.75     1.240     1.109   0.0830         52     57.70771
 5.09    171.8127  20.3430     1210.079    325.7209 -60.90     1.329     1.208   0.0570         53     63.55616
 4.60    167.1095  21.1416     579.9175    104.6249 -16.53     1.177     1.086   0.0942         54     50.28389
 5.16    170.3085  21.8272      308.395   1369.2546  11.39     0.933     0.849   0.1624         55     46.12608
 6.11    169.5062  22.2920     201.0074    649.7439  -4.65     1.395     0.489   0.2700         56     49.97635
 5.71    187.0440  21.5398     401.8767   1355.0319  10.77     1.219     0.995   0.1651         57      61.0822
 8.07    180.5658  21.8608     299.0172    575.6987  -8.34     1.000     0.479   0.2007         58     55.25093
 4.11    193.3761  20.6343      925.281   1350.8151  77.63     1.280     1.103   0.0564         59     48.08976
 4.47    211.1837  18.7871     5071.588    828.1095  -6.37     4.024     2.098   0.0273         60     127.7173
 4.64    229.2693  19.9657     1712.911    415.5566 -12.72     1.791     1.563   0.0333         61     52.51613
 6.31    195.2809  22.1520     228.6571    268.1735  54.63     1.080     0.517   0.2175         62     45.79061
 7.79    192.6325  22.5777     154.4982   1028.2732  49.79     0.563     0.337   0.2438         63     34.67802
 3.52    207.1272  19.9191     1787.908    549.4011 -85.19     1.443     1.315   0.0290         64     47.76809
 4.96    230.4931  18.8445     4810.656    562.4095 -38.65     3.467     3.264   0.0372         65     164.6328
 4.21    209.0113  20.5654     985.9495    350.0247  44.45     1.813     1.239   0.0695         66     63.06913
 5.59    203.8939  21.6763     354.3955    251.0272  -0.79     0.916     0.839   0.1464         67     47.76809
 3.50    212.8764  19.9922     1671.563   1306.2999 -66.83     1.376     1.279   0.0300         68     46.12608
 5.36    211.2034  21.2040     547.5409    684.8726 -50.29     1.239     1.146   0.1251         69     63.06913
 7.82    205.6722  22.6329     146.8385    936.9929  28.33     0.908     0.212   0.2532         70     34.23054
 3.50    260.3650  15.5064     104101.8    997.5744 -89.34     2.022     1.934   0.0007         71     68.00919
 3.50    224.7346  19.7492     2090.888   1226.3085  86.64     1.413     1.348   0.0248         72     47.76809
 5.38    223.0306  20.9542     689.1849    346.1969  57.86     1.492     1.352   0.1180         73     74.91308
 7.66    210.2872  22.6423     145.5715   1225.3633 -41.37     0.568     0.336   0.2451         74     32.85156
 4.34    222.8820  20.8308     772.1014    775.2977 -78.87     1.280     1.148   0.0733         75     52.09107
 6.89    217.8561  21.9007     288.2296    741.8887 -45.39     0.846     0.652   0.1906         76     50.58957
 3.50    266.1625  15.7000      87100.3     67.8013 -78.87     2.007     1.911   0.0008         77     67.55428
 6.02    230.7153  21.8812      293.449    548.0768 -73.40     1.026     0.744   0.1917         78     51.79425
 4.97    244.2989  20.1594     1433.013    113.0351 -89.52     1.867     1.582   0.0631         79     83.29391
 6.85    228.3499  23.1572     90.59973    325.3205 -46.24     0.579     0.332   0.3459         80     28.85386
 4.88    239.7767  21.0770     615.4634    838.7070 -46.60     1.390     1.053   0.1028         81     58.23959
 4.49    255.8108  19.0628     3934.325    613.0906 -16.68     2.447     2.040   0.0272         82     98.55468
 6.14    252.4413  20.8275     774.4404   1372.7426  66.47     1.567     1.194   0.1155         83     82.36322
 3.50    312.5552  14.1601     359723.1    439.6983 -66.16     2.221     2.106   0.0002         84     74.70699
 5.80    250.5133  21.2166     541.2048    107.6803  -1.66     1.169     0.968   0.1226         85      61.0822
 3.85    254.3401  22.0433     252.7374   1352.6882 -48.20     0.991     0.851   0.1509         86     35.11979
 3.50    288.3568  17.2756     20406.22   1486.6270  88.49     1.750     1.711   0.0032         87     59.80685
 7.01    261.7161  22.7063       137.24   1017.6207 -40.76     0.573     0.332   0.2325         88     29.38333
 3.50    282.6521  18.9252     4465.994   1522.5603 -45.72     1.536     1.456   0.0124         89     51.19546
 8.00    265.6608  22.4623     171.8296    124.3059  46.63     0.568     0.338   0.2220         90     35.11979
 5.77    271.4204  21.5367     403.0232   1274.2327  29.10     1.178     0.848   0.1519         91     56.35606
 3.67    290.2191  19.9148       1795.1    515.3969  85.02     1.844     1.582   0.0374         92     61.83478
 3.50    303.3994  17.6218     14835.02    202.0118  82.60     1.763     1.645   0.0042         93     57.97426
 3.50    319.2488  16.1106     59668.66    905.5974  80.63     1.946     1.866   0.0012         94     65.93736
 4.78    297.8040  20.3717     1178.461   1414.2720 -43.77     2.633     1.331   0.0807         95     87.62371
 3.50    352.0961  14.3338     306532.5   1346.0428 -62.22     2.170     2.083   0.0003         96      73.6679
 3.50    294.7164  19.8763     1859.793   1327.7196 -86.02     1.404     1.318   0.0275         97     47.11815
 4.85    294.3491  20.4958     1051.143   1475.7775 -26.98     1.406     1.221   0.0644         98     62.33145
 3.50    351.8862  14.2953     317590.4    890.9661 -48.11     2.210     2.098   0.0003         99     74.50034
 3.85    302.8273  20.8684      745.819    563.8398  35.57     1.489     1.289   0.0776        100     53.26181
 7.45    292.9918  22.1636     226.2288    249.2462 -84.22     0.734     0.686   0.2501        101     52.09107
 6.35    296.7082  22.2570     207.5863    886.8599 -66.54     1.060     0.510   0.2396        102     45.79061
 4.66    308.9450  21.0894     608.4763     85.4247  81.50     1.830     0.952   0.1077        103     60.32023
 3.50    322.5602  18.0696     9821.449    697.4584 -78.02     1.679     1.574   0.0062        104     55.80622
 3.97    322.5329  20.7578     825.8406    641.5955 -74.02     2.010     1.387   0.0864        105     65.70312
 5.06    328.0034  19.7483     2092.576    595.6755  -7.63     1.719     1.644   0.0437        106     84.21431
 6.81    324.7242  21.7679     325.7097    956.5848  54.09     1.433     0.635   0.2143        107     64.27978
 7.38    323.7076  22.8253     122.9962   1017.3156  43.59     0.551     0.345   0.2774        108      31.4121
 3.71    346.8928  18.5041     6582.254    867.3059 -40.48     1.647     1.638   0.0099        109     60.06409
 4.44    330.2252  21.8072     314.1427   1546.3762 -51.83     0.998     0.891   0.1411        110     40.80552
 3.94    332.4190  21.6774     354.0173     93.4353  42.24     1.047     0.837   0.1143        111     37.25017
 3.50    335.8508  21.7803     322.0078   1440.7502  24.85     1.151     0.758   0.1076        112     31.89914
 3.50    356.1431  18.7335     5328.272    432.0551 -89.14     1.888     1.652   0.0123        113     60.57528
 3.50    350.3318  20.8023       792.63     55.0058  86.07     1.201     1.105   0.0533        114     38.87049
 7.33    339.7777  22.3788     185.5558    806.0276   1.14     0.693     0.416   0.2298        115     39.26513
 3.50    368.6249  18.0334     10154.03    761.3643  82.59     1.702     1.579   0.0060        116     56.35606
 5.40    350.2334  21.7538     329.9774    920.3484 -54.39     1.033     0.933   0.1714        117     52.09107
 3.71    361.9805  19.9153     1794.202   1500.6205  73.48     1.407     1.364   0.0308        118     50.89342
 3.50    367.8328  19.1430     3654.215    443.0886  66.09     1.473     1.415   0.0147        119      49.3555
 3.50    360.0383  21.8171      311.286    533.1404  53.71     1.212     0.893   0.1240        120     35.55608
 3.50    395.4884  16.2904      50565.8    231.6743  77.54     1.949     1.840   0.0014        121     65.70312
 3.50    361.4562  21.4794     424.8612   1034.1250  21.17     1.190     0.929   0.0909        122     35.55608
 6.07    357.0000  23.0273     102.1082   1399.0023   0.00     0.842     0.289   0.3180        123     29.90343
 5.90    364.3918  21.6770     354.1499   1415.6382 -43.63     1.026     0.877   0.1720        124     56.08181
 6.06    375.4305  20.5550     995.3855    753.5044  47.83     2.366     1.003   0.1003        125      91.9173
 4.48    373.2975  20.8930     729.1144    992.6573   6.59     1.311     1.220   0.0839        126     56.35606
 5.11    369.6660  22.3817      185.067    210.6798 -69.78     0.990     0.578   0.2234        127     38.06895
 5.36    370.6648  21.8128     312.5117     71.8415  76.54     1.017     0.737   0.1580        128     45.45267
 4.60    374.4050  21.9880     265.9463   1083.9834 -89.05     1.044     0.771   0.1697        129      41.5543
 3.50    397.8773  18.3874     7329.117   1461.4524 -73.83     1.683     1.551   0.0081        130     54.68999
 6.34    375.0100  22.6091     150.0951    141.2270 -89.55     0.680     0.419   0.2444        131     33.77714
 3.50    398.5048  18.2804     8088.249    354.8107  89.99     1.686     1.552   0.0076        132     56.62897
 6.26    376.0063  22.4738     170.0165     87.8118 -52.47     0.954     0.458   0.2582        133     40.42592
 5.17    380.5817  21.8151     311.8577    125.9786 -78.94     0.942     0.867   0.1618        134     46.45912
 4.87    383.4047  21.8123      312.658     67.5940  51.58     1.166     0.773   0.1579        135     45.45267
 6.30    380.9717  22.9089     113.8815      1.0000  90.00     0.847     0.289   0.2368        136     24.83344
 3.50    394.2598  20.0324     1610.813   1089.0247  67.79     1.420     1.253   0.0313        137     46.45912
 3.50    420.0205  16.3963     45864.02    433.5898  79.89     1.848     1.767   0.0015        138     62.57831
 3.50    416.0988  17.1873     22134.43    837.6166 -86.61     1.792     1.690   0.0030        139     60.82927
 5.53    396.8589  20.8799     737.9701    627.2267 -12.08     1.608     1.284   0.1153        140     78.33368
 4.50    389.8943  22.5034      165.439   1195.7992 -50.03     0.822     0.669   0.2217        141     33.77714
 8.72    390.0220  22.3681     187.3942    261.4804 -58.26     0.807     0.309   0.2493        142     43.01279
 6.22    396.7586  21.5823     386.4556    978.6519 -25.08     1.383     0.713   0.1709        143     60.82927
 6.58    391.6644  23.0896     96.41772     97.3347  45.04     0.579     0.332   0.3250        144     28.85386
 5.61    404.1374  21.2890     506.3088    526.9224  49.64     1.603     1.010   0.1511        145     70.45875
 6.67    411.6898  21.6813     352.7761      1.4600  86.90     1.550     0.492   0.1451        146     47.11815
 3.50    424.7323  19.0556     3960.707    926.6381 -83.30     1.552     1.505   0.0143        147     52.09107
 5.70    421.6084  20.2631      1302.42    159.7319  45.81     1.934     1.613   0.0826        148     99.02287
 6.29    407.8483  22.1858      221.661    282.1894  43.70     0.805     0.666   0.2243        149     45.79061
 3.50    461.6982  15.1557     143787.6    807.8332 -72.06     2.072     2.019   0.0005        150     70.23959
 3.50    438.2123  17.5067     16493.55    252.2797  71.34     1.794     1.732   0.0040        151     60.82927
 6.83    416.1235  21.9304     280.4324    561.2371  81.87     1.063     0.655   0.2182        152     56.35606
 6.81    412.3987  22.5954      152.005    189.2176  18.91     0.761     0.447   0.2777        153     38.87049
 7.29    419.3941  21.5167     410.5093   1204.7341 -18.47     1.037     0.771   0.1707        154     64.51918
 8.30    415.4966  22.2468     209.5378   1562.4846 -45.54     0.506     0.494   0.2075        155     40.04273
 7.32    422.0081  20.8639     748.8981    138.2387  -1.36     1.617     0.766   0.1161        156     80.08546
 6.22    445.3532  20.3431     1209.886    122.5160 -51.84     1.522     1.288   0.0774        157     86.20461
 5.57    427.3903  21.0882     609.1497   1180.0702  59.62     1.461     1.192   0.1291        158     72.40131
 6.23    419.7381  21.9051     287.0488    774.3480  -8.83     0.879     0.745   0.1843        159     48.72674
 5.34    420.9765  22.3162     196.5784   1580.9352 -64.56     0.780     0.777   0.2254        160     40.80552
 5.10    424.7009  22.0619     248.4485   1064.2546 -84.34     0.920     0.761   0.1816        161      41.5543
 3.81    433.7247  20.3374      1216.25   1422.1829 -15.53     1.403     1.231   0.0435        162     48.72674
 3.98    434.2644  21.2295      534.833    151.1989 -81.63     1.227     1.041   0.0888        163     43.72379
 4.39    426.8933  22.1313     233.0707   1009.4892 -40.48     0.884     0.670   0.1552        164     33.31756
 6.57    427.1862  22.0708      246.426    300.2596  41.78     0.765     0.551   0.1880        165     42.65284
 5.00    424.7631  23.1135     94.31982   1086.0087   0.40     0.692     0.425   0.2999        166     26.04554
 8.45    430.6999  20.8349     769.1937    718.6637 -23.16     1.415     0.741   0.1192        167     84.39719
 4.80    468.3481  18.1965     8737.614    850.8901  23.15     7.879     2.083   0.0238        168     191.5559
 3.50    450.5656  18.8124     4954.992     21.6386 -76.96     1.584     1.465   0.0115        169     52.38621
 4.65    440.3376  20.9434      696.051    306.0426 -82.44     1.239     1.111   0.0840        170     53.83762
 7.12    433.8568  22.2558     207.8093    354.1263 -40.12     0.764     0.566   0.2393        171     45.79061
 4.65    448.3131  20.6212     936.4978    883.8214   9.73     2.074     1.499   0.0938        172     80.85184
 3.50    458.0081  18.6674     5662.713     34.8395  57.96     1.558     1.477   0.0102        173     52.97155
 4.18    516.1333  19.2064      3446.86   1461.4441  24.91     4.066     1.610   0.0332        174     105.5056
 4.45    446.1967  22.2437     210.1437   1505.3628  74.93     0.962     0.644   0.1769        175     34.23054
 5.66    444.2901  22.2863     202.0659    174.9850  -8.89     0.755     0.652   0.2110        176     39.26513
 6.68    444.2291  22.4792     169.1724    655.0042  -9.14     0.730     0.679   0.2918        177     45.45267
 7.27    442.6607  22.9221     112.4971    959.6943 -46.65     0.568     0.338   0.2936        178     30.41463
 4.22    464.1307  19.9066     1808.628    468.8570  87.00     1.441     1.353   0.0348        179     57.97426
 5.58    453.8233  21.8869     291.9004   1533.4567  13.64     0.994     0.852   0.1859        180     49.97635
 4.34    461.5118  21.0166     650.6559   1096.4821  49.38     1.466     1.053   0.0884        181     52.97155
 6.21    455.1829  22.6256     147.8337   1224.6188 -73.22     0.756     0.453   0.2612        182     35.55608
 4.89    471.7498  19.8716     1867.884    254.6381  85.78     1.518     1.312   0.0395        183     68.00919
 6.14    461.9506  21.3215     491.3772    725.3745 -23.93     1.322     0.961   0.1513        184     68.46108
 3.50    472.5071  19.6855     2217.229    735.0262 -43.21     1.420     1.350   0.0236        185     48.08976
 3.50    478.3885  19.3823     2931.435    923.3298 -48.49     1.547     1.392   0.0187        186     50.58957
 6.77    467.0966  21.9640     271.8864    128.8482  75.58     0.983     0.576   0.1984        187     49.66689
 5.06    466.0777  22.6381     146.1322    561.4875 -89.78     0.765     0.500   0.2260        188     30.41463
 4.22    478.7573  20.3993     1148.851   1277.1476  80.96     1.347     1.227   0.0503        189     53.26181
 5.22    496.8679  19.3682     2969.648     83.0549  83.29     2.751     2.329   0.0477        190      130.346
 4.99    489.0433  21.0429     635.1039    839.9213  87.43     2.405     0.964   0.1267        191     74.08529
 4.15    533.5775  17.2088     21701.02    518.9887  39.26     4.467     3.718   0.0084        192     167.0499
 5.01    479.1956  21.4167     450.1229    683.0723 -39.59     1.221     0.999   0.1306        193     54.12324
 3.89    484.7017  20.2804     1281.915   1070.9589  48.54     1.397     1.274   0.0434        194     51.19546
 5.18    496.4284  19.5064     2614.886   1187.0693 -11.92     3.123     1.932   0.0518        195     124.7865
 5.40    476.7478  22.2067     217.4291   1168.5813 -19.13     0.974     0.583   0.2019        196     40.42592
 6.29    481.7800  22.0052     261.7756   1309.7306   6.35     0.911     0.741   0.2099        197     50.58957
 8.29    481.6781  22.5435     159.4464   1519.6483 -43.77     0.580     0.331   0.2451        198     35.98708
 3.50    513.1718  17.8766      11731.2   1302.5386  59.54     1.760     1.613   0.0054        199     58.23959
 4.82    504.5661  20.2026     1377.077    763.2423 -13.45     1.865     1.729   0.0673        200     85.30569
 3.50    502.5710  20.8801     737.8357    864.0017  88.02     1.288     1.131   0.0595        201     40.42592
 5.05    498.4589  21.7291     337.5588    366.7521 -51.03     0.989     0.929   0.1547        202     48.08976
 6.92    493.3040  22.6920     139.0653    574.6613  43.27     0.567     0.339   0.2253        203     28.85386
 6.50    502.2199  21.1112     596.3744   1310.5753  55.14     1.068     0.929   0.1148        204     63.06913
 4.31    513.9177  20.2537      1313.83   1310.5697 -46.61     1.369     1.322   0.0358        205     43.25659
 5.58    510.0532  20.9625     683.9034    166.0238  32.13     1.327     1.185   0.1094        206     68.91001
 5.23    511.3528  21.6206     373.0548    453.3414  82.30     1.307     0.896   0.1625        207     55.80622
 5.06    506.0170  22.4794     169.1394   1569.5204 -89.06     0.779     0.499   0.1953        208     30.41463
 3.72    514.5375  20.9571     687.2955   1179.6952  67.59     1.253     1.074   0.0668        209     42.28983
 6.22    510.2763  22.1616     226.6524    161.4351 -82.32     1.014     0.715   0.1683        210     35.12082
 4.58    518.6337  21.9559     273.9254   1519.6564 -58.68     1.261     0.755   0.1719        211     43.36975
 5.73    519.9667  21.0653     622.1357    642.2645  18.50     1.383     1.199   0.1264        212     72.40131
 3.50    588.5076  14.2539     329957.7   1316.2118 -61.38     2.214     2.119   0.0002        213     75.11861
 6.53    521.1948  21.8454     303.2642    854.0023  87.71     0.924     0.757   0.1897        214     52.97155
 8.58    521.3221  22.6575     143.5427    583.6489  43.80     0.580     0.331   0.2818        215     37.25017
 3.85    540.9582  19.9460     1744.259   1000.1738 -72.72     1.498     1.311   0.0332        216     53.26181
 5.02    536.8519  21.4308     444.3203    404.7491  36.37     1.441     0.908   0.1397        217     57.17088
 6.40    545.0871  21.9179     283.6918    934.6223 -81.71     1.525     0.437   0.1983        218     51.79425
 3.96    559.5822  19.6140     2368.095   1042.0389  68.52     1.451     1.374   0.0256        219     55.80622
 4.85    571.5656  19.8396     1923.855     46.4427  52.96     2.209     1.437   0.0477        220     84.57967
 3.50    573.2256  18.4158     7139.382   1243.1414  58.05     1.642     1.567   0.0084        221     55.52927
 3.50    631.3912  14.3676     297143.3    483.4176 -44.91     3.080     2.899   0.0004        222      103.141
 6.83    556.4856  21.7629     327.2106    779.1495  87.91     0.943     0.722   0.1815        223     54.68999
 3.50    580.9352  18.0849     9683.703    145.2619 -88.12     1.693     1.582   0.0062        224     55.52927
 6.25    575.4089  19.9084     1805.624   1337.2476  61.37     1.483     1.418   0.0536        225     89.19321
 3.82    597.0600  18.5372     6384.301    782.8056 -63.52     3.620     3.224   0.0219        226     128.7992
 3.50    582.5157  18.0927      9614.78    319.4495  80.01     1.682     1.562   0.0063        227     55.52927
 4.00    572.3694  19.9404     1753.304   1448.7604  17.11     2.862     1.592   0.0522        228     84.21431
 5.37    565.2906  21.3951     459.1599    139.7018  14.37     1.105     0.928   0.1267        229     53.55049
 7.83    560.2471  22.0208     258.0275   1404.5007  17.57     1.164     0.262   0.1825        230     43.36975
 6.98    563.5264  22.4806     168.9501    905.9805  -0.64     0.758     0.499   0.2647        231     41.18161
 4.78    577.0416  20.9995     661.0118   1002.2324   0.65     1.518     1.218   0.1048        232     63.79827
 4.16    584.8993  20.9537     689.4698     76.3490  69.61     1.333     1.164   0.0820        233     52.09107
 7.25    578.7524  21.7444     332.8475    677.8788   5.14     1.262     0.650   0.2097        234     64.27978
 3.97   1002.1662  19.4586     2732.419    543.0606 -66.01     1.462     1.373   0.0220        235     55.25093
 5.03   1599.6752  23.2179     85.66846    710.6805 -45.26     0.568     0.338   0.2112        236     16.65878
 4.18   1597.5110  20.6191     938.3528    655.0994 -24.95     1.749     1.588   0.0698        237     60.32023
 4.95   1595.1276  21.2147     542.1696    374.6772  34.65     1.194     1.105   0.1129        238     56.35606
 4.71   1593.8809  22.3950     182.8088   1385.7310 -21.56     0.942     0.657   0.2213        239     37.25017
 5.16   1591.3741  22.2984      199.826    566.9291 -72.29     1.018     0.726   0.2338        240     43.01279
 4.75   1585.5339  20.1644     1426.459   1109.2620  75.35     1.333     1.267   0.0461        241     60.57528
 3.50   1583.6602  23.4258     70.74072    141.3112  46.35     0.570     0.337   0.2088        242     13.60184
 4.58   1566.4408  20.0211     1627.685    784.9980 -80.35     2.129     1.458   0.0529        243     79.31166
 4.00   1566.7911  19.6919     2204.185     22.3410  51.45     1.433     1.403   0.0274        244     55.52927
 8.31   1563.2164  22.1607     226.8434    388.2399  71.45     0.862     0.345   0.2143        245     44.76913
 6.20   1535.6666  22.5464     159.0208   1430.6649 -59.84     0.996     0.538   0.2063        246      30.2073
 8.38   1535.6963  22.5792      154.278    919.6689 -43.58     0.563     0.340   0.2563        247     36.41298
 3.50   1533.4929  21.4376     441.5134    416.0926   7.06     1.442     1.102   0.1067        248     43.36975
 3.92   1516.2104  21.4645     430.7234   1547.9348 -87.38     1.362     0.841   0.1057        249     41.92368
 3.50    882.2990  14.2605     327946.2    183.8633 -39.94     4.107     3.697   0.0004        250     134.0776
 4.52    879.6061  18.3991     7250.311    224.7090  89.83     6.773     1.884   0.0238        251     158.9146
 5.61    889.1280  20.6200     937.5404    326.4410  13.25     1.939     1.167   0.0956        252     82.55019
 3.50    881.0885  15.3961     115225.7   1592.8473  88.55     2.027     1.938   0.0006        253     67.78211
 6.79    889.4908  21.9957     264.0597    681.0250 -61.93     1.043     0.660   0.2306        254     56.08181
 4.63    886.7296  20.6764     890.0916   1500.4688  44.12     1.220     1.145   0.0653        255     53.55049
 5.34    886.0688  20.5672     984.2594   1304.7677  69.94     1.922     1.294   0.0911        256     82.55019
 6.25    885.3679  21.2107     544.1621    339.9535  34.29     1.309     1.030   0.1419        257     71.11217
 5.36    896.3235  19.9445     1746.579    538.9833   1.40     1.883     1.725   0.0589        258     94.72584
 4.46    878.6826  20.3644     1186.399   1177.5465 -29.58     1.901     1.446   0.0670        259     73.24814
 7.84    880.6912  22.3469     191.0931    673.6566 -43.38     0.571     0.337   0.1996        260     35.11979
 4.56    876.7939  22.0055     261.7057    542.3553 -66.28     1.039     0.798   0.1724        261      41.5543
 3.58    869.9144  19.4620     2723.841   1103.9384 -68.39     1.938     1.672   0.0253        262     63.55616
 3.50    860.0044  14.3746     295234.1   1224.8413 -58.56     2.200     2.134   0.0003        263     74.70699
 3.50    867.9803  20.4643     1082.119    939.5734  46.33     2.660     1.296   0.0640        264     63.79827
 4.34    870.0572  21.9889     265.7371    644.4385  63.32     1.052     0.944   0.1728        265     42.28983
 6.84    870.3463  23.0119     103.5741   1436.6788  46.08     0.577     0.333   0.3025        266     28.85386
 6.00    866.9673  22.8318     122.2617    454.7578 -88.45     0.691     0.428   0.2833        267     31.89914
 3.50    878.4084  21.2295     534.8268    961.5995  76.88     1.344     1.137   0.0873        268     43.01279
 6.52    865.0276  22.3970     182.4764    354.9894 -47.73     0.897     0.532   0.2581        269     43.36975
 7.76    897.7584  22.3317     193.7933    987.5909  71.08     0.756     0.451   0.2509        270     44.76913
 4.42    894.7693  21.4429     439.3722   1426.7323 -76.59     1.127     1.110   0.1212        271     49.04213
 4.30    860.4547  20.6193     938.2017   1157.8055  86.28     1.324     1.228   0.0630        272     54.40735
 3.53    861.0923  22.6965     138.4811   1554.5013 -88.06     0.775     0.500   0.1742        273     22.21171
 3.50    859.2220  21.0639      622.921   1340.0120  76.38     1.452     1.086   0.0737        274     42.28983
 9.05    858.4717  22.1801     222.8254    575.4818 -43.26     0.503     0.496   0.2165        275     44.42342
 5.09    856.3663  21.9115       285.36    544.9490   5.01     1.113     0.914   0.1925        276     50.58957
 5.64    845.4324  20.5960     958.4948   1207.0240 -40.46     1.544     1.222   0.0863        277      76.1379
 3.50    845.5005  21.1486     576.1873   1064.3943  56.31     1.194     1.165   0.0755        278     40.04273
 8.29    847.3398  22.3380       192.66    363.3137 -46.22     0.571     0.336   0.2029        279     35.98708
 7.84    847.1895  22.0707     246.4451    359.6028 -70.93     0.773     0.443   0.1988        280     45.11219
 3.65    844.0712  20.4224     1124.708   1106.5563  35.66     1.639     1.293   0.0509        281     52.67969
 5.22    838.4830  19.7008     2186.202   1247.7375 -30.60     1.906     1.624   0.0451        282     90.73557
 3.50    836.9655  20.1609     1430.973    299.0605  79.35     1.370     1.355   0.0350        283     46.12608
 4.33    837.1896  22.4287       177.22   1520.8816  40.29     0.806     0.666   0.1925        284      31.4121
 4.06    836.2231  21.6513     362.6296    819.5311 -25.50     0.955     0.927   0.1128        285     37.66179
 3.50    823.5064  18.5307      6422.89    654.6779 -76.50     1.569     1.513   0.0088        286     52.09107
 3.90    820.4720  22.1584     227.3251   1399.0044 -62.94     1.011     0.668   0.1477        287     30.91739
 4.44    819.4908  22.3954     182.7404    702.9738  -0.21     0.777     0.500   0.1617        288     27.20368
 4.05    816.5863  22.2131     216.1527    878.5024 -25.88     0.965     0.827   0.1786        289     35.55608
 8.03    817.6853  22.8496     120.2754    433.6773 -44.59     0.565     0.340   0.3210        290     35.55608
 3.50    809.6724  23.4907     66.63721     91.6578 -44.38     0.579     0.332   0.2217        291     13.60184
 3.50    803.8173  18.6049     5998.247   1379.0477 -59.66     1.592     1.534   0.0097        292     53.83762
 3.50    799.0421  17.4352     17617.32    695.9031 -89.36     2.436     1.710   0.0043        293     70.45875
 3.50    800.9717  19.3945     2898.655     41.4643 -47.22     1.701     1.445   0.0200        294     53.26181
 6.53    794.2216  22.0437     252.6566    296.3318  10.26     0.885     0.756   0.2277        295     52.97155
 4.01    787.6122  21.9618     272.4541   1483.7244  10.33     1.014     0.842   0.1434        296     35.98708
 3.50    785.6810  23.3192     78.03894    136.3167  45.12     0.564     0.340   0.1893        297     13.60184
 4.02    775.1156  19.3436     3037.805   1427.5459  84.54     2.904     2.080   0.0347        298      96.9777
 4.35    767.0762  20.1694     1419.806    392.2765  64.78     1.392     1.238   0.0429        299     56.08181
 6.45    767.8954  21.3787     466.1362    140.3694   3.33     1.088     1.000   0.1547        300     66.40335
 4.95    764.7534  22.3468     191.1008    567.3879  18.97     0.972     0.589   0.2117        301     37.25017
 6.63    757.5106  22.7025     137.7212   1342.4969 -44.91     0.515     0.484   0.2477        302      31.4121
 7.51    755.7390  21.1032     600.7908    195.3511 -64.66     1.569     0.689   0.1384        303     76.54182
 3.63    743.3473  20.1136     1494.765    556.7055  77.70     1.378     1.293   0.0342        304     47.11815
 3.50    724.5327  14.0342     403948.7    405.1638 -46.30     2.428     2.171   0.0002        305     78.92192
 4.15    728.2081  20.5114     1036.207   1178.6418  29.19     1.266     1.140   0.0514        306     49.04213
 7.74    729.3223  23.0658      98.5575   1544.6659  44.46     0.573     0.336   0.3671        307     33.31756
 4.38    738.7025  21.1443     578.4663   1158.5879 -23.34     1.118     0.997   0.0860        308     45.79061
 4.23    722.2570  21.4803     424.4873   1395.4935  27.03     1.414     0.948   0.1230        309     48.08976
 3.66    716.4122  20.2887     1272.127    808.6302  60.69     1.328     1.238   0.0397        310     46.45912
 3.50    709.5981  20.1771     1409.842   1164.1588  86.11     1.439     1.361   0.0373        311     48.40929
 3.50    736.5903  21.1590     570.6714    649.9605  76.30     1.226     1.108   0.0747        312     39.26513
 3.50    727.1608  15.9648     68244.93    848.6786  76.78     1.963     1.871   0.0010        313     65.70312
 3.50    708.0294  22.6119     149.7118    538.9688  44.04     0.889     0.531   0.1756        314     24.20465
 4.68    704.7802  20.0224     1625.733   1339.4032 -58.88     1.821     1.467   0.0500        315     74.91308
 3.57    703.4919  19.5461     2520.993    952.7863 -56.63     1.598     1.390   0.0223        316     51.79425
 5.23    699.5565  20.9326     702.9988    582.9042   3.49     2.023     1.118   0.1201        317     77.74098
 6.80    700.1694  22.7986     126.0519   1277.1443  46.84     0.747     0.569   0.3797        318     44.07499
 5.39    692.5303  20.9401     698.1628   1214.0188  17.59     1.415     1.272   0.0755        319     48.52639
 4.92    687.4340  21.1764     561.6097   1214.1903 -69.69     1.387     1.032   0.0870        320     44.97293
 6.17    692.2563  21.4620      431.729    316.3090 -81.88     1.182     0.959   0.1629        321      64.7577
 5.54    683.6010  19.4709     2701.693    472.7822 -66.62     3.086     2.396   0.0595        322     147.9623
 5.33    687.9856  21.5873     384.6791    131.4112  76.18     1.184     0.921   0.1568        323     55.52927
 3.96    686.0824  19.7860     2021.108    644.6427 -80.88     1.407     1.344   0.0286        324     53.26181
 5.22    681.5072  19.7108     2166.041    543.8396 -79.91     2.312     1.563   0.0492        325     98.08425
 8.86    685.3240  22.4460     174.4155    401.3565 -43.71     0.583     0.330   0.2395        326     38.47181
 7.77    672.9717  22.6585     143.4191    231.5377 -57.83     0.792     0.315   0.3003        327     39.65583
 6.64    669.9019  21.2366     531.3013   1221.8636 -63.08     1.215     0.968   0.1440        328     70.45875
 6.76    667.5148  22.2104     216.6838   1180.8993  -1.22     0.779     0.500   0.2045        329     40.80552
 3.50    649.1013  15.9506     69145.35   1464.5920 -86.05     1.963     1.881   0.0010        330     65.23212
 4.18    655.2362  21.0522     629.6857    871.1076  81.69     1.234     1.063   0.0813        331     47.11815
 5.00    646.2665  21.7871     320.0221    653.4371  29.70     0.977     0.865   0.1542        332     45.45267
 3.50   1542.0973  19.1842     3518.339    135.5982   8.96     1.544     1.383   0.0152        333      49.3555
 3.50    640.2773  18.0202     10278.06    537.0754  70.69     1.669     1.590   0.0060        334     56.62897
 5.66    642.1149  21.7175     341.2023    277.0663  79.50     1.086     0.734   0.1581        335     49.66689
 3.86    631.2603  21.0682     620.4568    806.4702   8.50     1.234     1.050   0.0765        336     43.72379
 3.50    624.3685  20.4000     1148.186   1581.8943 -14.87     1.377     1.237   0.0417        337     44.07499
 6.75    619.0382  21.1881     555.5723   1151.8536 -41.13     1.248     1.003   0.1456        338     74.50034
 7.13    618.8722  22.2957     200.3165     96.2095  60.64     1.130     0.435   0.2642        339     48.72674
 3.50    616.4610  23.1511     91.10657   1235.4902  38.02     0.502     0.496   0.2293        340      19.2359
 7.22    614.6583  22.1802     222.8091   1367.6843 -44.23     0.907     0.525   0.2375        341     48.72674
 7.31    612.7003  22.8776     117.2094    996.6681 -43.29     0.562     0.341   0.2818        342     30.41463
 4.76    610.0890  21.9032     287.5627    946.0920  88.09     0.994     0.845   0.1611        343     42.65284
 4.19    606.0616  20.4256     1121.365    586.7002 -54.10     1.345     1.261   0.0527        344     54.40735
 3.50   1558.4323  16.1291      58663.8    488.0694 -77.54     1.896     1.842   0.0012        345     64.03948
 6.06   1520.3511  21.3662     471.5522   1101.0448  85.24     1.525     0.761   0.1491        346      64.7577
 5.55    589.0217  22.8973     115.1046   1139.4917  88.42     0.783     0.500   0.3230        347     34.23054
 7.35   1565.3229  22.7085     136.9623   1058.3408 -44.22     0.576     0.334   0.2412        348     30.41463
 5.21   1582.7250  22.2871     201.9175   1414.9049  53.70     1.081     0.504   0.2048        349     38.06895
 7.97    585.6938  22.5709     155.4724   1173.6711 -43.83     0.563     0.340   0.2453        350     35.11979
 5.57   1563.5049  22.8547     119.7083   1566.4948 -45.00     0.508     0.491   0.2468        351     27.20368
 6.27   1586.3579  21.2633     518.4082   1069.7926  29.30     1.172     0.838   0.1295        352     61.83478
 3.50   1576.3046  22.4705     170.5327   1491.8369  66.57     0.912     0.665   0.1732        353     27.20368
 3.61   1553.0736  17.0460      25212.5    682.5764 -22.93     4.579     3.897   0.0065        354     150.2372
 3.82   1561.7875  20.5707     981.0762    861.8610  79.01     1.292     1.097   0.0507        355     45.79061
 6.12   1551.7314  20.8097     787.2269   1222.3224   0.18     1.331     1.081   0.0993        356     71.97416
 5.05   1546.7560  20.5239     1024.284    863.8886  88.73     1.553     1.328   0.0759        357     71.54446
 3.50   1563.9949  16.1129     59542.07    304.6801 -88.03     1.869     1.774   0.0011        358      62.8242
 4.34   1570.7731  19.9235     1780.799     93.1671 -85.66     1.474     1.274   0.0362        359     59.28904
 7.43   1553.3304  22.9919     105.4973   1513.6652  44.81     0.577     0.334   0.3131        360     30.41463
 8.28   1570.5034  22.3307     193.9702   1038.4604 -48.05     0.506     0.492   0.2242        361     40.04273
 5.11   1538.0000  22.4322     176.6571   1428.0096   3.75     1.240     0.676   0.2836        362     46.12608
 3.82   1542.9838  19.5965     2406.488    655.1299 -56.86     1.502     1.336   0.0240        363     53.26181
 5.96    916.4685  22.0255     256.9229    253.1742  62.51     1.121     0.592   0.2046        364     48.40929
 5.76   1539.6965  23.0171     103.0784    263.6456 -42.68     0.573     0.335   0.2616        365     24.83344
 3.50   1435.0229  15.1533       144104   1090.9639 -82.98     2.036     1.965   0.0005        366     68.23551
 8.95   1534.9935  21.9224     282.5131    976.0000  90.00     0.855     0.289   0.1694        367     44.07499
 7.15   1523.0468  21.7175     341.2026     14.8185  49.97     0.825     0.670   0.1677        368     52.67969
 6.03   1529.0250  21.6343     368.3522    733.7032 -21.70     1.108     0.977   0.1801        369      61.0822
 5.07   1519.8167  22.0302     255.8195     85.6172 -72.50     1.161     0.557   0.1683        370     39.65583
 4.52    908.2434  22.1515     228.7791    660.1080  27.98     1.010     0.640   0.1688        371     35.55608
 3.96   1504.5485  20.7688      817.483    723.8884 -70.01     1.231     1.153   0.0622        372     46.78979
 5.92    904.3236  23.3007     79.38184    122.6568  44.16     0.577     0.333   0.3481        373     25.44671
 3.50    900.7195  18.5283     6436.815    303.1232 -89.85     1.661     1.533   0.0094        374     55.80622
 9.01    904.3443  22.5535     157.9833    735.3026 -47.02     0.568     0.338   0.2645        375     38.47181
 5.11   1515.3344  21.4657     430.2627    484.3164 -48.99     1.045     0.907   0.1246        376      49.3555
 6.93    908.3167  22.2468     209.5443      6.1786 -13.29     1.042     0.410   0.2248        377     43.36975
 3.50   1507.4878  16.7854     32049.65    269.8372 -84.60     1.835     1.752   0.0021        378     61.33408
 5.46   1501.0106  22.5075     164.8229   1155.7589 -74.06     0.691     0.646   0.2343        379     35.55608
 5.13   1504.9242  22.2655     205.9681   1097.0710  46.91     0.849     0.645   0.1920        380     36.41298
 7.35   1475.6508  20.4683     1078.143    999.2379 -18.64     2.125     1.026   0.1074        381     106.6682
 6.58   1484.2095  21.3105      496.379    575.4171  72.97     1.401     0.843   0.1556        382     71.11217
 5.27   1498.9062  21.8704     296.3713    845.0463 -19.13     1.028     0.802   0.1762        383     48.08976
 3.50   1515.2715  18.3079      7885.46    393.0519 -88.23     1.679     1.612   0.0078        384     56.90057
 6.83   1477.4834  22.8841     116.5059    199.4784  45.28     0.509     0.490   0.2928        385      31.4121
 4.36    905.4216  21.4835     423.2448   1315.4171  87.18     1.322     0.951   0.1234        386     48.08976
 3.50    912.7817  21.2510     524.3411   1001.3064  25.27     1.246     1.072   0.0813        387     39.26513
 4.42   1488.4760  21.8217     309.9598     78.6735  76.10     1.153     0.831   0.1494        388     42.65284
 5.67    911.4659  22.6669     142.3076   1576.0115  -1.50     0.788     0.499   0.2713        389     35.55608
 6.17   1476.9583  22.7974      126.196   1570.5151 -58.20     0.807     0.309   0.2703        390      31.4121
 3.51    929.0776  20.5988     956.0093   1322.8579 -72.59     1.305     1.111   0.0472        391      41.5543
 3.50    913.4169  20.8624     749.9666    838.8076 -71.85     1.247     1.148   0.0585        392     40.42592
 6.32   1481.3245  22.0535     250.3767    577.3334 -43.29     1.098     0.724   0.1659        393     38.25126
 7.30   1439.2085  22.2008      218.606    648.0193 -56.57     0.809     0.506   0.2308        394     46.45912
 5.54   1468.5515  22.7194     135.5945   1129.0027  -1.09     0.787     0.497   0.2777        395     34.67802
 6.30    938.6674  20.7738     813.7228    516.9307 -49.29     1.506     1.310   0.1167        396     87.44759
 5.09   1404.4819  22.3233     195.2954   1363.9774  62.74     1.050     0.658   0.2290        397     41.18161
 7.50    926.0289  22.6964     138.4911     47.4710 -58.39     0.810     0.308   0.2888        398     36.83395
 6.89   1454.2170  22.3355      193.116    391.6273 -74.31     0.731     0.458   0.2163        399     38.47181
 5.94    923.8541  22.1440     230.3604   1198.9100 -45.85     0.856     0.665   0.2094        400     44.42342
 3.50    939.8583  19.8969     1824.887   1067.4658 -89.17     1.432     1.255   0.0270        401     45.45267
 3.50    930.3751  17.6116     14974.34   1178.7606  84.79     1.699     1.624   0.0041        402     57.17088
 7.14   1449.4948  22.6220     148.3219     88.5105  63.31     0.500     0.500   0.2697        403     36.83395
 9.12    942.5068  22.3978     182.3357    725.5385  51.55     0.502     0.496   0.2687        404     45.11219
 5.91    947.8478  21.7566     329.1167    133.7883 -37.05     0.903     0.840   0.1659        405     50.28389
 6.25   1439.4867  20.9960     663.1132   1271.3823 -20.49     1.186     1.023   0.1103        406     67.32566
 3.50   1440.2611  19.5103     2605.416    619.5464 -27.38     1.421     1.386   0.0203        407     48.72674
 4.74    951.1777  20.8327      770.741    654.3840  85.02     1.685     1.317   0.0968        408     68.68591
 4.91   1060.3149  20.3890     1159.869    727.3629  35.75     1.774     1.428   0.0717        409     76.54182
 7.91    952.1282  21.5615     393.9181     61.8944  46.53     0.836     0.674   0.1606        410     58.23959
 4.37   1416.1224  19.9230      1781.52   1387.0178  45.83     1.374     1.311   0.0349        411     57.17088
 3.66    948.1127  21.5318     404.8243    445.7632  40.35     1.175     1.010   0.1043        412     38.87049
 6.53   1437.2300  21.2768     512.0031   1347.7289 -88.87     1.097     1.026   0.1438        413     67.78211
 4.57    949.9877  22.1294     233.4777    267.9930  74.27     0.786     0.760   0.1571        414     33.77714
 6.31    978.9025  21.4132     451.5604    452.9855  65.28     1.217     1.010   0.1017        415     42.30257
 4.48   1432.6814  21.2953     503.3768    341.3375  17.24     1.621     1.015   0.1233        416     57.17088
 3.62   1435.5524  19.1983     3472.926    225.2377 -44.02     1.487     1.431   0.0161        417     51.49573
 7.07    954.4677  22.7792     128.3298   1504.4949 -40.94     0.503     0.496   0.2935        418     34.67802
 8.76    991.3489  22.7668     129.7992      9.3209 -46.18     0.578     0.332   0.3219        419     38.47181
 6.36   1412.2885  21.9054     286.9814      1.6464  86.57     1.410     0.471   0.1655        420     43.72379
 5.65    965.2357  21.4966     418.1759    416.6206 -84.16     0.996     0.888   0.1368        421     52.67969
 3.50   1390.8578  19.5640     2479.593    713.7354  70.83     1.473     1.393   0.0216        422      49.3555
 6.74    961.5727  22.6183     148.8243   1116.2183 -20.65     0.766     0.443   0.2836        423     38.87049
 4.55    981.2570  20.5829      970.196    798.2967 -66.04     1.508     1.294   0.0698        424     62.33145
 3.90   1411.4556  20.9285     705.6592    350.2475  35.66     1.675     1.133   0.0811        425     52.67969
 8.02    960.3209  22.7001     138.0266    894.2833 -47.33     0.549     0.345   0.2728        426     34.67802
 3.50   1389.5865  18.3602     7514.839   1428.9622 -80.50     1.626     1.543   0.0080        427     55.25093
 3.50   1063.2626  21.3999      457.139      7.5492 -89.19     1.193     0.950   0.0855        428     35.98708
 5.72    982.8866  22.1608     226.8186   1487.6421 -21.87     0.896     0.690   0.2160        429     45.11219
 7.17   1064.4169  22.2986     199.7909    292.2371  18.86     0.769     0.450   0.2218        430     40.80552
 6.16    987.0939  19.8678     1874.447    454.5872  53.27     1.863     1.565   0.0598        431      103.141
 5.60   1421.5281  23.0282     102.0322    429.5072 -43.97     0.510     0.489   0.2895        432     27.20368
 3.50   1419.9911  17.4028     18149.74   1126.7795 -76.46     1.956     1.654   0.0037        433     61.83478
 3.50   1408.4337  19.5832      2436.26    308.8492 -56.97     1.452     1.299   0.0211        434     47.44423
 4.28   1067.2041  21.7518     330.5861    569.3190 -50.54     1.186     0.869   0.1401        435     42.65284
 5.10   1406.5454  21.1638     568.1669    330.3572 -89.53     1.225     1.076   0.1098        436     57.43993
 3.50   1401.1348  20.7087     863.9752   1032.0123 -89.17     1.495     1.240   0.0588        437     46.78979
 8.34   1303.6624  22.4526      173.358     43.2902  47.58     0.560     0.341   0.2281        438     36.41298
 3.50   1373.2327  18.2075     8649.912   1019.3414 -66.45     1.771     1.571   0.0072        439     57.43993
 3.50   1083.8461  21.4888     421.1753     43.3561 -56.69     1.367     0.919   0.1012        440     39.26513
 5.24   1394.8179  22.1648     225.9862   1534.9000 -42.36     0.834     0.660   0.1868        441     38.87049
 3.50   1393.6107  15.7779     81066.62    114.9470 -70.56     1.983     1.909   0.0009        442     67.09628
 5.17   1389.4781  21.4286     445.2073    807.0846  22.97     1.093     0.950   0.1278        443     52.38621
 5.60   1066.0344  20.4168     1130.557   1563.3739 -44.51     1.782     1.582   0.0889        444      92.5858
 3.68   1392.9153  19.9044      1812.34   1039.1959  17.79     1.539     1.436   0.0324        445     54.12324
 4.77   1073.5525  21.2831     509.0411      7.4531 -77.01     1.066     0.962   0.1019        446     47.76809
 6.66   1389.5215  22.7450     132.4309   1585.9739 -32.96     0.772     0.322   0.2576        447      31.4121
 3.50   1367.2622  14.3590     299498.2   1160.5736 -57.77     3.512     3.241   0.0004        448     116.0814
 6.94   1385.7444  21.2249     537.0688   1274.0172  36.99     1.453     0.785   0.1481        449     73.24814
 6.94   1371.4744  22.7744      128.896   1216.4929 -43.68     0.506     0.493   0.2647        450      31.4121
 8.34   1079.6771  22.4969     166.4299    922.3586  43.60     0.583     0.329   0.2348        451     35.98708
 7.37   1379.5977  21.7790     322.3989    319.3528 -83.52     0.987     0.642   0.1962        452     58.23959
 4.52   1106.1323  20.7874     803.6117    678.9626  30.31     1.740     1.327   0.0916        453     67.78211
 3.50   1082.4395  18.1019     9533.222   1148.5480 -15.94     1.635     1.590   0.0063        454     54.97117
 3.78   1307.9318  19.4118     2852.868    670.0645 -61.40     1.519     1.426   0.0208        455     54.68999
 4.14   1360.0585  17.6352     14652.17   1135.6959  78.79     6.701     5.106   0.0141        456     190.1073
 5.17   1072.9307  19.7304      2127.45   1219.4674 -77.69     1.840     1.730   0.0465        457     91.07478
 6.03   1091.6987  20.6982     872.4247    468.4362 -52.32     1.944     1.017   0.1032        458     82.92288
 4.03   1131.3701  22.2940     200.6395    359.3428 -39.45     0.918     0.738   0.1727        459     31.89914
 4.32   1305.6064  20.6304     928.6111    893.4267  25.93     1.507     1.188   0.0656        460     56.08181
 6.31   1299.6396  21.7511     330.7889     54.4888  52.05     1.011     0.784   0.1805        461     54.97117
 4.77   1130.3085  21.0302     642.5652    220.0021  13.02     1.329     1.136   0.0975        462     57.70771
 8.21   1363.0090  22.1389     231.4355    390.8603 -30.85     0.820     0.503   0.2416        463     51.49573
 3.50   1298.8274  14.8462     191216.5    725.2496 -64.34     2.138     2.033   0.0004        464     71.54446
 5.90   1368.2008  22.5738     155.0479    150.2008  47.44     0.767     0.553   0.2638        465     37.66179
 5.08   1346.4995  21.6531     362.0444    605.3703 -73.23     1.075     0.930   0.1499        466     49.97635
 3.50   1320.4645  16.8459     30314.75    660.4059 -86.48     1.872     1.774   0.0022        467     62.08361
 6.17   1352.5161  20.7406     839.0012    151.9784 -62.41     2.315     1.248   0.1343        468     103.7372
 5.33   1107.7830  22.7452     132.4048   1267.5741  69.55     0.742     0.449   0.2495        469     30.41463
 4.88   1347.1836  22.7289     134.4165    194.9433 -35.19     0.941     0.466   0.2577        470     31.89914
 5.42   1330.7937  20.9546     688.9214    387.5696  20.56     1.253     1.142   0.1002        471     63.55616
 5.93   1331.2777  20.4273     1119.634   1140.0361 -58.70     1.612     1.290   0.0815        472     84.03104
 5.01   1332.9452  20.6001     954.8905    108.1085 -28.93     1.375     1.145   0.0700        473     61.58494
 4.93   1319.6282  21.1239      589.447    264.8574  -9.13     1.136     1.076   0.0981        474     53.26181
 3.56   1273.1866  17.7246     13494.96    610.3627 -56.89     4.139     2.425   0.0090        475     111.3358
 7.20   1307.1810  21.6014     379.6874    845.1694  31.59     1.459     0.567   0.1845        476     64.51918
 3.50   1242.9283  20.6890     879.8221    673.2828  37.48     1.255     1.224   0.0531        477     43.01279
 3.50   1308.1204  19.4848     2667.466   1036.5072 -33.22     2.451     1.794   0.0296        478     72.82596
 3.50   1330.4060  19.1687     3568.624    656.2847 -73.98     1.653     1.479   0.0158        479     51.90351
 8.93   1325.5393  22.4868     167.9957    633.4948 -38.35     0.503     0.496   0.2781        480     43.01279
 7.26   1304.0469  22.6695       141.97    940.0000  90.00     0.867     0.289   0.2720        481     35.55608
 3.50   1278.9115  19.0152      4110.84   1331.8206  88.77     1.568     1.430   0.0138        482     52.09107
 3.50   1291.8816  18.4447     6951.974    762.5900 -26.61     2.010     1.589   0.0097        483     61.83478
 3.50   1130.2083  17.5168     16341.79    183.9557 -62.85     1.781     1.642   0.0039        484     58.23959
 5.21   1291.9332  21.9309     280.3094    546.3781 -20.37     0.973     0.731   0.1694        485     43.72379
 3.50   1292.8918  20.6371     922.8923    413.1745  65.04     1.341     1.141   0.0506        486     43.01279
 7.55   1305.9980  22.6415     145.6846   1422.7358  39.48     1.045     0.296   0.3042        487     40.80552
 3.50   1266.0510  19.2465     3321.847    808.2363 -57.37     1.564     1.429   0.0169        488     51.79425
 4.75   1278.1573  22.6700     141.9027    343.8332 -43.15     0.735     0.568   0.2289        489     29.90343
 4.89   1294.0817  20.1754     1411.984    742.7186 -35.75     1.393     1.299   0.0498        490      64.7577
 3.50   1274.2627  21.7470     332.0547    698.2961  54.80     1.293     0.959   0.1245        491     38.06895
 5.11   1229.5299  21.3026      499.996   1153.9814   5.26     1.230     1.055   0.1236        492     56.90057
 5.08   1259.6981  20.0770     1546.012    433.0517   2.80     2.146     1.779   0.0686        493     97.61155
 5.44   1213.4780  19.7943     2005.682   1429.7480  68.35     2.247     2.020   0.0618        494     114.0718
 4.71   1262.6415  21.3188     492.5986    855.5994 -79.99     1.321     0.910   0.1102        495     49.97635
 7.28   1141.9683  20.7603     823.8986    661.9371  66.37     1.389     1.114   0.1171        496     88.84683
 7.27   1262.8231  22.0438      252.619    216.6479 -22.23     0.875     0.675   0.2339        497     54.40735
 3.50   1152.1099  14.3237     309398.2    693.9232 -45.32     3.477     3.186   0.0004        498     114.7456
 7.02   1229.8079  22.0267     256.6304    916.2024 -46.12     0.773     0.562   0.1923        499     45.45267
 3.50   1080.3702  16.7463     33224.83    512.5157  80.06     1.857     1.799   0.0020        500     62.33145
 5.52   1237.7671  21.4306     444.3984     48.8353  65.13     1.039     0.895   0.1280        501     52.38621
 3.81   1205.1373  21.7472     331.9872   1218.0042 -79.25     1.198     0.764   0.1120        502     34.23054
 6.59   1230.3153  20.4655     1080.907    599.6453  67.20     1.508     1.415   0.0947        503      94.2363
 6.91   1238.6943  21.9262     281.5223    857.9288  10.26     0.736     0.680   0.1855        504     48.08976
 3.50   1214.9939  17.6269     14764.96    513.4677 -74.63     1.743     1.682   0.0043        505     59.02842
 4.42   1208.4054  19.9078     1806.707    839.1993 -62.99     1.602     1.284   0.0375        506     62.33145
 5.81   1177.5205  22.7788     128.3761   1599.4906 -44.38     0.507     0.492   0.2101        507     24.83344
 4.20   1211.3674  17.5326     16104.97   1279.3925  81.05     5.795     3.484   0.0125        508     186.0023
 5.95   1196.6462  21.8343     306.3856   1053.8929  74.64     1.003     0.734   0.1804        509     50.89342
 4.88   1182.2670  21.6143     375.2316    176.6350  62.08     1.121     0.901   0.1373        510     47.44423
 6.67   1210.9396  21.8606     299.0493   1416.9308  16.72     0.958     0.694   0.1955        511     53.83762
 3.50   1002.1303  20.3726     1177.488   1555.7512 -72.76     1.392     1.258   0.0422        512     45.79061
 7.97   1211.2574  21.7671     325.9545    829.9629 -63.59     0.962     0.614   0.2010        513     60.32023
 3.50   1219.6134  18.1119     9445.608   1195.3800  76.14     1.848     1.709   0.0070        514      61.0822
 3.98   1237.8583  19.9142     1796.087   1553.9387  64.62     1.567     1.321   0.0341        515     56.35606
 3.50   1234.6567  19.4635      2720.26    305.2964  89.29     1.489     1.389   0.0197        516      49.3555
 5.29   1195.5428  19.6953     2197.225    124.4430 -59.89     2.254     1.523   0.0476        517     96.33968
 5.89   1183.4395  21.5338     404.0844    674.1858 -88.14     0.960     0.915   0.1485        518     55.25093
 5.34   1204.0447  19.9989     1661.243   1076.3591  42.67     1.849     1.647   0.0601        519      91.9173
 5.18   1181.3368  21.1754     562.1226    549.8127 -12.79     1.164     1.089   0.1094        520     56.62897
 7.65   1177.4840  22.5061     165.0222     18.4838 -45.01     0.506     0.493   0.2532        521     38.47181
 3.97   1202.1682  20.0395      1600.31    339.5649 -84.59     1.404     1.315   0.0361        522     53.26181
 5.79   1185.5177  22.9086     113.9121    314.4807 -45.05     0.516     0.483   0.2801        523     29.38333
 4.65   1201.6884  20.2707       1293.4   1442.6635  76.47     1.843     1.472   0.0632        524     75.32357
 4.21   1154.3031  20.6390        921.3   1353.3689  39.81     1.460     1.345   0.0690        525     58.50372
 8.70   1156.9827  21.9395      278.103    567.4765  58.45     0.813     0.307   0.1666        526     42.65284
 3.50   1165.9020  16.2895     50606.91   1300.1238  86.34     1.926     1.826   0.0014        527      64.7577
 3.50   1138.7323  16.8038     31513.46    148.5036 -80.76     1.894     1.832   0.0022        528     63.55616
 3.50   1221.9934  13.4183     712311.6    995.2916 -37.06     6.412     5.406   0.0003        529     203.0428
 4.05   1172.8602  18.2963     7970.441    758.1492 -82.97     3.682     3.508   0.0195        530     143.1966
 6.37   1146.9950  22.6567     143.6498    795.2426  89.77     0.695     0.429   0.2554        531     33.77714
 7.36   1168.5026  22.7758       128.73   1599.5007 -44.96     0.502     0.498   0.2566        532     30.41463
 3.50   1158.0741  18.6427     5793.428    236.9031 -38.38     1.608     1.560   0.0103        533     54.97117
 4.37   1162.3535  21.1366     582.6027    888.1488 -29.79     1.255     1.001   0.0896        534     48.08976
 4.15   1151.4888  20.1435      1454.09     99.9889   3.97     1.449     1.230   0.0406        535     54.40735
 5.42   1129.5151  21.0378       638.09    547.7855 -37.72     1.116     0.962   0.0931        536     54.68999
 8.38   1148.2976  22.6389      146.031    113.3110 -44.19     0.552     0.345   0.2739        537     36.83395
 7.32   1145.0153  22.4205     178.5721    770.4980 -40.28     1.173     0.341   0.2805        538     46.12608
 6.18   1089.0851  21.6322     369.0944    397.0436   2.99     0.986     0.851   0.1634        539     55.52927
 6.22   1133.9962  21.2403     529.5057    608.0329 -38.84     1.271     0.889   0.1328        540      64.7577
 3.50   1104.9940  17.9816     10650.05    752.1788  71.48     1.725     1.634   0.0058        541     57.17088
 5.92   1110.8606  20.0286     1616.467    479.3548  -1.69     2.068     1.394   0.0670        542     99.79832
 3.81   1120.5547  19.6004     2397.953    330.2572  59.96     2.654     1.586   0.0348        543     76.74298
 9.11   1108.9913  22.1361      232.037   1124.5173 -57.58     0.787     0.317   0.2095        544     44.76913
 5.65   1114.4937  21.1503     575.2932    674.6971  11.59     1.110     0.976   0.1089        545     57.70771
 3.50   1107.7651  18.4571     6873.381    428.4221 -50.84     1.611     1.568   0.0086        546     54.68999
 3.50   1095.3090  16.8419     30424.38    778.4575  87.22     1.903     1.801   0.0023        547     63.06913
 3.68   1089.7329  19.3336     3066.014    642.8412 -48.12     1.481     1.401   0.0186        548     52.38621
 4.39   1095.3027  21.7663     326.1924   1136.9928 -52.89     1.078     0.958   0.1467        549     44.07499
 3.85   1087.1427  22.0220       257.76   1453.5167  63.23     1.052     0.863   0.1480        550     35.11979
 3.99   1096.3589  20.6599     903.7219   1526.9408  19.71     1.261     1.214   0.0589        551     49.04213
 5.26   1040.6012  22.3520     190.1898    467.5712   9.30     1.238     0.453   0.2151        552     37.66179
 4.75   1079.6744  21.1017     601.6355    330.5381  79.03     1.398     0.966   0.0992        553     54.97117
 3.66   1066.5029  21.4418     439.8318   1597.5929 -73.16     1.296     0.955   0.0970        554     39.26513
 4.91   1080.3822  22.6592     143.3257     53.7874  62.33     0.717     0.649   0.2489        555     32.85156
 6.36   1021.8588  21.4452     438.4474   1269.1729  44.67     1.616     0.720   0.1668        556     67.32566
 6.03   1075.4375  21.8619     298.7065    352.4842  67.16     1.278     0.658   0.1999        557     54.97117
 6.70   1052.3273  22.1691     225.0919    238.4852  30.60     1.007     0.541   0.2351        558     48.72674
 3.50    985.3408  16.8762     29480.51    558.8083 -89.21     1.843     1.776   0.0023        559     62.08361
 4.36   1020.1100  22.4028     181.4935   1155.3717 -20.82     0.907     0.672   0.1966        560     32.85156
 3.50   1040.6694  16.4732     42728.08    633.3705 -86.98     1.875     1.805   0.0016        561     63.31311
 6.27   1038.5111  20.6495     912.4402    122.0601 -39.00     1.742     1.086   0.1011        562     84.94345
 6.53   1043.6492  22.9220     112.5128    810.6618 -45.47     0.587     0.327   0.2785        563     28.85386
 3.50   1039.0747  18.2159     8583.357    525.7363  57.74     1.645     1.632   0.0071        564     56.08181
 3.50   1026.5022  17.3281     19442.89   1380.3579 -85.98     1.844     1.691   0.0034        565     60.32023
 6.21    993.3270  23.2770     81.13208    499.6560  44.28     0.579     0.332   0.3790        566     28.31448
 3.50   1023.9135  13.8457     480542.1     50.7433 -52.49     2.317     2.204   0.0002        567     77.74098
 5.79   1015.1899  21.7167     341.4374    453.6848  22.65     1.229     0.803   0.1801        568     56.62897
 6.76   1037.4863  22.8010     125.7781    242.4924 -44.89     0.516     0.483   0.2712        569      31.4121
 4.87   1028.0000  23.2114     86.18555    181.9908   0.00     0.854     0.289   0.3050        570     24.20465
 5.12    992.6129  22.2418     210.5133    346.7417 -69.91     0.970     0.585   0.1985        571     38.47181
 6.56   1028.1904  22.5704     155.5388    464.1618  45.33     0.766     0.559   0.3028        572     43.36975
 4.62   1030.6350  19.7842     2024.587    302.9965  70.88     2.390     1.861   0.0513        573     95.69741
 3.50   1010.3685  17.5013     16576.37    813.9998  54.67     1.748     1.704   0.0039        574     58.76665
 3.50   1011.6084  19.5454     2522.569    345.1447  71.70     1.466     1.396   0.0214        575     49.66689
 5.88    998.4233  21.9285      280.934    234.0481  75.28     1.019     0.744   0.1991        576     51.49573
 7.36   1011.1346  21.6316     369.2914    268.1519  76.23     0.969     0.698   0.1759        577     59.80685
 3.50   1000.7067  20.7941     798.6633   1274.2180 -41.59     1.223     1.066   0.0544        578     40.04273
