#   1 KRON_RADIUS            Kron apertures in units of A or B                         
#   2 Y_IMAGE                Object position along y                                    [pixel]
#   3 MAG_BEST               Best of MAG_AUTO and MAG_ISOCOR                            [mag]
#   4 FLUX_BEST              Best of FLUX_AUTO and FLUX_ISOCOR                          [count]
#   5 X_IMAGE                Object position along x                                    [pixel]
#   6 THETA_IMAGE            Position angle (CCW/x)                                     [deg]
#   7 A_IMAGE                Profile RMS along major axis                               [pixel]
#   8 B_IMAGE                Profile RMS along minor axis                               [pixel]
#   9 MAGERR_BEST            RMS error for MAG_BEST                                     [mag]
#  10 NUMBER                 Running object number                                     
#  11 FLUXERR_BEST           RMS error for BEST flux                                    [count]
 3.50      6.7833  18.5245     6459.364    753.4195 -26.31     1.693     1.620   0.0169          1     100.4267
 3.50     32.0168  20.4364     1110.325    450.2256  86.65     1.260     1.155   0.0714          2     72.99453
 7.42     94.5299  19.6182         2359   1126.0465 -61.25     3.501     1.728   0.1450          3     314.8692
 8.02     67.8408  20.6253     932.9775   1463.0812 -33.83     1.259     0.872   0.1699          4     145.9891
 3.81     94.1452  18.9120     4520.657    917.4310  14.88     1.585     1.534   0.0245          5     101.8379
 4.50     93.6758  21.4117     452.1981    347.4099  46.39     1.140     1.015   0.2056          6     85.59367
 5.09    105.6125  21.5072     414.1206     47.7606 -12.90     1.107     0.945   0.2358          7     89.93024
 6.29    125.2587  22.1932     220.1488    301.4771  41.24     1.148     0.796   0.5092          8     103.2299
 0.00    124.6718  99.0000    -50.04993    357.6577 -44.41     0.579     0.332  99.0000          9     50.68485
 4.09    150.3836  19.8563     1894.499     46.1507  65.34     1.635     1.429   0.0615         10     107.2974
 7.57    158.5237  20.6973     873.1692     50.8306  18.38     1.181     1.093   0.1848         11     148.5732
 7.31    172.0959  21.9797     267.9933    556.8343  72.46     1.420     0.587   0.4643         12     114.5871
 3.80    184.3493  20.4580     1088.447    378.5194 -34.85     1.375     1.236   0.0865         13     86.69816
 6.48    182.9585  21.2375     530.8796   1263.3208  14.54     1.401     1.073   0.2808         14     137.2552
 3.50    211.2733  16.3053     49874.89    967.4832 -69.18     1.866     1.833   0.0024         15     111.2162
 0.00    192.6844  99.0000    -15.43872    838.6912 -45.38     0.559     0.342  99.0000         16     42.51803
 6.27    205.2547  21.8798     293.8146     21.8521  59.72     1.337     1.165   0.4970         17     134.4538
 6.37    203.8773  21.8991     288.6388    986.0157  -0.32     1.075     0.834   0.3901         18     103.6897
 3.50    200.5236  22.9547     109.1759    185.5447 -71.37     0.500     0.498   0.3361         19      33.7899
 3.50    236.1223  16.8902     29101.07   1389.8429 -39.31     1.833     1.777   0.0041         20     109.4918
 3.59    223.8233  19.8158     1966.448   1093.4978 -34.27     1.495     1.464   0.0502         21      90.9821
 6.28    216.7570  22.8151     124.1486   1197.7780  72.53     0.841     0.346   0.5190         22     59.33312
 7.59    225.2516  20.4863     1060.378    975.8773  34.29     1.765     1.157   0.1916         23       187.12
 5.97    216.5507  22.5816     153.9408   1020.3140   9.96     1.056     0.470   0.5150         24     72.99453
 0.00    217.5131  99.0000    -5.636597   1562.4775  46.05     0.504     0.495  99.0000         25     55.17868
 0.00    225.0000  99.0000    -1.868408    860.9987   0.00     0.861     0.289  99.0000         26     42.51803
 4.91    235.9795  22.2018     218.4048    837.2560  88.88     0.678     0.436   0.2275         27     45.75174
 4.28    241.9200  21.1887     555.2826    566.7307  26.17     1.232     1.101   0.1652         28     84.47475
 4.84    246.7146  21.2895      506.075    577.7823  -1.83     1.243     0.938   0.1930         29     89.93024
 4.08    257.7660  20.1653     1425.212   1426.8837  -6.92     1.391     1.253   0.0705         30     92.53746
 6.75    269.4035  21.8758     294.9047    140.1496  52.59     1.628     0.415   0.3538         31     96.06876
 4.58    277.9707  21.8005     316.0752   1129.1667 -87.78     1.246     0.759   0.2660         32     77.42239
 6.09    284.9347  19.9688     1708.036   1328.3116 -42.84     1.663     1.477   0.1047         33     164.6716
 6.03    280.2587  21.9745     269.2737    955.4565 -53.81     1.023     0.798   0.3773         34     93.56001
 6.90    285.3190  22.1522     228.6323    744.0028   9.08     0.730     0.652   0.3876         35     81.61037
 6.04    312.6142  21.0947     605.4928    792.7368  -8.48     1.104     0.991   0.1972         36     109.9254
 4.48    331.6496  20.5458     1003.886    789.4247  -1.93     1.296     1.194   0.1034         37     95.57228
 3.67    337.3596  19.5642      2479.25    596.4562 -52.84     1.529     1.487   0.0412         38     94.06711
 3.50    372.8106  16.7839     32095.47   1263.0996  51.75     1.814     1.786   0.0037         39     110.3574
 5.42    359.9631  21.6195     373.4318    709.0217 -60.39     1.220     0.868   0.2822         40     97.05411
 5.23    362.7189  22.4139     179.6473    504.8946  20.82     0.716     0.677   0.3776         41     62.45803
 4.36    374.2651  20.4271     1119.811   1364.6586  -2.92     1.905     1.283   0.1131         42     116.6445
 0.00    371.2976  99.0000    -36.97656    469.3978 -41.33     0.586     0.324  99.0000         43     53.42653
 5.01    388.0258  21.0385     637.6628   1463.8275  77.41     1.123     1.099   0.1645         44     96.56269
 3.95    391.6115  22.6997     138.0729   1318.2032 -75.10     0.974     0.844   0.4972         45     63.21512
 5.02    399.9806  21.1611     569.5826    825.2182 -61.04     1.582     1.146   0.2255         46     118.2647
 3.50    415.9862  19.4965     2638.652   1308.2938  23.66     1.516     1.425   0.0366         47     88.86594
 3.50    413.0386  19.8148     1968.297     67.7270  -3.32     1.569     1.337   0.0481         48     87.24516
 3.50    457.3289  18.0681     9834.283     12.9412  -7.96     1.701     1.582   0.0108         49     98.02955
 6.87    451.0990  20.7905     801.2965   1221.0300  71.70     1.343     1.036   0.1907         50     140.6786
 3.50    465.0982  18.7459     5267.705   1075.2172 -80.28     1.645     1.546   0.0198         51     96.06876
 7.01    461.7713  22.2175     215.2762    276.7593  17.23     0.858     0.350   0.3337         52     66.15691
 3.76    487.6075  20.7722      814.959    574.5292  73.91     1.267     1.190   0.1064         53     79.84242
 3.94    504.3406  20.7367     841.9806   1142.3790  15.74     1.277     1.171   0.1075         54     83.34081
 3.50    498.6908  25.0303     16.13977    626.3044  45.28     0.554     0.344   1.6077         55     23.89307
 8.30    509.6959  22.3165     196.5248    999.3185  44.19     0.558     0.343   0.3493         56     63.21512
 6.56    535.8053  20.6842     883.7493    353.8041 -26.05     1.334     1.153   0.1741         57     141.6895
 3.87    546.8795  19.8090     1978.766    374.2849  16.25     1.446     1.339   0.0508         58     92.53746
 8.24    540.3218  22.6115     149.7668    674.3281 -44.70     0.570     0.337   0.4584         59     63.21512
 4.03    556.1749  19.7096     2168.454   1456.4642 -66.60     1.402     1.392   0.0491         60     98.02955
 3.66    560.6160  19.1650     3581.046    583.1944  -2.44     1.676     1.468   0.0297         61     98.02955
 3.50    565.6235  19.4619     2724.319    956.4192  86.61     1.451     1.440   0.0350         62     87.78874
 3.50    572.0057  19.5093     2607.933   1028.6418   6.28     1.523     1.419   0.0359         63     86.14769
 6.55    578.5235  22.0107     260.4373   1366.3136  41.35     1.239     0.645   0.4207         64     100.8993
 6.26   1010.3064  23.0697     98.19958    374.6631  43.49     0.567     0.339   0.5394         65     48.77152
 7.92   1574.3383  22.8446     120.8264   1374.2750 -48.75     0.553     0.343   0.5475         66     60.91562
 3.50    849.2397  18.7682     5160.865    215.1507 -35.43     1.576     1.543   0.0200         67      95.0732
 3.50    838.9365  16.6664     35763.28    275.7407  12.96     1.854     1.814   0.0034         68     111.2162
 0.00    804.9051  99.0000    -35.53003   1082.0669 -46.54     0.833     0.527  99.0000         69     58.52583
 3.53    786.1812  19.4069     2865.657    527.8295   6.34     1.471     1.427   0.0337         70     88.86594
 3.50    775.8160  17.4002     18194.38    728.0626  -9.56     1.744     1.684   0.0062         71     103.6897
 7.07    779.6011  23.2904      80.1355    993.2560 -17.31     0.715     0.462   0.9440         72     69.65967
 3.50    770.0457  18.7498     5248.938    369.6897   1.33     1.599     1.516   0.0196         73      94.5715
 7.65    721.8531  18.5422     6354.842    199.0433  75.96     2.871     2.045   0.0548         74     320.5592
 4.23    708.5518  21.1701     564.8656   1354.6356  66.38     1.128     0.938   0.1453         75     75.55652
 4.59    701.5817  21.8158     311.6566   1040.1263 -76.81     0.999     0.737   0.2403         76     68.97335
 3.93    697.5711  20.6664     898.3695     97.0785  28.15     1.454     1.222   0.1106         77     91.50349
 3.50    663.3879  16.3497     47874.91   1486.9547   9.77     1.838     1.819   0.0025         78     110.7876
 4.01    667.5025  20.5137     1033.998   1090.4330  32.70     1.378     1.265   0.0945         79     89.93024
 4.55    653.2896  21.5854       385.34    312.6598  48.80     1.221     0.914   0.2365         80     83.90971
 5.20    651.9135  21.4236     447.2614     16.6718  60.98     1.201     0.847   0.2222         81     91.50349
 0.00    641.6756  99.0000    -18.80823    211.3024  46.20     0.560     0.342  99.0000         82     27.58934
 5.63    634.6196  20.6775     889.1917    871.5801 -59.79     1.504     1.136   0.1562         83     127.9265
 7.01    611.2307  21.7385     334.6487    572.0879  65.10     0.972     0.774   0.3395         84     104.6033
 7.53    611.0481  21.8564     300.2177    590.2112  -5.04     0.933     0.751   0.3945         85     109.0564
 7.31    601.3771  24.7079     21.71851   1580.3748   7.31     1.020     0.633   5.0922         86     101.8379
 8.15   1580.3208  23.0771     97.53064    831.3478 -43.85     0.578     0.333   0.7039         87     63.21512
 4.31   1566.1853  21.0698     619.5758     19.7813  -0.54     1.283     1.104   0.1548         88     88.32899
 5.97   1558.3076  20.5182     1029.725   1362.1667  63.44     1.218     1.134   0.1281         89     121.4401
 3.50    861.1357  15.3676     118293.4   1395.7646 -56.72     1.942     1.924   0.0011         90      116.236
 3.50    873.0208  21.3233     490.5544    448.2745 -57.95     1.157     0.986   0.1416         91     63.96325
 0.00   1529.4631  99.0000    -86.64392   1221.4849  41.20     0.503     0.495  99.0000         92     55.17868
 3.50    874.2851  21.5410     401.4318     39.7706  45.02     0.911     0.731   0.1396         93     51.61493
 4.73   1533.4241  20.6509     911.2416    875.5878 -34.95     1.433     1.359   0.1356         94     113.7538
 3.50   1509.1296  18.2872     8037.186   1282.0568  28.22     1.736     1.614   0.0135         95     99.95188
 4.16    878.1899  20.3047     1253.461   1341.2797 -81.45     1.308     1.265   0.0802         96     92.53746
 3.50   1460.5002  18.9904      4205.54    251.2835   5.61     1.654     1.493   0.0246         97      95.0732
 4.55   1486.6885  24.2580     32.87024    719.2939  46.09     0.550     0.346   1.1164         98      33.7899
 3.50   1414.7927  19.0614     3939.421    953.8018  16.79     1.588     1.463   0.0255         99     92.53746
 3.50   1464.8256  18.0237     10245.28    533.8793   8.77     1.726     1.631   0.0108        100     101.8379
 5.26   1438.3132  23.4049     72.11621    478.3628 -42.98     0.581     0.330   0.6232        101     41.38401
 5.59   1418.5559  21.2722     514.1901   1050.3850   9.61     1.122     0.961   0.2101        102     99.47478
 4.76   1397.2233  20.7407     838.8895    899.5108  86.80     1.274     1.107   0.1256        103     97.05411
 3.50    879.0897  17.4997     16600.11    166.0865  41.27     1.744     1.670   0.0068        104     103.2299
 3.50    918.1933  18.3673     7465.883    620.4602 -10.14     1.669     1.561   0.0144        105     98.99538
 6.55    922.6434  22.6448     145.2404    508.3062  47.22     0.575     0.334   0.3790        106     50.68485
 3.50   1383.8290  18.3779      7393.07    907.5646 -29.03     1.679     1.625   0.0147        107     99.95188
 3.71   1227.7982  19.6005     2397.788   1333.7915 -23.30     1.488     1.402   0.0421        108     93.05014
 3.50    941.8470  19.0174     4102.587    690.0891 -31.36     1.585     1.524   0.0253        109     95.57228
 4.04    935.6761  21.2935     504.1957    841.9122 -69.53     1.312     1.290   0.1948        110      90.4577
 3.54   1365.7184  19.7144     2158.849   1439.2535  28.65     1.470     1.353   0.0439        111     87.24516
 3.50   1228.1296  21.3920     460.4506    319.4973  63.77     1.038     0.938   0.1399        112     59.33312
 3.50   1306.8788  21.0748     616.6885    133.7601 -10.61     1.269     1.098   0.1251        113     71.01241
 3.50   1327.5264  23.8721     46.89795    458.5125  43.70     0.505     0.494   0.7825        114      33.7899
 3.50   1310.4937  17.7583     13082.66    923.8976   5.28     1.759     1.659   0.0086        115     104.1475
 7.57   1274.4218  22.5708     155.4868    570.1992  20.91     0.731     0.449   0.5321        116     76.18356
 3.50   1243.2957  18.2350     8433.454    570.4771   9.31     1.672     1.605   0.0128        117     99.47478
 0.00   1261.3463  99.0000    -46.03113    470.3010 -47.19     0.568     0.337  99.0000        118      33.7899
 5.46   1276.7207  21.4187     449.2751    260.7224  42.87     1.013     0.864   0.2135        119     88.32899
 0.00   1267.5327  99.0000    -15.39771   1562.4994 -42.84     0.507     0.492  99.0000        120     53.42653
 3.82   1247.6710  20.4579     1088.511     37.7784 -52.31     1.430     1.332   0.0897        121     89.93024
 5.63   1250.2047  21.5904     383.5803    492.4627  10.30     0.966     0.929   0.2576        122      90.9821
 6.24   1026.8057  20.4791     1067.516    607.6187 -18.49     1.433     0.855   0.1207        123     118.6662
 4.21   1236.0446  20.4978     1049.219    384.5432 -13.80     1.431     1.158   0.0958        124     92.53746
 7.43   1240.2915  22.1458     229.9824    865.0969  29.76     1.030     0.649   0.4918        125     104.1475
 3.50   1005.1924  21.7606     327.9264   1353.6735 -21.24     1.020     0.834   0.1884        126     56.87688
 3.50   1212.9338  17.3748     18624.81   1194.9965  44.05     1.804     1.776   0.0063        127     107.7398
 3.50   1237.0681  21.1764     561.5945   1246.3134 -29.54     1.381     1.191   0.1521        128     78.64172
 5.60   1041.7002  21.0613     624.3977    424.0800  32.55     1.245     0.990   0.1874        129     107.7398
 4.72    994.4263  20.2799     1282.394    145.0579 -12.80     1.464     1.253   0.0938        130     110.7876
 4.51   1020.4490  21.0094     655.0251    106.6252   5.18     1.232     0.958   0.1382        131     83.34081
 3.50   1000.2596  19.4958      2640.41    998.0823  45.51     1.490     1.421   0.0359        132     87.24516
 6.29   1039.7605  21.8023      315.572     23.4234 -72.32     0.740     0.462   0.2175        133     63.21512
 5.97   1039.4113  21.7635     327.0339   1084.2495  -6.75     0.992     0.481   0.2424        134     72.99453
 7.23   1036.2368  22.5584     157.2728    208.0035  -0.16     0.690     0.425   0.4667        135      67.5798
 3.68   1192.5526  19.7165      2154.85   1031.3252 -22.69     1.501     1.366   0.0459        136      90.9821
 5.54   1178.3993  21.3200     492.0525      6.1971  20.57     1.178     0.869   0.2131        137     96.56269
 8.66   1045.3119  22.3826     184.9095   1382.3235 -44.40     0.564     0.340   0.3885        138     66.15691
 3.50   1170.3538  25.7239     8.519653    839.3178 -46.50     0.579     0.332   3.0456        139     23.89307
 3.61   1153.1121  20.9036     722.0675    195.4326  50.02     1.116     0.999   0.0984        140     65.43387
 3.50   1089.1863  20.8248     776.3647    792.4478   6.83     1.352     1.074   0.1021        141     72.99453
 8.62   1124.4893  23.0999      95.5072     68.4893  44.98     0.502     0.498   0.8300        142     72.99453
 3.50   1129.4515  19.1865     3510.777    620.8256  15.83     1.581     1.485   0.0286        143     92.53746
 5.30   1109.7222  21.3527     477.4626   1267.4922  39.20     1.053     0.958   0.2081        144     91.50349
 6.27   1069.3116  23.3776     73.95178     62.6478  43.23     0.576     0.334   0.7304        145     49.73739
 6.97   1049.0215  22.4222     178.2913   1382.5255  58.33     0.809     0.309   0.3361        146     55.17868
 3.50   1093.9700  20.5216     1026.503     16.2002   9.75     1.396     1.187   0.0819        147     77.42239
 4.11   1056.9001  20.6049      950.665    239.6890  15.82     1.196     1.107   0.0959        148     83.90971
 5.90   1029.4553  22.3571     189.2979    766.3513 -70.12     0.929     0.814   0.5067        149     88.32899
