#   1 KRON_RADIUS            Kron apertures in units of A or B                         
#   2 Y_IMAGE                Object position along y                                    [pixel]
#   3 MAG_BEST               Best of MAG_AUTO and MAG_ISOCOR                            [mag]
#   4 FLUX_BEST              Best of FLUX_AUTO and FLUX_ISOCOR                          [count]
#   5 X_IMAGE                Object position along x                                    [pixel]
#   6 THETA_IMAGE            Position angle (CCW/x)                                     [deg]
#   7 A_IMAGE                Profile RMS along major axis                               [pixel]
#   8 B_IMAGE                Profile RMS along minor axis                               [pixel]
#   9 MAGERR_BEST            RMS error for MAG_BEST                                     [mag]
#  10 NUMBER                 Running object number                                     
#  11 FLUXERR_BEST           RMS error for BEST flux                                    [count]
 4.25     94.1570  16.8849     29243.18   1124.7493 -68.11     8.199     3.769   0.0087          1      233.179
 4.95     47.3470  19.2524     3304.096     46.5410 -16.09     3.493     3.138   0.0532          2     161.7931
 3.50     32.9521  18.1613     9025.429    449.8849 -71.56     1.861     1.763   0.0076          3     62.79834
 3.50      7.8402  16.1454     57786.36    752.8575 -61.82     2.123     2.040   0.0014          4     72.65588
 7.90      7.3287  22.8334     122.0731   1284.2866 -47.46     0.554     0.344   0.3096          5     34.79995
 5.06      3.8817  20.6881      880.552     72.1736 -16.48     1.297     1.175   0.0697          6     56.55421
 7.09      3.6434  21.0750     616.6177    946.9975 -11.20     1.397     0.946   0.1257          7      71.3622
 6.93      2.7658  20.9150     714.4637    934.9667   5.19     1.486     1.178   0.1127          8     74.13665
 5.98      1.3488  22.1067     238.4133   1254.5757  -1.93     0.882     0.476   0.1436          9     31.52255
 6.38      1.0000  23.3025     79.25208   1325.0350   0.00     0.860     0.289   0.3415         10     24.92076
 8.37     13.0423  21.7692     325.3143    858.5358  89.71     0.808     0.499   0.1745         11     52.27423
 7.51     27.2427  21.0512     630.2672    906.0284  62.58     1.235     1.115   0.1500         12     87.04448
 7.02     19.4468  21.9974     263.6592    234.2249  20.99     0.737     0.451   0.1639         13     39.79527
 8.06     24.1636  21.3245     490.0057    896.5063  -0.34     0.979     0.746   0.1523         14      68.7018
 3.50     32.3549  21.8555      300.479   1514.8187  89.71     1.186     1.023   0.1366         15      37.7942
 6.47     27.5052  23.5699     61.95227    374.4735  45.86     0.511     0.488   0.5526         16     31.52255
 5.35     33.3109  23.1436     91.73975      7.0528 -29.41     0.877     0.600   0.4522         17      38.2028
 7.27     32.5028  22.3719     186.7477    914.0272  -0.56     0.785     0.500   0.2672         18     45.95161
 4.86     69.0796  18.4949     6638.017   1463.1573 -72.90     2.832     2.480   0.0208         19     127.4375
 4.92     47.9787  22.6310     147.0953    228.2468  34.97     0.788     0.492   0.2177         20     29.48664
 5.48     49.6894  23.6866      55.6377    343.8810 -30.33     0.884     0.599   0.7843         21     40.18352
 0.00     48.6995  99.0000    -13.22632   1227.5970 -41.42     0.589     0.322  99.0000         22     13.64966
 8.16     50.9994  22.3952     182.7683    205.2584  89.97     0.683     0.438   0.2628         23     44.22997
 5.15     63.4169  20.9320     703.4204    888.7960 -31.82     3.064     0.817   0.1256         24     81.32726
 4.55     61.9151  21.1868      556.241   1014.1193  49.58     1.303     1.242   0.1110         25     56.82808
 3.50     95.2679  16.5052     41488.36    916.6253 -19.93     2.422     2.058   0.0020         26     76.81094
 5.83     64.5669  21.3350     485.2993    893.1599 -16.96     2.011     0.917   0.1258         27     56.21385
 6.77     80.7907  20.9108      717.261    541.1888 -68.13     2.157     1.464   0.1798         28     118.7338
 4.77     65.6199  21.4812     424.1459    970.7142 -47.07     1.062     0.962   0.1236         29     48.25885
 5.02     77.5636  19.9758     1696.957    183.5630  37.16     1.710     1.612   0.0522         30     81.51794
 3.55     94.6228  19.0481     3988.073    346.8269 -35.99     1.677     1.593   0.0158         31     57.91062
 5.25     93.1689  20.9092     718.3417    737.2796  14.59     1.251     1.167   0.0938         32      62.0522
 8.20     88.5198  22.0143      259.582   1025.5172  44.87     0.510     0.489   0.1681         33     40.18352
 4.37    106.6651  20.1357     1464.596    973.7143 -40.27     2.136     1.690   0.0606         34     81.70818
 3.53    106.5207  19.3455     3032.536     47.5245 -36.46     1.582     1.560   0.0195         35     54.31354
 6.54    100.5170  22.2106     216.6487    356.8520 -25.56     1.159     1.063   0.3610         36     72.01195
 3.50     98.5842  24.7411      21.0658    326.1557 -76.66     1.017     0.724   1.4927         37     28.95531
 6.50     94.3919  22.1172     236.1118   1248.7111 -17.31     0.722     0.459   0.1681         38     36.54101
 8.16     99.6920  22.8495     120.2842    173.3035  45.27     0.553     0.345   0.3182         39     35.24328
 8.06    106.0233  21.0446     634.0941    266.4735 -26.77     1.097     0.647   0.1161         40      67.7918
 4.83    115.4942  21.1571     571.6812    924.7029  69.09     1.227     1.049   0.1032         41     54.31354
 3.66    125.6434  19.3779     2943.437    300.7448 -25.91     1.673     1.549   0.0216         42     58.44437
 5.28    110.8920  21.7777     322.7874   1457.8762 -43.13     0.852     0.658   0.1299         43     38.60708
 5.57    118.1392  20.9899     666.8474     79.4567  35.20     1.594     1.028   0.1144         44     70.26595
 5.84    111.6869  22.9705     107.5962   1000.3212  44.58     0.563     0.341   0.2577         45     25.53618
 7.47    113.3548  22.9063     114.1515    460.6852  46.69     0.578     0.332   0.2999         46     31.52255
 4.38    114.4853  22.5061     165.0328     65.9743   2.48     0.781     0.499   0.1796         47     27.29933
 3.50    151.1911  17.2993     19964.93     45.4971 -66.61     2.041     1.875   0.0040         48     73.15982
 3.50    212.7002  13.8465     480158.4    966.9963  67.45     3.034     2.400   0.0002         49     93.24495
 4.55    130.1674  21.1838     557.7925     55.4243  86.66     1.181     0.973   0.0933         50     47.93604
 5.19    133.8928  21.3929     460.0884   1498.3713  36.64     1.003     0.833   0.1116         51     47.28382
 5.56    135.5188  23.4075     71.94409    735.5063 -70.98     0.956     0.414   0.5320         52     35.24328
 3.50    140.9441  21.2210     539.0118    218.5828  77.42     1.254     0.994   0.0778         53     38.60708
 4.75    158.6899  18.8514     4780.181     50.1477  10.83     2.348     2.026   0.0153         54     67.56132
 4.56    173.5511  18.8761     4672.779    556.9188  77.23     2.496     2.317   0.0251         55     108.0538
 6.34    144.6918  22.7596     130.6649   1194.3496  43.12     0.573     0.335   0.2407         56     28.95531
 4.48    152.7633  21.6073     377.6432    879.2148 -71.16     0.960     0.844   0.1167         57     40.56806
 4.57    183.9569  18.6486     5762.065   1262.7585 -84.47     2.679     2.323   0.0213         58     113.1084
 5.32    164.2391  21.4870     421.8762   1521.2362 -68.47     1.229     1.012   0.1511         59     58.70942
 5.85    166.0432  21.1842     557.6014    745.9159 -22.96     1.387     1.130   0.1390         60      71.3622
 5.41    163.4534  21.5565     395.7238   1154.1659  29.17     1.143     0.805   0.1402         61     51.07236
 3.50    185.4392  18.0173      10305.8    377.8520  44.06     1.855     1.791   0.0066         62     63.04509
 6.81    169.3121  21.8559     300.3557   1159.0532  72.00     1.088     0.734   0.2198         63     60.78827
 0.00    164.5888  99.0000    -30.50781    871.5212 -37.71     0.510     0.481  99.0000         64     28.41404
 6.12    173.3908  21.1527     574.0074    944.2777  23.96     1.450     1.084   0.1426         65     75.38273
 7.83    164.0000  22.2412     210.6229    757.9688   0.00     0.857     0.289   0.2052         66     39.79527
 6.57    174.5070  21.6805     353.0143    961.2061 -89.43     0.936     0.726   0.1644         67     53.44908
 3.50    237.4089  14.4147     284522.5   1389.3002 -60.89     2.351     2.198   0.0003         68     79.00314
 6.38    188.7956  21.0504     630.7404   1070.2379 -66.16     1.461     1.296   0.1154         69       67.042
 6.71    195.9452  19.8160     1966.004   1065.9102 -53.12     1.931     1.731   0.0672         70     121.7042
 4.45    205.1032  19.1177     3740.277    985.2596 -83.24     1.782     1.741   0.0171         71     58.97804
 3.57    206.2079  18.8257     4894.581     21.3743 -77.09     1.693     1.604   0.0130         72     58.44437
 4.34    201.3544  20.0133     1639.341    185.4896  86.30     1.485     1.274   0.0394         73      59.4975
 7.05    189.0036  23.9571     43.36853   1594.2350 -89.83     0.680     0.424   0.9256         74     36.96346
 0.00    191.5366  99.0000    -9.226929   1097.4672  44.41     0.505     0.492  99.0000         75     22.28981
 3.50    224.9645  17.2811     20303.83   1092.9434 -75.05     1.945     1.811   0.0035         76     65.22388
 4.38    204.9958  20.6253     932.9976    353.2603  49.54     1.546     1.354   0.0731         77     62.79834
 6.59    201.9016  20.8595     751.9731    411.7759  22.68     1.623     1.125   0.1270         78      87.9318
 7.27    201.7012  21.8400     304.7909   1294.1659 -70.66     1.030     0.553   0.1935         79     54.31354
 3.95    219.1305  19.3869      2919.01   1020.2579 -10.95     2.049     1.908   0.0290         80     77.81506
 3.90    216.9382  20.5442     1005.389   1198.2729 -67.75     1.806     1.434   0.0665         81     61.54974
 4.80    209.8886  22.4820     168.7285    908.2451 -60.11     1.031     0.637   0.2511         82     39.00716
 4.71    268.0666  18.5574     6266.497    140.2715  63.45     5.455     1.957   0.0263         83     151.7918
 3.88    223.2836  20.6059     949.8203   1178.1260  36.13     1.421     1.146   0.0566         84     49.52903
 6.87    213.4799  22.4436     174.8029   1061.5094  44.65     0.512     0.487   0.1958         85     31.52255
 5.89    243.6765  19.3592     2994.413    660.2729  56.74     2.330     2.070   0.0463         86     127.5592
 7.19    232.5093  19.8948     1828.495    654.0221   4.33     2.686     1.524   0.0855         87     144.0239
 3.64    243.0972  18.5398     6368.988    566.2015  29.51     1.831     1.749   0.0111         88     65.22388
 3.50    258.9529  17.7328     13393.18   1426.3889 -55.02     2.082     1.737   0.0052         89     64.74604
 4.32    236.7304  19.6312     2330.822    836.5421 -23.65     1.479     1.402   0.0283         90     60.78827
 4.43    234.4972  20.7418     838.0636    879.8083 -56.66     1.317     1.124   0.0689         91      53.1578
 3.65    247.8586  18.8148     4944.038    576.9484  28.21     1.725     1.657   0.0125         92     57.00012
 5.68    241.6002  20.2577     1308.931    368.8590 -66.00     1.584     1.499   0.0721         93     86.86592
 0.00    231.4599  99.0000    -30.81116   1316.5281 -43.68     0.508     0.490  99.0000         94     19.30354
 6.87    256.0625  20.4397     1106.923     76.0572 -78.27     2.310     1.137   0.1084         95     110.4696
 3.82    286.3719  17.4060      18096.9   1328.0706 -62.90     3.890     3.155   0.0079         96     131.7505
 5.62    254.1811  19.4442     2768.936   1369.5127 -46.50     1.972     1.808   0.0411         97     104.8451
 4.51    238.3008  24.2535     33.00647   1316.6440  42.47     0.572     0.335   0.6351         98     19.30354
 7.32    243.0217  21.0485     631.8524    966.3827 -11.22     1.220     0.776   0.1208         99     70.26595
 8.17    249.4651  21.3395     483.2864   1163.2465 -87.55     1.011     0.708   0.1528        100     68.02044
 4.76    251.7740  21.8434     303.8365    914.5338 -22.40     1.742     0.609   0.1748        101     48.89806
 6.79    262.3152  20.5969     957.7527    410.3904 -36.29     1.932     1.068   0.1091        102     96.19543
 4.93    296.6697  18.6131     5953.225    374.3661  32.26     5.369     2.131   0.0301        103     164.7411
 4.63    279.1549  19.1250     3715.279   1128.3959 -42.43     2.378     1.745   0.0272        104     93.07829
 5.14    265.0267  21.5694     391.0618    271.3459  62.87     1.163     0.935   0.1476        105      53.1578
 4.02    265.3846  22.6487     144.7227    721.8150  85.12     0.992     0.380   0.1870        106     24.92076
 5.52    266.8948  22.0567     249.6499    766.6589  13.69     1.008     0.750   0.2071        107     47.61105
 0.00    267.8004  99.0000    -21.64001   1587.3848 -72.59     0.760     0.451  99.0000        108      33.8959
 3.50    281.3238  19.1903     3498.546    954.9826 -84.42     1.527     1.520   0.0165        109      53.1578
 3.50    286.3437  19.6972     2193.459    743.1180  68.50     1.558     1.417   0.0253        110     51.07236
 5.12    279.5313  22.8981     115.0134    885.4368 -74.77     0.499     0.496   0.2353        111     24.92076
 4.28    313.5876  18.5450       6338.7    792.2487  34.69     2.350     1.960   0.0156        112     91.05461
 6.52    298.8550  21.1944     552.3719    863.1819   4.80     1.090     0.985   0.1306        113     66.40343
 3.50    338.2658  17.1377     23169.35    595.9975  86.26     1.988     1.823   0.0031        114      66.1692
 3.50    374.0516  14.3018     315699.9   1262.5981 -43.64     2.343     2.212   0.0003        115     78.60911
 6.78    314.6675  20.7448     835.7748    802.7544 -18.94     1.737     1.419   0.0821        116     63.17153
 3.50    332.8217  18.2038     8679.221    788.9773  77.38     1.801     1.696   0.0075        117     60.01714
 7.92    310.6430  22.0911     241.8473   1549.2216 -16.94     0.748     0.446   0.2033        118     45.27081
 6.14    323.1217  21.0413     636.0575    832.5522  78.74     1.122     1.038   0.1101        119     64.50579
 5.08    323.1987  20.7794     809.5216    288.7291  15.01     1.259     1.110   0.0791        120     58.97329
 3.58    335.5175  19.9017     1816.931   1145.5067  -3.58     2.145     1.792   0.0413        121     69.15231
 4.64    328.8070  20.5143     1033.448    720.3349   3.49     1.256     1.173   0.0594        122     56.55421
 7.17    326.4636  21.7250     338.8529    156.8145  84.35     1.010     0.378   0.1372        123     42.80281
 5.31    334.9207  20.7159     858.3019    661.6074  26.59     1.595     1.397   0.0990        124     78.21309
 6.72    335.5432  20.8024     792.5963   1037.4845 -50.33     1.435     0.834   0.0981        125     71.57944
 4.62    361.3767  18.8889     4617.884    708.3899 -68.65     2.379     2.219   0.0247        126      104.993
 7.08    347.7137  22.6784     140.8119   1598.6823 -79.01     1.124     0.968   0.4609        127     59.75788
 3.60    375.0627  17.9941     10528.46   1363.9340   2.09     3.088     2.411   0.0100        128     96.99908
 5.22    360.9517  20.6761     890.3386    640.6298  75.08     1.416     1.325   0.0865        129     70.92573
 7.34    348.8523  22.1429     230.5818   1576.8534  47.93     0.767     0.569   0.2211        130     46.95431
 3.50    363.9760  19.6424         2307    504.0932 -14.26     1.535     1.436   0.0245        131     51.97637
 9.13    358.2023  21.8879     291.6351   1050.3724  72.23     0.754     0.446   0.1924        132     51.67679
 5.78    369.4063  20.7385     840.6398   1341.4336  28.52     1.585     0.990   0.0925        133     71.57944
 7.95    359.4590  22.1915      220.499   1094.5118 -21.09     0.500     0.498   0.1979        134     40.18352
 7.06    369.6529  21.7589     328.4344    643.0444 -67.01     1.486     0.435   0.1852        135     56.00245
 8.31    363.6567  22.1934     220.1058     97.3249  45.78     0.578     0.333   0.1782        136     36.11361
 3.56    389.2385  18.5089     6552.903   1463.0966  57.58     1.796     1.631   0.0099        137     59.75788
 4.08    401.0529  18.3051     7906.357    824.7330  48.37     3.253     2.740   0.0166        138     120.6793
 4.81    377.7523  21.0912     607.4808    162.8285 -35.17     1.129     1.085   0.0940        139      52.5704
 3.50    385.9117  20.1780     1408.696    867.6343 -73.67     1.442     1.322   0.0372        140     48.25885
 6.46    383.3534  20.6029     952.4169   1277.6696  75.68     1.166     1.055   0.0814        141      71.3622
 3.50    392.8899  19.3899     2910.926   1317.5302 -48.64     1.483     1.396   0.0186        142     49.84152
 4.52    451.1505  17.6499     14455.75   1219.8578  56.07     6.476     2.500   0.0135        143      179.187
 3.50    413.7905  17.3132     19711.68     67.1341 -60.83     1.974     1.853   0.0037        144     66.40343
 6.39    391.2280  21.5644     392.8733   1206.1643 -88.79     1.130     0.746   0.1586        145      57.3719
 3.50    417.1918  16.9646     27174.04   1307.9253  37.73     1.929     1.914   0.0027        146     66.40343
 7.10    413.1869  21.5065     414.3658    665.6929  81.38     1.328     0.991   0.2121        147     80.94453
 7.54    410.2010  21.7651     326.5679    749.6277 -26.28     1.191     0.770   0.2344        148     70.48656
 3.50    458.0979  15.5915     96245.41     12.4038 -59.41     2.124     2.082   0.0008        149     72.44187
 7.10    420.3788  21.1851     557.1299    101.8098  71.35     1.223     0.902   0.1433        150     73.50568
 8.84    415.5115  21.7902     319.0923   1157.4949 -44.64     0.504     0.496   0.1469        151     43.16402
 8.79    420.2401  21.2274     535.8651    890.9982   1.82     0.800     0.551   0.1174        152     57.91062
 7.59    421.2487  22.5779     154.4648   1572.0276  -1.34     0.693     0.432   0.2852        153     40.56806
 6.96    425.6347  21.5918     383.0685    962.6557 -44.37     0.851     0.522   0.1312        154     46.28826
 3.75    439.7845  20.0785      1543.79    908.6335 -52.06     1.883     1.435   0.0428        155     60.78827
 3.50    466.2373  16.2624     51886.39   1074.6401 -82.23     2.009     1.929   0.0014        156     68.47543
 4.93    439.3988  21.2642     517.9753    814.9534 -86.52     0.990     0.950   0.1005        157     47.93604
 4.06    450.3367  19.8943     1829.266    174.3367  24.26     1.781     1.447   0.0384        158     64.74604
 3.66    449.1495  20.2152     1361.197    290.5052  -2.34     1.266     1.220   0.0361        159     45.27081
 3.75    462.7975  19.5778     2448.287    275.5684  22.46     1.563     1.439   0.0248        160     56.00245
 4.60    457.7794  20.8972     726.3021   1159.6694  30.96     1.323     1.096   0.0829        161     55.44519
 4.24    464.8949  20.8802     737.7472   1190.3889  89.16     1.284     1.008   0.0701        162     47.61105
 5.44    462.5362  21.4286     445.1971   1091.4558  46.22     1.073     0.828   0.1238        163     50.76745
 7.04    458.3414  23.1558     90.71265    977.3062 -46.69     0.569     0.338   0.3530        164     29.48664
 3.50    488.4671  18.1408     9197.467    573.8985  65.18     1.749     1.715   0.0070        165     59.23597
 3.50    478.8458  20.3023      1256.25   1017.2892 -36.08     1.346     1.227   0.0385        166     44.57961
 6.16    474.5374  21.3225      490.915   1137.3838  51.60     1.144     0.789   0.1275        167     57.64189
 7.74    473.0392  21.7604     327.9694    250.0121 -88.81     0.629     0.610   0.1533        168     46.28826
 8.05    480.7053  21.7099     343.5762   1570.9915 -56.06     1.184     0.443   0.1813        169      57.3719
 3.50    505.4442  18.0775     9750.087   1141.7743 -77.26     1.790     1.681   0.0067        170     60.01714
 5.17    497.3044  21.1800     559.7711    604.5627 -31.43     1.521     1.246   0.1367        171     70.48656
 4.88    509.5489  19.7438     2101.179    999.2165 -69.39     1.892     1.542   0.0422        172     81.70818
 6.12    491.4751  23.3623      75.0061    126.0398 -31.68     0.809     0.309   0.4564        173     31.52255
 4.61    506.7564  20.3415     1211.687    538.3772 -39.15     1.248     1.201   0.0497        174     55.44519
 6.48    501.2858  20.7643     820.8728   1011.1366 -15.97     1.193     0.944   0.0897        175      67.7918
 3.63    536.9082  18.3948     7279.222    352.6194   1.95     3.045     2.557   0.0150        176     100.3041
 5.61    532.8222  19.8047     1986.696    671.6838 -87.78     2.220     1.914   0.0406        177     74.30885
 4.11    530.4657  19.0966     3813.899   1006.1499 -29.50     3.129     1.873   0.0279        178     97.95476
 4.35    515.1706  21.3957     458.9214   1524.4115  21.59     1.027     0.838   0.0923        179     39.00716
 3.50    547.5992  17.2971     20005.29    373.7482 -79.16     1.871     1.761   0.0034        180      62.3019
 6.26    517.8668  21.6680     357.1078   1431.5239   1.73     0.928     0.743   0.1572        181     51.67679
 5.78    539.7258  19.9801      1690.24    673.9117 -57.04     2.086     1.647   0.0419        182     65.28173
 3.50    532.7166  20.9015     723.4265    653.9492  82.08     1.264     1.118   0.0603        183     40.18352
 3.50    561.1493  16.7002     34667.53    582.4084  88.25     1.943     1.890   0.0021        184     65.69823
 3.50    557.4207  17.2635     20635.49   1456.0345 -65.47     1.879     1.830   0.0034        185      64.0226
 3.50    566.7148  16.9748     26921.22    955.7006 -78.38     1.906     1.800   0.0026        186     64.26465
 6.89    543.4722  22.7762     128.6775    982.6802 -89.35     0.913     0.466   0.3673        187     43.52224
 3.50    573.1162  16.9993     26320.79   1028.1451 -54.28     1.932     1.853   0.0027        188     65.69823
 5.44    549.3787  21.6129     375.7117    755.1135 -34.91     1.325     0.965   0.1750        189     60.53232
 3.50    556.3796  20.2234      1350.91   1073.0961 -27.96     1.485     1.224   0.0372        190     46.28826
 5.45    554.3296  21.7532      330.161      3.4401  59.18     1.000     0.966   0.1598        191     48.57951
 5.15    557.5020  22.4718     170.3334    270.9468  87.46     0.804     0.701   0.2383        192     37.38114
 3.65    570.2971  20.5665     984.9272   1513.4263  20.57     1.251     1.230   0.0492        193     44.57961
 3.70    561.7103  23.0799     97.28345    757.2952  44.62     0.541     0.348   0.1759        194     15.76127
 3.50    579.8986  19.3513     3016.306   1365.4912  69.09     1.548     1.334   0.0183        195     50.76745
 7.26    562.5344  22.0999     239.8969    231.4810  41.04     0.502     0.496   0.1673        196     36.96346
 5.30    568.7847  21.7795     322.2601   1327.9811  65.62     0.991     0.611   0.1380        197     40.94899
 3.50    720.0618  15.3647     118607.2    199.1909 -41.82    13.077     9.717   0.0036        198     389.6734
 6.56    585.1160  20.9707     678.7566   1527.1716 -53.11     1.412     0.836   0.1128        199     70.48656
 5.02    585.8004  20.9637     683.1848    272.7299  74.17     1.403     0.987   0.0921        200     57.91062
 5.58    613.2350  18.7952     5033.966    571.9507  76.43     2.783     2.146   0.0292        201     135.2396
 4.51    987.4315  20.0755     1548.039    729.5488 -68.63     1.460     1.275   0.0430        202     61.29697
 8.33   1598.4415  21.7464      332.241   1443.7629 -19.91     0.735     0.456   0.1399        203     42.80281
 3.50   1595.0242  22.8905     115.8247    335.0103 -89.35     0.624     0.607   0.1884        204     20.09176
 5.09   1583.5215  18.2473     8338.721    830.3893 -72.74     3.707     2.843   0.0211        205     162.2722
 6.12   1576.9705  20.3902     1158.572    508.9666  89.13     1.612     1.207   0.0790        206     84.32649
 4.51   1574.5171  20.5244     1023.843     27.8831 -87.91     1.320     1.127   0.0579        207     54.59865
 3.50   1553.8016  20.8941     728.4154   1073.4061  49.03     1.171     1.091   0.0587        208     39.40318
 4.02   1554.8267  21.9875     266.0659    636.8438 -48.40     0.826     0.671   0.1204        209     29.48664
 5.82   1551.8873  21.3544     476.7125    217.3465 -74.79     1.326     0.773   0.1325        210      58.1781
 3.89   1532.0197  19.4585     2732.844    867.3597  86.06     1.589     1.537   0.0197        211     49.49677
 4.09   1451.6503  22.0224      257.645   1206.0732  69.49     0.908     0.669   0.1287        212     30.52157
 3.50   1385.0707  15.6803     88692.41    906.9302 -73.43     2.137     1.994   0.0009        213      71.3622
 3.50    850.0124  16.1779     56082.02    214.4727 -66.55     1.976     1.937   0.0013        214      67.7918
 7.83    854.6661  22.8511     120.1018    613.3131  46.01     0.569     0.338   0.3106        215      34.3509
 3.50    839.7684  14.0876     384570.5    275.0393 -39.86     2.346     2.210   0.0002        216     78.41135
 5.05    848.7388  19.7553     2079.144    646.4524 -73.63     2.492     2.052   0.0589        217     112.6959
 3.50    845.2832  19.9127     1798.547     98.6556 -80.65     3.295     1.270   0.0430        218      71.1443
 5.04    846.4573  21.5563     395.8021   1141.6185  71.75     1.481     0.918   0.1604        219     58.44437
 3.50    879.4688  17.4686     17083.23   1340.6351 -67.68     1.854     1.745   0.0039        220     61.29697
 5.77    835.4118  20.6339     925.6388   1371.1257  40.46     0.995     0.929   0.0641        221     54.59865
 4.22    826.7810  21.6358     367.8741    342.2381  79.02     1.218     0.958   0.1316        222     44.57961
 3.50    823.0052  22.6856     139.8835   1599.5493 -89.49     0.787     0.498   0.1560        223     20.09176
 7.82    821.6789  25.1494      14.4624   1153.3163  45.24     0.565     0.340   2.5795        224      34.3509
 3.50    818.6816  20.3305     1224.066   1030.0120  12.00     1.329     1.314   0.0402        225     45.27081
 4.00    816.9885  20.6600     903.6427    819.3132  69.68     1.278     1.162   0.0576        226     47.93604
 6.86    806.8745  21.8364     305.7919    300.1245  46.58     0.818     0.677   0.1781        227     50.15207
 3.50    793.3639  20.9707     678.7902    937.7939 -10.86     1.696     1.064   0.0751        228     46.95431
 5.79    793.2579  20.9423     696.7472    434.5865  65.46     1.262     0.900   0.0955        229     61.29697
 3.50    792.0000  22.0732     245.8867   1463.8378 -87.87     0.982     0.838   0.1392        230     31.52255
 3.50    787.0515  16.8520     30144.99    527.2347 -72.96     1.981     1.904   0.0024        231     66.40343
 8.10    789.3751  20.6819     885.6368    867.7164  71.58     0.990     0.587   0.0749        232     61.04315
 4.42    787.4064  21.5393     402.0363   1108.0948 -83.32     1.505     0.950   0.1404        233     51.97637
 3.50    776.7722  14.8500     190539.1    727.4407 -70.96     2.201     2.085   0.0004        234     73.71661
 5.57    787.2328  21.4048     455.0513    218.2828  -5.47     0.908     0.647   0.1013        235     42.43853
 3.50    784.8297  21.0240     646.2661    183.9135 -33.23     1.146     1.032   0.0614        236     36.54101
 7.51    784.8787  21.3010     500.7085    374.6598 -18.08     0.909     0.675   0.1268        237     58.44437
 3.50    780.7609  19.6527     2285.152    992.5387  78.75     1.368     1.334   0.0222        238     46.62247
 3.50    770.8383  16.2257     53666.48    369.1132 -67.78     1.974     1.895   0.0013        239     66.40343
 6.53    765.6365  20.9598     685.5842   1409.5160 -88.44     1.290     0.964   0.1137        240     71.79602
 4.26    762.5145  21.8318     307.1017   1360.1163 -73.92     1.068     0.877   0.1393        241     39.40318
 4.89    760.6526  23.0047     104.2603   1039.3221  46.07     0.578     0.332   0.2011        242     19.30354
 5.12    756.9484  21.5401     401.7438    889.1730  57.64     0.988     0.660   0.1097        243     40.56806
 7.67   1583.2874  21.8093     313.5339    370.4407 -21.32     1.147     0.537   0.2052        244     59.23597
 6.56    743.2925  21.4068     454.2148   1293.0260  -1.59     0.747     0.687   0.1091        245     45.61248
 3.89    735.6713  20.3525     1199.453    372.2827 -40.50     1.368     1.185   0.0446        246     49.21456
 6.88    735.5160  21.6689      356.807   1080.9215  -0.57     0.773     0.500   0.1246        247     40.94899
 5.86    731.2867  21.4573     433.5734   1468.3378 -76.91     1.246     0.664   0.1317        248      52.5704
 7.24    743.0247  21.0024     659.2076   1432.4613 -87.49     1.168     0.954   0.1252        249     75.99811
 3.50    728.8027  20.3415      1211.71    127.9314  65.09     1.815     1.633   0.0531        250     59.23597
 3.94    724.3919  19.6974     2193.039    970.2457 -85.18     2.450     1.662   0.0386        251     78.01432
 3.79    727.3688  20.0876     1530.958    624.0144  -1.82     1.372     1.300   0.0356        252     50.15207
 6.70    725.8500  21.4161     450.3649   1433.8589 -44.25     0.839     0.661   0.1171        253     48.57951
 3.50    719.8369  21.3144     494.5732    658.6907 -62.65     1.174     0.973   0.0812        254     36.96346
 5.95    741.9766  19.9880     1678.069    918.1022 -47.94     1.918     1.206   0.0579        255     89.50683
 3.50    709.9418  18.8413     4824.622   1354.0551 -76.30     1.612     1.400   0.0115        256     51.07236
 6.10    711.6713  22.9452      110.134   1241.1521  67.80     0.948     0.677   0.4790        257     48.57951
 4.90    708.2723  21.4310     444.2358    403.1562   0.61     1.165     1.006   0.1271        258     51.97637
 0.00    705.6754  99.0000    -12.86206   1242.6392 -43.61     0.585     0.328  99.0000        259     19.30354
 4.08    702.4844  19.2653     3264.994   1039.8816 -86.80     1.517     1.453   0.0197        260     59.23597
 5.80    702.4802  22.0079     261.1228     19.4207 -56.86     1.880     0.358   0.1953        261     46.95431
 3.50    698.2388  18.0234     10247.96     96.4589 -50.86     1.676     1.662   0.0062        262      58.1781
 7.72    698.9081  21.8235     309.4501    910.4150 -26.53     1.143     0.575   0.2169        263     61.80148
 5.83    688.0648  20.8049     790.7166   1185.2397 -46.18     1.275     1.213   0.0992        264     72.22723
 6.19    684.8482  20.2685     1296.005    494.5381  76.41     1.602     1.296   0.0734        265     87.57795
 5.18    682.2822  21.2078       545.63   1071.8645 -37.59     1.224     1.033   0.1147        266     57.64189
 3.50    664.6374  13.8030     499783.5   1486.4188 -57.27     2.380     2.204   0.0002        267     78.80637
 6.97    677.6722  22.9042     114.3739    940.3181  45.48     0.568     0.338   0.2749        268     28.95531
 5.61    674.2509  20.3917      1156.94   1442.3577 -23.85     1.299     1.244   0.0657        269     70.04463
 3.50    668.4413  17.7795     12829.29   1089.8324 -70.08     2.151     1.765   0.0057        270      67.1012
 4.30    671.5085  20.9401     698.1638    757.8257 -19.21     1.344     0.905   0.0725        271     46.62247
 6.96    671.3718  20.6944     875.4274    456.0335 -16.19     1.194     0.979   0.0930        272     74.96967
 6.39    669.1052  20.9097     718.0034    350.0106 -40.48     1.529     0.838   0.1086        273     71.79602
 6.10    667.8962  20.7819      807.697   1306.5988 -37.77     1.487     1.013   0.1005        274     74.76228
 7.27    668.6582  23.0419     100.7451   1040.7002 -47.10     0.566     0.339   0.3290        275     30.52157
 3.86    661.3326  20.9821     671.6763    316.6511 -21.41     1.393     1.225   0.0780        276     48.22189
 3.50    654.3220  18.9441     4388.777    312.1318  58.15     1.666     1.591   0.0140        277     56.55421
 7.79    659.0103  21.6708     356.1915    921.7308  89.37     0.670     0.444   0.1283        278     42.07109
 5.36    657.1987  22.5989     151.5092    685.8965  42.06     0.843     0.670   0.2852        279     39.79527
 3.83    652.8804  19.1242     3718.167     16.1437 -66.82     1.659     1.486   0.0174        280      59.4975
 6.51    648.5031  21.5796     387.3931     83.8029 -87.54     0.953     0.732   0.1506        281     53.73878
 4.30    643.4164  20.0841     1535.863    165.1923  71.41     1.432     1.277   0.0408        282     57.64189
 3.66    640.9592  20.4201     1127.133    220.0922  62.79     1.825     1.460   0.0568        283     58.97329
 3.85    635.9503  18.1865     8818.554    870.8044 -55.63     2.583     2.127   0.0109        284     88.63527
 5.85    636.3670  21.3802     465.5035    713.2728 -27.80     1.103     0.927   0.1363        285     58.44437
 3.50    633.0000  23.2687     81.75305    397.9916   0.00     0.836     0.289   0.1958        286     14.74332
 6.60    630.1810  22.3862     184.3004    108.0266 -55.50     0.816     0.513   0.2479        287     42.07109
 5.60    628.0944  20.8826     736.1554   1540.2069  27.17     1.293     1.121   0.0973        288     65.93414
 6.67    625.7720  21.3323      486.474    983.4990  -2.17     1.251     0.924   0.1569        289     70.26595
 8.22   1589.7009  21.4258      446.374   1461.0107 -10.63     0.741     0.680   0.1402        290     57.64189
 4.10    615.7365  20.3727     1177.374    191.4495  60.91     1.785     1.428   0.0602        291     65.22388
 4.21    611.5716  19.0743     3893.107    588.2308  14.18     2.596     1.592   0.0236        292     84.51041
 6.55    613.6649  22.6217      148.363   1535.3394  44.82     0.581     0.331   0.2119        293     28.95531
 8.65    607.5215  22.0171     258.9194    297.4977  43.76     0.505     0.494   0.1749        294     41.70041
 8.53    606.5175  21.9267     281.3866   1381.4932  43.97     0.503     0.496   0.1566        295     40.56806
 4.22    602.5912  19.8084     1979.864   1579.9037  -8.84     1.521     1.361   0.0331        296     60.27528
 7.83    597.8693  21.6818     352.5962    442.1408 -44.85     0.751     0.569   0.1601        297     51.97637
 3.50    595.8198  20.4796     1066.959   1054.3407 -89.55     1.270     1.154   0.0432        298     42.43853
 8.08    597.5260  21.6767     354.2423     31.0235   1.89     0.785     0.499   0.1538        299     50.15207
 7.67    588.0042  21.7628     327.2421   1536.5018 -87.74     0.820     0.499   0.1612        300     48.57951
 6.55   1589.6970  22.0572     249.5182    264.6829 -44.20     0.557     0.343   0.1260        301     28.95531
 6.04   1584.6581  21.9253      281.765    908.5366  57.03     1.067     0.804   0.2126        302     55.16446
 3.50   1571.6305  21.0400     636.7908    429.0382 -57.41     1.151     1.002   0.0645        303      37.7942
 5.85   1546.6389  21.4100     452.9182    436.8634 -57.07     1.089     0.581   0.1110        304     46.28826
 3.55   1567.0079  18.3079     7885.825     19.0851 -80.60     1.626     1.566   0.0076        305     55.44519
 3.50   1534.9148  17.9140     11334.38    875.2714 -86.94     1.850     1.642   0.0059        306     61.30235
 3.50   1560.6195  23.6499     57.54773    623.5128 -74.75     1.716     1.514   1.0463        307     55.44519
 7.47   1509.5585  21.9344     279.3977    525.2308 -20.86     0.742     0.450   0.1692        308     43.52224
 4.28   1535.1509  20.9863     669.0928    112.9040  60.82     1.146     0.989   0.0729        309     44.92654
 3.50   1559.6727  18.0513     9987.875   1361.5829 -68.37     1.745     1.591   0.0063        310     57.91062
 7.41   1568.4788  22.8301      122.448   1528.5316  46.68     0.504     0.495   0.3278        311     36.96346
 5.40   1556.2274  20.9707     678.7812    308.6033  31.79     1.065     0.888   0.0832        312     51.97637
 5.45   1562.3768  22.0605     248.7615    285.8193 -19.32     0.739     0.443   0.1332        313     30.52157
 5.92   1559.8711  21.3817     464.8369     26.1974 -27.26     0.987     0.751   0.1164        314     49.84152
 3.91   1522.8324  20.0638     1564.836   1514.5532  76.41     1.408     1.298   0.0365        315      52.5704
 5.99   1546.0128  21.7772      322.924   1236.4098   1.62     1.047     0.789   0.1798        316     53.44908
 4.17   1545.7317  19.6757     2237.349    664.4902  76.88     1.358     1.332   0.0269        317     55.44519
 4.31   1527.1224  21.7626      327.306    958.2054  77.88     1.046     0.813   0.1333        318     40.18352
 5.97   1510.2976  21.4495     436.7069    983.0817  57.52     1.084     0.991   0.1512        319     60.78827
 5.66   1513.0079  20.1304     1471.749    593.7835 -44.31     1.784     1.136   0.0592        320     80.17361
 7.31   1510.9725  21.7816       321.64      7.9879  41.77     0.884     0.532   0.1693        321     50.15207
 5.50   1520.9092  19.8582      1891.16    586.8411 -77.18     1.827     1.383   0.0495        322     86.14801
 4.05   1524.7307  20.8171     781.9159    802.9252  78.91     1.265     1.088   0.0657        323     47.28382
 3.50   1510.4840  15.5264     102197.4   1281.4663 -71.78     2.090     1.989   0.0007        324     70.26595
 6.43   1455.5348  20.3868     1162.169    128.6390  49.32     2.044     1.616   0.1079        325     115.4184
 3.50   1461.9943  21.0433     634.8833    597.6018 -69.09     1.138     0.918   0.0588        326      34.3509
 3.50   1504.7002  21.1876     555.8512   1360.6443  18.15     1.332     1.079   0.0822        327     42.07109
 4.06   1454.4182  27.2540     2.081665    455.0775   2.44     1.339     0.957  24.1485        328     46.28826
 5.87   1460.4852  20.8155     783.0421    123.4849 -64.05     1.313     1.249   0.0620        329     44.68363
 4.36   1474.1536  22.0943     241.1498    567.3289 -76.98     1.079     0.413   0.1280        330     28.41404
 5.17   1455.2758  19.9375     1757.866    717.1210 -62.49     1.426     1.334   0.0434        331     70.26595
 3.50   1482.1497  21.9183     283.5837   1409.0476 -56.73     1.059     0.797   0.1226        332      32.0113
 5.07   1473.2968  19.1203     3731.309   1562.7554  43.58     2.024     1.916   0.0288        333     99.05807
 8.54   1468.3329  20.9747     676.2723     54.2892  21.93     1.248     0.802   0.1348        334     83.95745
 6.21   1436.0176  22.2128     216.2113    485.3335  -2.64     1.035     0.841   0.2882        335      57.3719
 6.05   1480.9836  21.5410      401.427     23.2866 -31.67     1.305     0.714   0.1567        336     57.91062
 6.91   1419.5212  21.6406     366.2471   1083.4147   0.10     1.073     0.500   0.1440        337     48.57951
 5.53   1464.4952  20.9647     682.5459    881.9339   6.55     1.083     0.924   0.0869        338     54.59865
 4.12   1361.3853  20.7148     859.1843    520.9531 -63.86     1.183     1.102   0.0598        339     47.28382
 8.38   1458.6672  25.3860     11.63013    502.6410 -44.03     0.588     0.326   3.3722        340     36.11361
 3.50   1461.5692  16.3146     49449.14    250.7218 -72.86     2.031     1.908   0.0015        341      67.7918
 7.53   1460.1299  22.2297      212.865   1250.1620  43.51     0.759     0.574   0.2478        342     48.57951
 3.50   1466.0754  15.3228     123279.3    533.4296  78.83     2.383     2.032   0.0007        343     75.99811
 4.71   1417.7998  19.4715     2700.101    690.6979  88.17     2.543     2.114   0.0436        344     108.4841
 3.50   1398.4067  17.9411     11055.46    898.8309 -75.49     1.882     1.722   0.0063        345     63.91541
 5.23   1413.1299  20.0928     1523.692    965.9013 -51.24     1.554     1.329   0.0339        346      47.5755
 5.26   1439.5889  21.2821     509.5044    959.6401 -79.99     1.205     0.936   0.1182        347     55.44519
 5.85   1434.0284  21.4522     435.6141    890.3381  17.39     1.038     0.719   0.1266        348     50.76745
 5.18    862.9485  21.9078     286.3375    655.0118 -46.53     0.819     0.758   0.1539        349     40.56806
 7.64   1406.3228  22.3718     186.7596    183.3160 -45.35     0.565     0.340   0.1944        350     33.43471
 3.50   1416.1143  16.3169      49342.7    953.2365 -69.51     1.969     1.867   0.0014        351     65.69823
 6.47   1393.4110  22.7137     136.3136    778.1905  18.91     0.753     0.452   0.2877        352     36.11361
 7.33   1425.8359  21.6826     352.3297    837.5905  11.03     0.877     0.594   0.1593        353     51.67679
 6.51   1410.5024  21.6875     350.7673   1507.0568 -85.46     1.069     0.775   0.1809        354     58.44437
 3.50   1420.0104  18.9649     4305.688   1049.5074 -79.68     1.656     1.515   0.0138        355     54.59865
 6.66   1404.2319  20.8023     792.6594    753.3615 -59.97     1.547     1.113   0.1183        356     86.32805
 3.88   1376.7153  22.3858       184.37    522.7999  53.61     1.057     0.521   0.1674        357     28.41404
 7.52   1388.5931  21.5557     396.0062    402.7344  18.63     0.742     0.454   0.1213        358     44.22997
 8.42   1371.8041  22.2625      206.541   1047.3953 -70.69     0.752     0.446   0.2503        359     47.61105
 6.97   1392.8794  22.6594     143.3029    213.2036  60.90     1.165     0.431   0.3730        360     49.21456
 5.54   1381.9500  21.9198     283.1792    940.0408 -49.56     0.805     0.768   0.1696        361     44.22997
 3.54   1306.6525  20.5069      1040.51    723.4753 -75.39     2.048     1.302   0.0604        362     57.91062
 6.62   1368.2230  22.5819     153.9059   1364.4091  71.70     0.763     0.452   0.2752        363     39.00716
 3.50   1367.0601  16.9871     26616.27   1438.6954 -69.75     1.877     1.784   0.0026        364     63.53572
 3.50   1364.6747  21.0570     626.9288   1175.2870 -34.09     1.107     1.002   0.0618        365      35.6811
 4.04    876.1050  20.3393     1214.193   1084.7075 -28.86     1.244     1.203   0.0432        366     48.25885
 5.24    864.4854  21.4125     451.8457    522.6914  24.89     1.216     1.024   0.1379        367      57.3719
 4.26    874.0328  20.7197     855.3359    845.5032 -19.13     1.869     1.214   0.0807        368     63.53572
 3.77   1371.6851  21.2932     504.3148   1249.1526  63.98     1.091     1.014   0.0823        369      38.2028
 4.59   1350.2107  20.0267     1619.235   1493.6960  22.22     1.432     1.350   0.0431        370     64.26465
 3.50   1366.5422  20.3504     1201.838    332.5728 -65.15     1.378     1.155   0.0393        371     43.52224
 5.97   1376.5374  20.5121     1035.481    567.9445 -43.59     1.566     1.417   0.0920        372     87.75506
 5.68   1364.8011  20.9026     722.6984   1493.2467 -69.63     1.288     1.042   0.0969        373     64.50579
 3.50    873.5823  18.7592     5203.963    447.6536 -63.10     1.640     1.543   0.0115        374     55.16446
 4.30    868.1310  22.0297     255.9373   1057.4645 -21.29     0.886     0.683   0.1399        375     32.96707
 3.54   1307.7341  18.5282     6437.508    133.0576 -38.68     1.657     1.569   0.0094        376     55.72452
 5.79   1325.7029  20.9891      667.364   1202.3856  79.24     1.228     1.030   0.1046        377     64.26465
 5.47   1312.1108  20.5955     958.9226   1231.6163 -35.66     1.938     1.251   0.0957        378     84.51041
 3.54    874.6697  18.8752     4676.607     39.0317 -81.23     1.646     1.528   0.0131        379       56.279
 6.93    879.6802  23.3911     73.03882   1222.6667 -44.37     0.571     0.337   0.4305        380     28.95531
 3.50   1248.5431  17.6830      14022.1     37.3657 -76.40     1.825     1.713   0.0047        381     60.78827
 3.50    862.3931  13.9195     448943.8   1395.4015 -52.90     3.782     3.484   0.0003        382      125.473
 3.50   1311.6833  15.0849     153475.2    923.2286 -64.13     2.188     2.059   0.0005        383     73.29416
 4.93   1301.9756  20.6637     900.5844    941.8833 -13.25     1.170     1.086   0.0662        384     54.88228
 3.84   1275.3074  19.4081     2862.549    569.3286 -69.42     1.529     1.447   0.0217        385     57.10064
 7.19   1303.4929  21.7685     325.5308    953.5069  44.98     0.503     0.497   0.1233        386     36.96346
 8.19   1320.5138  23.2372     84.16479   1482.4796  45.51     0.506     0.493   0.5185        387     40.18352
 6.93   1259.3296  21.4835     423.2523    468.0339  43.72     1.017     0.726   0.1527        388      59.4975
 6.77   1301.0029  22.0497     251.2627   1553.9611 -45.22     0.910     0.525   0.1986        389     45.95161
 3.50   1237.1700  17.8669     11837.41    383.7987 -71.23     1.782     1.702   0.0056        390     60.78827
 3.59   1279.1519  19.9409     1752.436   1141.3660  -7.37     1.463     1.362   0.0309        391     49.84152
 3.50   1244.3210  15.5930     96116.62    569.9016 -68.57     2.097     1.978   0.0008        392     70.04463
 7.50   1268.3602  21.4239     447.1548   1312.2224  19.35     1.065     0.808   0.1658        393     68.24831
 3.50   1277.7515  18.7597     5201.338    260.1269  74.55     1.635     1.607   0.0118        394       56.279
 6.67   1220.1958  22.0927     241.5002    903.3673  72.31     0.775     0.442   0.1754        395     39.00716
 4.79   1267.2450  20.3189     1237.167   1407.5073  67.33     1.246     1.224   0.0518        396     58.97329
 7.93   1274.4855  21.9214     282.7834    942.0164  57.63     1.016     0.613   0.2344        397     61.04315
 3.79   1270.1284  21.1933     552.9515    755.1631 -40.38     1.172     1.009   0.0804        398     40.94899
 7.35   1254.0199  22.6088      150.135   1206.6636  89.79     0.736     0.673   0.3716        399     51.37547
 6.35   1261.3464  21.2042      547.407   1421.6387 -45.47     1.029     0.851   0.1170        400     58.97329
 5.84   1234.3195  21.5794     387.4857   1465.1670 -66.17     0.883     0.679   0.1269        401     45.27081
 3.50   1241.7740  19.2529     3302.457    864.6569  62.22     1.620     1.452   0.0174        402     52.86492
 8.04    900.4957  22.9236      112.342    298.5353 -47.69     0.506     0.493   0.3885        403     40.18352
 8.21   1251.7294  20.7889     802.5068   1422.2137  62.76     1.513     0.786   0.1192        404      88.1082
 4.12   1234.7330  20.5133     1034.358    710.9155 -67.00     1.333     1.114   0.0520        405     49.52903
 3.50   1229.0135  18.6097     5972.042    318.5288 -71.82     1.615     1.543   0.0099        406     54.31354
 3.50   1179.0875  18.6273     5876.042      5.8538 -83.74     1.689     1.548   0.0101        407     54.88228
 3.50   1214.1450  14.6728     224321.5   1194.3954 -60.99     2.238     2.104   0.0004        408     74.34578
 4.35   1224.6696  20.5401     1009.119    425.0283  62.52     1.317     1.205   0.0591        409     54.88228
 4.88    905.0942  21.7293     337.4901   1518.2821  77.45     1.314     0.584   0.1354        410     42.07109
 3.50   1251.3696  18.6735      5631.21    491.9989 -78.80     1.657     1.563   0.0109        411       56.279
 5.92    888.1315  20.7892     802.2493    688.9775 -57.79     1.707     1.034   0.1053        412     77.81506
 3.50   1228.9906  16.8548     30067.28   1333.2490 -81.64     1.960     1.871   0.0024        413     65.93414
 3.50    879.8435  14.9036       181365    165.4467 -63.62     2.184     2.097   0.0004        414     73.71661
 7.05    973.5118  22.2943     200.5852    281.4951  44.80     0.508     0.492   0.1810        415     33.43471
 4.40    916.7213  20.6247     933.4729   1145.3708 -10.66     1.250     1.064   0.0573        416     49.21456
 6.02   1185.5048  20.9207     710.7578    283.8190   3.59     1.112     0.978   0.0956        417     62.55061
 3.50   1238.4437  18.5316     6417.617   1245.6625 -68.69     1.644     1.528   0.0093        418     54.88228
 6.96   1198.6920  21.5214     408.7288    463.6628 -82.32     1.183     0.695   0.1669        419     62.79834
 4.86    921.3797  21.9707     270.2321    224.6592  48.63     1.091     0.925   0.1990        420     49.52903
 3.50    919.1842  15.7802     80891.27    619.8223 -71.50     2.027     1.911   0.0009        421     68.02044
 4.03    922.7933  19.7553      2079.21    505.8558 -66.61     1.413     1.387   0.0290        422     55.44519
 4.20    915.4302  19.1539     3617.919    936.0518  75.53     2.644     1.808   0.0271        423     90.36998
 6.91    921.2067  21.4552       434.42    853.6528 -71.79     0.953     0.662   0.1365        424     54.59865
 4.64   1178.5764  19.4666     2712.562   1464.2826   2.64     3.073     1.472   0.0390        425      97.4781
 3.50   1197.8568  24.4220     28.26062    610.2325 -45.66     0.700     0.552   0.8012        426      20.8502
 5.57    927.3735  21.3470     479.9594    855.5706 -47.75     1.059     0.862   0.1183        427     52.27423
 4.65   1203.3785  20.6895     879.4447   1349.1725 -80.47     1.240     1.074   0.0649        428      52.5704
 4.62   1205.8745  20.8743     741.8169    116.8624  43.22     1.186     1.112   0.0782        429     53.44908
 5.49   1189.1964  20.4000     1148.161   1456.5712  36.05     1.889     1.326   0.0806        430     85.24212
 3.50   1193.7871  17.0500     25119.61   1030.6880 -87.23     1.931     1.798   0.0028        431     63.77962
 5.87   1160.6014  21.6344     368.3303   1195.9904  62.62     1.027     0.652   0.1413        432     47.93604
 7.44   1187.9056  20.1604     1431.682    585.2480  36.51     1.464     1.043   0.0689        433     90.88393
 6.56    935.9239  21.0571     626.8538    678.9801   6.73     1.478     1.299   0.0921        434     53.17206
 3.50    932.5441  18.5168     6505.427    944.0935 -74.94     4.527     2.298   0.0186        435     111.1701
 6.34   1153.0000  23.4272     70.64819    542.0130   0.00     0.863     0.289   0.4613        436     30.00857
 6.78    929.8692  21.9596     272.9866    111.2704 -35.54     1.102     0.521   0.2020        437     50.76745
 5.26   1175.3789  21.3107     496.2804   1044.8125 -21.05     1.156     0.871   0.1144        438     52.27423
 8.45    936.6628  22.1802      222.796    765.6741 -45.50     0.576     0.334   0.1760        439     36.11361
 6.21   1159.4818  22.3883     183.9424     98.0129  -1.74     0.794     0.499   0.2256        440      38.2028
 5.30   1166.9652  21.9104     285.6613    432.2736 -88.17     0.742     0.657   0.1356        441      35.6811
 3.51    938.6542  21.4156       450.55    622.0769  23.53     1.046     0.875   0.0783        442      32.4927
 6.66    934.3132  22.0785     244.6901   1019.9688  -9.49     0.725     0.651   0.1994        443     44.92654
 5.97    933.1538  22.3520     190.1932    530.1095 -39.52     0.831     0.674   0.2485        444     43.52224
 3.59    936.8080  18.6119     5959.654    841.7275 -80.24     1.594     1.545   0.0101        445     55.44519
 7.84    972.3481  21.2274     535.8231   1261.0458  24.17     1.700     0.572   0.1561        446     77.01282
 3.50   1154.0920  18.2552     8278.083    194.7910 -82.67     1.735     1.608   0.0076        447     57.91062
 5.77   1147.7938  21.8629     298.4376    390.1435  39.32     0.810     0.682   0.1558        448     42.80281
 3.50    942.7796  16.3766     46703.89    689.4196 -82.63     1.966     1.886   0.0015        449     66.63683
 3.50   1139.2327  21.5881     384.3792    311.5732 -14.17     0.981     0.960   0.0931        450     32.96707
 3.50   1130.4121  16.5582     39512.71    620.1830 -77.28     1.953     1.841   0.0018        451     65.69823
 7.77   1132.6074  22.4471     174.2399    292.1523 -19.72     0.728     0.448   0.2757        452     44.22997
 3.86   1074.6722  19.7999      1995.38    141.8901  73.51     1.817     1.611   0.0360        453      66.1692
 3.50   1029.2568  19.5821      2438.73    309.9079  87.69     1.506     1.360   0.0219        454     49.21456
 4.18   1124.9321  18.2199     8551.805     68.4731  51.88     5.250     2.392   0.0186        455     146.5883
 5.42   1123.9146  21.1588      570.774    766.8862  86.58     1.225     0.827   0.1017        456     53.44908
 3.53   1015.9736  21.9272     281.2567    820.5222 -26.94     0.998     0.661   0.1054        457     27.29933
 7.38   1031.2301  22.6771     140.9866   1367.2107  73.67     0.848     0.345   0.3065        458     39.79527
 3.50   1095.0286  17.8210     12348.62     15.6405 -74.36     1.809     1.689   0.0054        459     61.04315
 3.50   1100.1575  20.7108     862.3107   1451.7600 -87.06     1.335     1.302   0.0570        460     45.27081
 3.50   1110.9348  18.8912     4607.944   1267.3542 -53.56     1.628     1.540   0.0129        461     54.88228
 3.50   1057.9159  17.9907     10561.13    239.0446 -89.28     1.815     1.614   0.0061        462     59.23597
 5.58   1085.2710  23.1883     88.03809    553.7729 -72.17     0.831     0.350   0.3702        463     30.00857
 6.15   1081.9420  21.2817     509.7205   1121.9431  70.76     0.796     0.786   0.0986        464     46.28826
 5.67   1078.0057  21.3775     466.6526    854.9566 -58.76     1.714     0.723   0.1461        465     62.79834
 4.39   1085.1819  21.6262     371.1208    386.2175 -88.27     1.155     0.765   0.1198        466     40.94899
 5.38   1080.6115  22.1773      223.405    306.4988 -75.20     1.019     0.733   0.2266        467     46.62247
 3.50   1090.2322  18.0471     10026.83    791.8683  77.65     1.735     1.668   0.0063        468      58.1781
 6.54    969.5267  23.0806     97.22473   1019.4875 -43.79     0.506     0.493   0.3521        469     31.52255
 6.34   1091.0231  22.2033     218.1127   1427.7740  89.07     0.703     0.418   0.1710        470      34.3509
 5.56   1067.3313  21.8066     314.3092   1184.4683  51.33     1.399     0.465   0.1504        471     43.52224
 3.91   1070.1584  19.8579     1891.646     62.2485  24.25     1.393     1.296   0.0303        472     52.86492
 4.07   1027.4890  18.1684     8966.629    607.2560 -18.76     2.941     2.238   0.0124        473     102.4483
 3.80   1042.8846  18.4102      7176.86    423.8866 -42.61     1.752     1.605   0.0097        474     63.77962
 5.23   1064.3309  21.5117     412.4128    531.7479  33.18     1.029     0.908   0.1329        475      50.4607
 4.96   1063.5302  20.1186     1487.857    862.0614 -58.01     1.458     1.242   0.0486        476     66.63683
 4.02   1040.8853  19.6363     2320.024     22.4731  -8.67     1.448     1.403   0.0265        477     56.55421
 7.19   1054.2803  21.3679     470.7926   1320.1046 -69.47     0.947     0.678   0.1317        478     57.10064
 4.46   1011.2761  20.2532     1314.412    374.0196   5.61     1.408     1.367   0.0511        479     61.80148
 4.07   1050.3533  20.9219     709.9408    312.3636 -17.60     1.447     1.126   0.0791        480     51.67679
 6.41   1049.1913  21.3949     459.2272    226.7028  59.86     0.859     0.616   0.1087        481     45.95161
 4.67   1047.5114  18.2377     8412.451   1382.1768 -66.89     3.633     2.561   0.0181        482     140.3107
 3.50   1006.4554  19.0095     4132.338   1352.7764 -73.64     1.613     1.464   0.0141        483     53.73878
 3.80   1040.3287  19.2871     3200.086   1083.9568 -85.21     1.551     1.422   0.0191        484       56.279
 3.55   1030.5763  19.3046     3149.024    765.6879  66.42     1.622     1.460   0.0186        485     54.02692
 3.50   1036.8967  19.7761     2039.677    207.5527 -77.78     1.439     1.289   0.0248        486     46.62247
 0.00   1043.1964  99.0000    -168.3966   1597.0045 -58.67     0.812     0.504  99.0000        487     46.62247
 3.50   1021.1419  18.5052     6575.127    105.8904 -72.26     1.699     1.569   0.0093        488     56.55421
 6.18   1035.4849  21.5079     413.8473    621.7720  35.42     1.396     0.666   0.1561        489      59.4975
 6.43   1030.0685  20.7839     806.1785    847.4033 -65.74     1.627     0.983   0.1075        490     79.78536
 4.29   1020.0123  19.8470     1910.656    502.1168 -87.00     1.466     1.287   0.0335        491     58.97329
 6.03   1009.3141  22.4575     172.5876    185.7090  46.43     0.550     0.345   0.1682        492     26.72454
 5.16    984.0339  20.8375     767.3901    173.4649  83.32     1.164     1.055   0.0785        493     55.44519
 3.50   1001.3738  16.7843     32082.79    997.5110 -79.83     1.961     1.820   0.0022        494      64.9854
 5.70   1002.4895  22.2560     207.7803    292.4987 -44.70     0.505     0.495   0.1427        495     27.29933
 5.12    999.5514  21.2092     544.9073   1446.3088  78.90     1.041     1.005   0.1024        496     51.37547
 3.50    995.1923  17.9271     11198.89    144.4737 -66.76     1.784     1.650   0.0057        497     58.97329
 8.39    991.9846  21.6743     355.0452   1076.9858 -46.45     0.908     0.527   0.1780        498      58.1781
