#   1 NUMBER                 Running object number                                     
#   2 EXT_NUMBER             FITS extension number                                     
#   3 FLUX_BEST              Best of FLUX_AUTO and FLUX_ISOCOR                          [count]
#   4 FLUXERR_BEST           RMS error for BEST flux                                    [count]
#   5 MAG_BEST               Best of MAG_AUTO and MAG_ISOCOR                            [mag]
#   6 MAGERR_BEST            RMS error for MAG_BEST                                     [mag]
#   7 X_IMAGE                Object position along x                                    [pixel]
#   8 Y_IMAGE                Object position along y                                    [pixel]
#   9 A_IMAGE                Profile RMS along major axis                               [pixel]
#  10 B_IMAGE                Profile RMS along minor axis                               [pixel]
#  11 THETA_IMAGE            Position angle (CCW/x)                                     [deg]
         1   1     546123.1     196.0455  13.7116   0.0004   1107.5068    180.8025     5.305     4.911 -40.47
         2   1     40204.24     193.8792  16.5441   0.0052     63.7599     52.3876     4.889     4.352  12.65
         3   1     5485.978     105.8842  18.7066   0.0210    985.1421     15.3538     4.152     1.817  89.51
         4   1     3773.076     59.10995  19.1130   0.0170     91.4487     17.1948     1.575     1.489  25.82
         5   1     9648.225     61.65346  18.0937   0.0069   1445.7733     13.1969     1.619     1.607  19.73
         6   1     372.0013     49.57125  21.6284   0.1447    384.7507     16.1952     1.040     0.832 -82.74
         7   1     186.8147     39.67636  22.3763   0.2306   1183.2109      8.6855     0.736     0.647  55.80
         8   1     329.5613     51.09687  21.7599   0.1684    145.8148      2.7085     0.875     0.617 -33.09
         9   1     908.4659     69.55448  20.6590   0.0831    367.3350     23.7039     1.400     1.202  33.24
        10   1      45172.5     73.31686  16.4176   0.0018   1078.4691     58.4521     2.004     1.825  60.08
        11   1     324.7379     62.88665  21.7759   0.2103    383.1711     22.8706     0.903     0.881  64.69
        12   1     663.5773     85.63603  21.0001   0.1402   1110.2778     32.3587     1.909     0.974  61.87
        13   1     353.8103     69.00026  21.6829   0.2118    327.5183     31.9549     0.834     0.695  -0.16
        14   1     114.0623     24.78562  22.9119   0.2360   1488.5518     29.5238     0.502     0.495  53.04
        15   1     226.6095     30.35607  22.1666   0.1455   1521.2543     36.4591     0.962     0.704  88.55
        16   1     281.9377     35.59564  21.9294   0.1371   1170.7378     37.5751     1.001     0.831  74.65
        17   1     240.5214     33.93911  22.1019   0.1532    915.3849     41.3325     0.925     0.818 -71.33
        18   1     221.2571     49.57125  22.1925   0.2433   1435.5917     48.2341     0.939     0.620 -73.14
        19   1     212.8651     41.10231  22.2345   0.2097    439.4663     44.4676     0.505     0.493  45.21
        20   1     43587.69     71.46044  16.4564   0.0018    537.7455     79.1055     1.905     1.803  -7.17
        21   1     143.9149     33.93911  22.6595   0.2561    265.6837     48.9591     0.919     0.209 -62.34
        22   1     70.31348     15.17803  23.4372   0.2344    881.6414     49.6731     0.585     0.328 -43.79
        23   1     1579.123     57.12804  20.0587   0.0393    128.1347     74.2168     1.453     1.362  16.43
        24   1     636.7502     83.36411  21.0449   0.1422    421.5560     81.3308     1.444     0.928  14.70
        25   1     64389.45     72.26189  16.0327   0.0012    789.1948    120.5688     1.945     1.857 -13.45
        26   1     2341.362     62.27311  19.6311   0.0289     56.2917     95.9662     1.594     1.443 -62.18
        27   1     933.5336     101.2501  20.6295   0.1178    377.3141     89.3102     1.743     1.423 -38.38
        28   1     284.7437     49.18245  21.9186   0.1876    495.9820     90.6747     0.749     0.659  -2.31
        29   1     579.8691     74.09824  21.1465   0.1388    453.5879     96.8231     1.647     1.056  -1.99
        30   1     152.5197     32.19747  22.5965   0.2293   1075.6849     94.6633     0.571     0.337 -46.02
        31   1     125.1852     29.71692  22.8109   0.2578    864.3951    107.2189     0.764     0.438  69.69
        32   1     157.0369      40.1573  22.5648   0.2777     67.0152    116.1657     0.956     0.468 -37.07
        33   1     158.5779      40.1573  22.5542   0.2750    415.9769    114.5088     0.785     0.500  -1.48
        34   1     129.3289     32.19747  22.7755   0.2704    154.0176    117.2253     0.680     0.418  -0.79
        35   1     278513.1     83.36411  14.4427   0.0003    318.1504    192.6793     2.258     2.100 -35.77
        36   1     36152.73     69.27792  16.6594   0.0021   1468.3263    160.8442     1.817     1.772  32.56
        37   1     300.2009     52.94212  21.8613   0.1915    418.0578    130.3049     0.737     0.671  11.62
        38   1     158.9691     41.10231  22.5515   0.2808    885.4984    128.5032     0.511     0.489 -44.99
        39   1      43791.3     242.6904  16.4513   0.0060    403.7292    233.9326     6.189     4.943 -45.90
        40   1      209.677     41.10231  22.2509   0.2129    353.8374    145.8660     0.758     0.568  45.43
        41   1     8441.844     65.28319  18.2387   0.0084    877.3600    169.0738     1.811     1.626  -0.21
        42   1     613.4713     57.79623  21.0853   0.1023   1445.8378    163.4660     1.138     1.080 -23.66
        43   1     1391.812     83.82343  20.1958   0.0654    325.4989    170.6974     1.576     1.409   6.39
        44   1     562.8336     57.79623  21.1788   0.1115    104.6417    165.8175     1.220     0.975 -54.54
        45   1     139.6981     25.54844  22.6918   0.1986   1369.1718    167.7950     0.744     0.561 -42.16
        46   1     528.4033     79.35271  21.2474   0.1631    575.4573    178.5435     1.052     0.847  44.31
        47   1     382.5141     50.59229  21.5982   0.1436   1354.6979    185.9523     1.294     0.938 -52.81
        48   1     1098.164     75.12743  20.4531   0.0743   1350.5454    191.0763     1.353     1.260 -13.49
        49   1     4917.457     147.2869  18.8254   0.0325    827.9134    209.4249     3.727     1.958  -4.21
        50   1     1607.352     56.45195  20.0395   0.0381    549.2784    205.5385     1.463     1.317   9.24
        51   1     193.1285     38.19721  22.3402   0.2148    267.3212    194.3135     0.563     0.340 -44.60
        52   1     849.0942      60.3951  20.7324   0.0772    349.9734    207.8263     1.598     1.246  26.86
        53   1     1613.578     55.42234  20.0353   0.0373   1306.1472    210.7312     1.424     1.333  14.08
        54   1     4470.749     167.6469  18.9288   0.0407    562.1378    228.9519     3.267     2.880  -2.68
        55   1     261.8525     46.78184  22.0096   0.1940    250.6948    202.2209     0.900     0.662  19.01
        56   1     533.9904      70.9211  21.2359   0.1442    684.6512    209.4440     1.070     0.953  51.31
        57   1     1893.685     52.94212  19.8615   0.0304   1226.1467    222.4275     1.444     1.306  26.90
        58   1     679.2919     55.76765  20.9746   0.0892    774.8510    221.1967     1.228     1.136   3.07
        59   1     120201.3     76.14271  15.3550   0.0007    997.4428    258.4975     2.053     1.906   8.11
        60   1     655.1876      70.9211  21.0139   0.1176    345.9449    221.7230     1.363     1.228  26.84
        61   1     82542.18     75.38253  15.7631   0.0010     67.5865    265.1008     2.031     1.879  -2.07
        62   1     322.6312     62.27311  21.7830   0.2096    548.3456    228.2284     0.891     0.762  10.53
        63   1      1329.28     89.36584  20.2457   0.0730    113.3172    243.4180     1.880     1.407 -81.86
        64   1     558.6559       56.791  21.1869   0.1104    838.9177    237.7224     1.282     1.044 -36.64
        65   1     3607.082     103.3147  19.1619   0.0311    612.7912    254.3776     2.549     1.747 -27.80
        66   1     116.9178     30.35607  22.8851   0.2820   1479.5089    238.9854     0.806     0.310 -58.19
        67   1     223.0266     46.36966  22.1839   0.2258    211.9850    236.4917     0.785     0.318  32.53
        68   1     582.5846     73.31686  21.1414   0.1367   1372.9886    250.5946     1.452     0.974  82.89
        69   1     285.6122     39.18951  21.9153   0.1490   1352.6121    251.9105     1.263     0.828  63.62
        70   1     178.8199     44.68292  22.4237   0.2714   1414.5033    246.5130     0.500     0.500 -14.22
        71   1     467.9304      67.3102  21.3793   0.1562    107.1974    249.7955     1.090     0.760   0.96
        72   1     340530.4     81.02852  14.2244   0.0003    439.4229    311.3768     2.197     2.011 -11.23
        73   1     19163.92     64.98846  17.3486   0.0037   1486.4139    286.0472     1.721     1.687  20.36
        74   1     413.6603     62.58063  21.5132   0.1643   1273.5546    269.0456     1.127     1.072 -82.61
        75   1     4218.448     58.12744  18.9919   0.0150   1522.3615    280.2949     1.530     1.486 -76.25
        76   1     114.9498     26.28912  22.9035   0.2484    124.9794    264.6647     0.933     0.206 -27.82
        77   1     95.14685     32.19747  23.1088   0.3675    498.6624    266.6922     0.568     0.338 -43.54
        78   1     1690.795     77.14463  19.9846   0.0496    514.9908    288.7805     1.756     1.589 -14.61
        79   1     56538.66     73.57825  16.1739   0.0014    905.4695    317.4287     1.963     1.845   6.52
        80   1     13861.84     65.28319  17.7002   0.0051    201.7938    302.2776     1.793     1.624   5.00
        81   1     1824.766     54.72517  19.9018   0.0326   1327.4825    292.5781     1.402     1.337 -87.06
        82   1     964.2258     99.52901  20.5943   0.1121   1413.6121    296.1295     2.195     1.240 -41.93
        83   1     687.5172     71.19128  20.9616   0.1125   1475.8376    291.9290     1.237     1.093  39.84
        84   1     290038.9     79.59428  14.3986   0.0003   1345.8704    350.0038     2.086     2.025 -19.86
        85   1     241.7073     52.57825  22.0966   0.2362    248.8008    291.1805     0.774     0.562 -43.98
        86   1     301774.8     80.79125  14.3556   0.0003    890.8081    350.2067     2.179     2.020  -6.41
        87   1     638.3452     61.34129  21.0421   0.1044    563.6510    301.0902     1.452     1.072  -1.22
        88   1     9485.509     64.39494  18.1121   0.0074    697.3223    320.8659     1.781     1.588   8.30
        89   1     652.7054     102.0057  21.0180   0.1697     85.1877    307.6422     1.381     1.280  78.06
        90   1     790.8848     93.35827  20.8095   0.1282    641.2813    321.3483     2.141     1.350 -73.63
        91   1     137.1034     32.19747  22.7122   0.2550    985.3195    308.6666     0.571     0.337  45.65
        92   1     1999.146      100.106  19.8027   0.0544    595.5634    326.4825     1.814     1.652 -29.83
        93   1     6363.469     69.27792  18.5455   0.0118    867.2098    345.2463     1.943     1.597  28.37
        94   1     365.5731      40.1573  21.6473   0.1193   1546.4867    327.5649     1.222     0.869 -35.62
        95   1     230.2668     42.92996  22.1492   0.2025    955.6740    323.3325     0.574     0.335  45.29
        96   1     452.1748     42.92996  21.4165   0.1031     93.1862    331.3411     1.261     0.963   8.23
        97   1     415.1925     66.73734  21.5092   0.1746   1440.4208    333.3611     1.109     0.793 -34.47
        98   1     78.97998     15.17803  23.3110   0.2087   1065.7026    330.6610     0.564     0.340 -47.15
        99   1     5211.833     75.89017  18.7623   0.0158    431.8577    354.7003     1.904     1.842  13.96
       100   1       168.87     43.81521  22.4859   0.2818    806.4822    338.0227     0.798     0.313 -57.94
       101   1     897.9579     72.79129  20.6716   0.0880     54.6703    349.2087     1.385     1.116   4.47
       102   1     9700.637     65.28319  18.0878   0.0073    761.0951    366.9506     1.772     1.586  -6.58
       103   1      1778.39     55.07486  19.9297   0.0336   1500.3344    359.5818     1.473     1.391 -71.04
       104   1     186.1956     44.68292  22.3799   0.2606     41.9935    347.7420     0.720     0.674  -4.03
       105   1     3652.609     62.27311  19.1483   0.0185    442.8058    366.3561     1.602     1.454   4.60
       106   1     447.4893     44.25119  21.4278   0.1074   1034.1500    359.3577     1.323     1.001 -21.18
       107   1      173.005     40.63255  22.4596   0.2551   1398.6235    354.7786     0.737     0.450  72.11
       108   1     261.8021     43.37484  22.0098   0.1799    532.9302    358.7258     1.019     0.746  76.30
       109   1        47839     72.52707  16.3553   0.0016    231.4159    394.2700     1.962     1.804  -4.06
       110   1     292.7111     54.37324  21.8887   0.2017   1415.1569    362.2943     0.933     0.670 -72.09
       111   1     646.6682      81.2651  21.0281   0.1365    754.2100    374.6461     2.046     0.724  44.39
       112   1     438.2311     63.19119  21.4505   0.1566   1084.1969    372.1427     1.314     0.879 -23.39
       113   1     159.5457     39.67636  22.5476   0.2701    210.5549    367.7691     0.759     0.445  68.93
       114   1     440.2574     48.39548  21.4455   0.1194    992.3721    371.5146     1.245     0.959  -4.57
       115   1     349.6959     61.02752  21.6956   0.1895     71.1674    368.8334     0.828     0.663  42.45
       116   1     175.7637     31.59559  22.4425   0.1952     87.1614    374.6644     1.078     0.409  13.72
       117   1     335.1373     55.42234  21.7417   0.1796    126.0072    379.0144     0.891     0.532 -44.75
       118   1     283.4891     40.63255  21.9234   0.1557      1.3709    380.1916     0.742     0.451  72.90
       119   1     6327.511     58.45678  18.5517   0.0100   1461.0891    395.5740     1.559     1.486  29.89
       120   1     7605.775     62.88665  18.3519   0.0090    354.5716    397.1368     1.748     1.526  -6.81
       121   1     1576.045     52.94212  20.0609   0.0365   1088.7413    392.3617     1.436     1.278  -2.02
       122   1     43546.66     71.46044  16.4574   0.0018    433.3101    418.5695     1.959     1.787   7.46
       123   1     20994.75      67.3102  17.2495   0.0035    837.4326    414.4074     1.842     1.679  17.19
       124   1     904.1604     103.8707  20.6642   0.1248    627.1854    396.1248     1.977     0.878  61.98
       125   1     268.5321     51.84285  21.9823   0.2097   1195.8057    387.8064     0.750     0.561  48.48
       126   1     373.0857     42.48042  21.6253   0.1237    977.5923    395.1255     1.235     0.985  76.25
       127   1     536.4603     77.14463  21.2309   0.1562    527.0042    401.9259     1.332     0.945  43.86
       128   1     258.0996     43.81521  22.0253   0.1844      1.3831    409.7713     1.567     0.375  78.27
       129   1     943.3199     88.28519  20.6181   0.1016    159.2099    420.2654     1.807     1.526  48.92
       130   1     116.5297     21.46498  22.8887   0.2000    282.5084    406.4822     0.508     0.492  44.57
       131   1     136117.4     76.14271  15.2200   0.0006    807.5850    459.8504     2.069     1.899   4.53
       132   1      3633.46     58.45678  19.1540   0.0175    926.3993    422.7900     1.637     1.440  15.32
       133   1     15360.99     66.73734  17.5887   0.0047    251.9980    437.0163     1.841     1.648  10.22
       134   1     807.6401     106.0654  20.7867   0.1426    135.1587    420.5904     1.978     0.991  11.87
       135   1     1259.977     55.07486  20.3039   0.0475   1421.9464    431.5284     1.412     1.251  63.69
       136   1     147.3162     35.05217  22.6342   0.2584   1580.4958    418.4487     0.505     0.492 -39.12
       137   1     322.1772     47.99715  21.7845   0.1618    774.9987    418.5029     0.801     0.312 -31.96
       138   1     367.4962     55.76765  21.6416   0.1648   1178.8044    425.3546     1.015     0.913  39.01
       139   1      502.964     67.59481  21.3009   0.1460    151.4437    433.0443     1.320     0.996   9.94
       140   1      193.552     48.79055  22.3378   0.2738    299.9872    425.5018     0.780     0.500   1.75
       141   1     198.9874      47.5955  22.3077   0.2598   1063.9739    423.0000     0.846     0.289   0.00
       142   1     7853.761     198.6719  18.3171   0.0275    850.5317    466.5239     7.483     1.917  22.22
       143   1     4809.342     61.34129  18.8496   0.0139     21.2809    449.5338     1.697     1.494   8.03
       144   1     294.6029     53.66245  21.8817   0.1978    720.1899    430.3995     0.757     0.446  19.42
       145   1      522.545     48.39548  21.2595   0.1006    305.9849    438.8527     1.359     0.978   1.90
       146   1     127.7274     29.71692  22.7891   0.2527    405.9717    431.7938     0.703     0.404  -1.01
       147   1     871.3309     77.14463  20.7043   0.0962    122.2891    444.4103     1.510     1.262  -4.61
       148   1     727.4508     55.07486  20.9003   0.0822    884.0020    446.2090     1.746     1.188   0.27
       149   1     5415.762     62.58063  18.7206   0.0125     34.5201    457.0356     1.689     1.526  -4.32
       150   1     273.1968     51.47121  21.9636   0.2046    655.0332    442.9377     0.791     0.785 -82.53
       151   1     257.0295     48.39548  22.0298   0.2045    174.9936    442.2404     0.691     0.427   0.30
       152   1     336.1641     51.47121  21.7384   0.1663   1533.1263    451.2191     1.155     0.715  78.27
       153   1       167.58     42.92996  22.4942   0.2782   1224.2380    452.1957     0.870     0.343  71.61
       154   1     1698.865     64.69238  19.9794   0.0414    468.6153    462.6931     1.524     1.259  11.59
       155   1     561.9293     45.95378  21.1806   0.0888   1096.2539    459.7192     1.317     1.075  13.04
       156   1     484.5128      60.3951  21.3415   0.1354    724.7584    460.2853     1.301     0.898 -40.63
       157   1     2133.762     52.94212  19.7319   0.0269    734.9095    470.8533     1.505     1.270  28.83
       158   1     1548.491     64.09612  20.0800   0.0450    254.2337    470.3935     1.561     1.282   8.56
       159   1     2734.422     56.11084  19.4626   0.0223    923.0995    476.6703     1.543     1.358  19.37
       160   1     177.3383     29.71692  22.4328   0.1820   1132.7686    470.0435     1.272     0.474  69.41
       161   1     975.0861      67.3102  20.5822   0.0750   1276.8671    476.7152     1.364     1.171 -18.70
       162   1     250.9514     51.84285  22.0558   0.2244   1168.8453    474.4258     1.064     0.731  48.21
       163   1     631.9685     72.26189  21.0530   0.1242    839.7307    487.9083     2.284     0.863 -83.34
       164   1      20643.1     187.1273  17.2678   0.0098    518.7302    531.8464     4.283     3.686  14.63
       165   1     2368.292     119.3512  19.6187   0.0547   1186.7635    494.4384     2.990     2.116 -29.96
       166   1     1166.486     59.75597  20.3876   0.0556   1070.7542    482.6162     1.421     1.210  25.27
       167   1     342.7653     64.39494  21.7173   0.2040   1309.4797    479.6473     1.070     0.795  56.30
       168   1     2493.466      122.526  19.5628   0.0534     83.0719    495.2841     2.303     1.986  35.55
       169   1     249.1158     49.57125  22.0638   0.2161    682.3663    477.8947     0.918     0.682  20.87
       170   1     11331.55     64.39494  17.9191   0.0062   1302.3654    510.9912     1.745     1.609  16.68
       171   1     1031.012      65.8687  20.5216   0.0694    763.0489    503.3101     1.836     1.597  -6.47
       172   1     3146.571     108.3928  19.3102   0.0374   1461.3184    513.9519     4.149     1.477  23.85
       173   1     558.9391     45.11052  21.1864   0.0876    863.8738    500.8243     1.129     1.052 -19.89
       174   1     357.0978     57.12804  21.6728   0.1737    366.1871    496.9661     0.910     0.761   1.56
       175   1     323.0616     42.92996  21.7816   0.1443   1310.3738    500.0148     1.021     0.787  -2.47
       176   1     1211.947     50.70907  20.3461   0.0454   1310.3311    511.7829     1.424     1.294 -48.92
       177   1     601.9784       56.791  21.1058   0.1025    165.1438    508.7841     1.752     1.031   0.63
       178   1     642.6211     62.58063  21.0349   0.1058   1179.1204    512.3732     1.215     1.155  54.88
       179   1     594.2747     78.86737  21.1198   0.1441    641.8876    517.8915     1.187     1.090 -54.90
       180   1     226.5807     42.02607  22.1667   0.2014   1519.0157    516.7952     0.901     0.737  88.09
       181   1     212.7793      47.5955  22.2350   0.2429    853.4379    519.2685     1.396     0.386   9.33
       182   1     312666.3     79.11041  14.3171   0.0003   1315.9449    586.4362     2.094     2.009 -12.81
       183   1     1625.539     54.72517  20.0273   0.0366    999.9120    538.8229     1.491     1.346 -15.84
       184   1     365.1285     64.09612  21.6487   0.1906    404.8532    534.8416     1.429     0.786  28.92
       185   1     556541.6     84.28024  13.6910   0.0002    483.1907    630.0933     2.297     2.113  -5.65
       186   1     2264.473     55.42234  19.6674   0.0266   1041.6580    557.6415     1.527     1.367   7.73
       187   1     6997.161     62.58063  18.4425   0.0097   1242.8595    571.1049     1.663     1.604  24.23
       188   1     175.5698     31.59559  22.4437   0.1954    778.5010    554.2460     1.127     0.530 -20.14
       189   1     1586.221     83.59409  20.0539   0.0572   1447.7970    569.9079     2.286     1.693   7.26
       190   1      1693.64     92.32437  19.9827   0.0592     46.1277    570.4611     1.991     1.464  46.37
       191   1     5695.014     140.7553  18.6660   0.0268    782.8542    595.4496     3.404     3.059 -88.99
       192   1     9210.279      65.8687  18.1441   0.0078    319.1685    581.1600     1.815     1.598   3.62
       193   1     395.9669     58.45678  21.5606   0.1603    139.3934    563.6876     1.125     0.937 -29.93
       194   1     9372.486      65.5766  18.1251   0.0076    144.8776    579.7925     1.801     1.587  -2.06
       195   1     199.2821     42.92996  22.3061   0.2339    905.5062    561.9982     0.805     0.500 -88.22
       196   1     1144.188     72.79129  20.4085   0.0691   1337.0359    573.3960     1.293     1.198 -72.01
       197   1     140.7997     35.05217  22.6833   0.2704    632.3124    566.6772     0.563     0.340  45.54
       198   1      505.384     74.35687  21.2957   0.1598   1001.9897    574.5244     1.143     0.954  -4.52
       199   1     681.5781     52.57825  20.9710   0.0838     75.3989    583.5945     1.480     1.073 -20.37
       200   1     163.8925     32.19747  22.5184   0.2133   1173.0760    583.5082     0.785     0.499   2.20
       201   1     140.9822     37.69127  22.6819   0.2903   1138.7960    586.8328     0.744     0.568  41.93
       202   1      2488.65     61.96406  19.5649   0.0270    542.3907   1000.4837     1.519     1.387  -6.27
       203   1     766.1521     59.10995  20.8440   0.0838    654.7425   1596.3757     1.530     1.432 -72.28
       204   1     206.6641     36.13094  22.2666   0.1899     18.7726   1599.6355     0.741     0.450  16.89
       205   1     215.7869     30.35607  22.2197   0.1528    566.4948   1589.9609     1.001     0.662  30.36
       206   1     1266.233     52.21185  20.2985   0.0448   1108.5558   1583.5129     1.395     1.200  44.94
       207   1     599.2672     82.43782  21.1107   0.1494   1413.9773   1580.2595     1.318     0.830  72.52
       208   1      3236.33     55.76765  19.2796   0.0187    134.7687   1540.8383     1.476     1.426 -24.90
       209   1      502.453     74.61461  21.3020   0.1613    415.2019   1531.9071     1.226     0.822 -71.89
       210   1     766.0818      93.1524  20.8441   0.1321   1546.4598   1513.5629     1.532     0.988  43.28
       211   1     390.4161     36.13094  21.5760   0.1005    483.3916   1513.4045     1.013     0.938 -42.60
       212   1     899.1138     98.55987  20.6702   0.1190    326.1106    887.4893     2.144     1.323   4.89
       213   1     108720.4     73.31686  15.4640   0.0007   1592.5017    878.7048     1.922     1.850  12.31
       214   1     784.8691     44.68292  20.8178   0.0618   1500.0233    884.1630     1.253     1.106  35.27
       215   1     536.4387     79.11041  21.2310   0.1602    338.9892    884.0157     1.526     0.866  44.71
       216   1     1058.673     87.19116  20.4929   0.0894   1176.9954    876.3629     1.753     1.402   2.36
       217   1     827.1338      70.9211  20.7608   0.0931    961.1818    876.4781     1.464     1.172  26.37
       218   1     208.8737     29.06372  22.2551   0.1511    541.3325    875.3210     0.974     0.648  83.54
       219   1     2549.647     77.14463  19.5386   0.0329   1103.5979    867.9683     1.832     1.588 -33.50
       220   1     1237.232     100.4888  20.3237   0.0882    939.9140    866.7964     1.845     1.503  32.84
       221   1     269975.8     77.14463  14.4765   0.0003   1224.4624    857.9001     2.067     1.955  -3.56
       222   1     263.4456     38.69654  22.0031   0.1595    643.0482    868.0561     0.778     0.775  32.73
       223   1     143.4542     39.18951  22.6630   0.2967    454.6768    865.2985     0.557     0.343  43.61
       224   1      131.281     35.05217  22.7593   0.2900   1479.5310    863.4764     0.517     0.480 -45.31
       225   1     779.4213     45.95378  20.8253   0.0640   1157.3041    858.1290     1.285     1.122   7.22
       226   1     124.4666     35.05217  22.8172   0.3058   1554.4988    858.5292     0.502     0.498 -38.89
       227   1     810.2262     77.64075  20.7833   0.1041   1339.4663    857.0644     1.303     1.187  19.39
       228   1     871.1052     92.32437  20.7046   0.1151   1304.9567    884.6011     2.153     1.112  73.17
       229   1     132.1941     32.19747  22.7518   0.2645    544.6743    854.3339     0.574     0.335  45.37
       230   1     672.5562     72.26189  20.9855   0.1167   1206.3131    843.1203     1.370     1.279  63.91
       231   1     886.5049     49.57125  20.6856   0.0607   1106.2837    842.0743     1.457     1.144  36.79
       232   1     788.1979     76.39442  20.8132   0.1053   1063.6129    843.2930     1.372     1.071  -4.79
       233   1     1739.893      81.2651  19.9535   0.0507   1246.9686    836.3198     1.715     1.469 -32.77
       234   1     214.9301     42.02607  22.2240   0.2123    991.6487    837.3306     0.584     0.329  44.19
       235   1     1357.311     60.71213  20.2231   0.0486    298.5144    835.5950     1.466     1.264   8.22
       236   1     244.2766     46.78184  22.0851   0.2080   1520.6128    835.2322     0.734     0.456 -72.53
       237   1     259.4535     39.18951  22.0196   0.1640    818.8601    834.7298     0.941     0.828  45.52
       238   1     81.15076     21.46498  23.2815   0.2873    515.4869    833.5014     0.504     0.496 -45.68
       239   1     6252.268     61.65346  18.5647   0.0107    654.2111    821.7526     1.659     1.550   8.57
       240   1     132.1549     33.93911  22.7521   0.2789    331.3069    820.3486     0.572     0.336 -46.92
       241   1     342.5817      63.7959  21.7179   0.2022   1398.5271    817.9912     1.458     0.528  73.64
       242   1     146.9565     35.05217  22.6368   0.2590    433.5970    816.1639     0.738     0.450 -70.57
       243   1     158.1101     42.48042  22.5574   0.2918    877.0160    815.0000     1.438     0.289   0.00
       244   1     5886.219     59.43384  18.6302   0.0110   1378.7039    801.5432     1.588     1.536  37.58
       245   1     2720.191     60.07639  19.4683   0.0240     40.9899    799.9274     1.668     1.468 -12.74
       246   1     16912.84     78.37903  17.4842   0.0050    695.5123    797.2754     2.383     1.755 -89.44
       247   1     141.7814     37.17844  22.6757   0.2848   1349.1840    784.6148     0.751     0.451 -17.62
       248   1     4186.599     170.5982  19.0001   0.0443   1427.4971    772.6189     3.253     2.162 -87.03
       249   1     1251.124     57.79623  20.3115   0.0502    391.7878    765.6317     1.504     1.272 -21.06
       250   1     269.5422      60.3951  21.9782   0.2433    139.6528    766.9703     1.079     0.875 -31.23
       251   1     150.6123     40.63255  22.6101   0.2930    567.4836    762.9985     0.822     0.304  58.69
       252   1     95.91479      28.3955  23.1001   0.3215   1019.6373    753.3007     0.575     0.333  42.26
       253   1     282.2791     54.72517  21.9281   0.2105   1080.2655    750.3806     0.984     0.593 -67.52
       254   1     206.1453      40.1573  22.2693   0.2116    195.3360    751.3360     0.580     0.332 -45.00
       255   1     118.3755      32.7883  22.8716   0.3008   1442.6703    746.6947     0.563     0.340 -43.73
       256   1     1507.181     60.71213  20.1094   0.0437    556.1754    741.6133     1.459     1.346   4.94
       257   1     382884.7     84.96084  14.0971   0.0002    404.7235    723.0963     2.310     2.082 -22.63
       258   1     490.0837     48.79055  21.3291   0.1081   1158.1339    736.6849     1.187     1.087  26.95
       259   1     664.7904     49.18245  20.9981   0.0803    649.7816    734.6859     1.495     1.094  -8.06
       260   1     65035.89     73.31686  16.0219   0.0012    848.3856    725.3584     1.983     1.823   7.55
       261   1      143.319     24.78562  22.6640   0.1878   1544.2115    726.9903     0.807     0.495 -33.44
       262   1     1004.088     49.18245  20.5504   0.0532   1178.3372    725.8890     1.367     1.174  29.29
       263   1     668.6008     78.62358  20.9919   0.1277   1394.8793    720.0422     1.200     1.109  57.46
       264   1     1284.265     51.84285  20.2831   0.0438    808.4193    714.5092     1.352     1.298   2.27
       265   1     1216.476     49.95702  20.3420   0.0446   1163.7511    707.5997     1.353     1.264   7.78
       266   1     161.4071      47.5955  22.5350   0.3202    538.3743    706.8065     0.764     0.442 -71.63
       267   1     1782.188      81.2651  19.9274   0.0495   1338.9893    702.6929     1.793     1.592 -51.05
       268   1     2212.952     55.76765  19.6924   0.0274    952.4020    701.4094     1.483     1.423  -7.15
       269   1     708.5626     85.41156  20.9288   0.1309    581.9954    697.8321     2.000     0.816   3.96
       270   1      644.048     56.98472  21.0325   0.0961   1213.8993    689.6995     1.500     1.169  59.05
       271   1     394.7142     42.43459  21.5641   0.1168   1213.4946    685.0089     1.064     0.947  80.71
       272   1     414.5968     64.98846  21.5107   0.1702    316.3271    691.0162     1.017     0.739  16.84
       273   1     3666.261     195.9476  19.1442   0.0580    471.9468    681.7518     2.914     2.598  89.44
       274   1     312.7086      53.3035  21.8169   0.1851    130.6565    686.7047     0.891     0.827 -16.89
       275   1     1963.334     60.07639  19.8223   0.0332    644.2499    684.3580     1.536     1.386  10.75
       276   1     2026.228     111.7073  19.7881   0.0599    543.6492    680.0992     2.117     1.628 -68.96
       277   1     441.6158     71.46044  21.4422   0.1757   1221.2678    667.7279     1.270     0.696 -61.48
       278   1     130.6404     35.59564  22.7646   0.2959   1180.2338    665.6055     0.732     0.455 -18.03
       279   1     556.7181     43.81521  21.1907   0.0855    870.7210    653.3447     1.207     1.122  22.09
       280   1     64328.79     72.52707  16.0338   0.0012   1464.3446    646.7708     1.920     1.826  19.48
       281   1     306.2875     33.93911  21.8395   0.1203   1221.7224   1549.3451     0.978     0.824 -44.74
       282   1     9873.224      63.7959  18.0686   0.0070    536.7704    638.6250     1.771     1.577   4.55
       283   1     321.3087     51.84285  21.7875   0.1752    276.5275    640.4909     1.085     0.738  44.08
       284   1     681.0295     48.39548  20.9719   0.0772    806.0956    629.2963     1.437     1.111  -0.34
       285   1     406.0747      65.8687  21.5333   0.1762    652.8699    644.5950     1.258     0.839  16.69
       286   1      919.041     49.18245  20.6464   0.0581   1581.4034    621.8457     1.325     1.248  59.20
       287   1     349.1179     61.34129  21.6974   0.1908   1151.2251    616.8323     1.134     0.928  59.39
       288   1     235.6237      32.7883  22.1242   0.1511    945.8057    608.6844     1.080     0.659  72.44
       289   1     959.6957     48.79055  20.5994   0.0552    586.3810    604.2041     1.391     1.151   3.51
       290   1     199.6398     29.06372  22.3042   0.1581   1256.5342   1565.2236     0.973     0.487  82.53
       291   1     7350.609     60.71213  18.3890   0.0090    392.3686   1513.7866     1.584     1.557   0.31
       292   1     532.9979     68.44154  21.2380   0.1395    373.5282   1593.5349     1.347     0.980  89.56
       293   1     1993.592     55.42234  19.8057   0.0302     21.6714   1565.6357     1.512     1.388  -3.37
       294   1     172.2878     37.17844  22.4641   0.2344   1069.4106   1584.2544     0.716     0.457  70.77
       295   1     304.6461     54.72517  21.8453   0.1951   1384.2509   1591.9668     1.155     0.450  33.49
       296   1     56574.29     70.10433  16.1732   0.0013    303.8709   1562.6835     1.871     1.794   2.08
       297   1     261.4456     50.71977  22.0113   0.2107   1490.8132   1573.1724     0.739     0.564 -46.60
       298   1     882.7177     63.19119  20.6902   0.0777    863.2323   1544.6085     1.529     1.237  50.22
       299   1     2200.783     51.84285  19.6983   0.0256    654.3959   1541.4359     1.480     1.284  -5.13
       300   1     23233.48     155.7752  17.1395   0.0073    682.0305   1551.3933     4.365     3.775 -26.37
       301   1     971.8376      47.5955  20.5858   0.0532    860.9190   1559.7860     1.257     1.196 -58.52
       302   1     1455.035     52.21185  20.1476   0.0390     92.1997   1569.6466     1.370     1.251 -18.94
       303   1     1129.462     55.42234  20.4226   0.0533    784.3132   1564.6084     1.653     1.285 -70.10
       304   1     56205.51     71.19128  16.1803   0.0014    487.3637   1556.9069     1.892     1.819   8.53
       305   1     129.9897     33.36867  22.7700   0.2788   1512.9548   1550.0000     0.861     0.289   0.00
       306   1     154.7966     37.69127  22.5804   0.2644   1565.7761   1561.0076     0.698     0.417  89.69
       307   1     135.1646     35.05217  22.7276   0.2816    263.5334   1537.5518     0.502     0.494 -39.05
       308   1     676.3068      70.9211  20.9794   0.1139   1001.2759    910.8828     1.340     1.043 -10.81
       309   1     366.6438      67.3102  21.6442   0.1994   1428.1411   1534.7400     1.337     0.990 -40.58
       310   1     6109.096      60.3951  18.5898   0.0107    302.6584    899.4885     1.667     1.481   6.87
       311   1     211.0594      47.5955  22.2438   0.2449   1100.7787   1517.4172     0.771     0.443 -20.03
       312   1     260.6515     33.36867  22.0146   0.1390     84.8643   1517.9752     1.143     0.681  22.98
       313   1     188.2728     40.63255  22.3678   0.2344     14.4723   1521.9784     0.794     0.314  57.85
       314   1     260.1565     35.05217  22.0167   0.1463    844.1691   1496.9832     1.119     0.722  -9.33
       315   1     665.4722     82.90226  20.9970   0.1353   1425.7739    892.6292     1.291     1.012  45.46
       316   1     7563.877     202.8791  18.3579   0.0291    224.4313    878.4860     7.310     2.055  88.70
       317   1     30505.18      67.3102  16.8438   0.0024    269.0006   1506.2036     1.790     1.714 -12.53
       318   1     205.6942     27.71117  22.2717   0.1463     77.8319   1486.9354     0.832     0.657 -49.41
       319   1     1560.782     101.8173  20.0714   0.0708    538.3524    894.9561     1.912     1.726  14.08
       320   1     273.4825       56.791  21.9625   0.2255    987.9648    896.2786     0.740     0.677 -16.81
       321   1     142.2319     21.46498  22.6723   0.1639   1079.5054    907.4599     0.501     0.497 -33.66
       322   1     586.8536     77.64075  21.1335   0.1437   1314.9668    902.6793     1.545     0.768  85.36
       323   1     725.6842     46.36966  20.9029   0.0694    723.1560   1503.1562     1.263     1.171  78.95
       324   1     797.1838     46.36966  20.8009   0.0632    838.3603    911.4485     1.285     1.159  39.81
       325   1     397331.3     129.2363  14.0569   0.0004    183.7184    881.1320     3.531     3.210 -17.80
       326   1     277.6658      57.4631  21.9460   0.2247    572.7041   1483.7509     1.213     0.449  85.96
       327   1     1051.395     55.07486  20.5004   0.0569   1322.4321    926.9052     1.278     1.211   9.87
       328   1     618.0906     87.63042  21.0772   0.1540    998.7042   1473.2372     1.264     0.946 -15.28
       329   1     95.77979     31.59559  23.1016   0.3582    734.6927    903.6495     0.573     0.335 -46.96
       330   1     269.7198     44.68292  21.9775   0.1799    575.5043   1480.4886     0.504     0.496  44.56
       331   1     364.8571     46.36966  21.6495   0.1380   1270.8408   1437.3823     0.991     0.847  86.39
       332   1     181.9741     47.19042  22.4048   0.2816   1128.9950   1465.7528     0.700     0.431  -0.23
       333   1     14291.07      63.7959  17.6671   0.0048   1178.3445    928.3278     1.687     1.619   9.19
       334   1     156.5811     38.19721  22.5679   0.2649     45.9930    924.4929     0.767     0.324  33.21
       335   1     449.6519     38.69654  21.4226   0.0935    329.3842   1405.3381     1.120     0.909  24.80
       336   1     2129.677     69.00026  19.7340   0.0352   1067.0264    937.9125     1.464     1.419  32.29
       337   1     111.5874     35.59564  22.9357   0.3464    726.0226    940.0000     0.857     0.289   0.00
       338   1     652.4685     80.55328  21.0184   0.1341    516.1055    937.3108     1.377     0.828  32.96
       339   1     698.2139     72.52707  20.9448   0.1128    654.2190    949.5503     1.549     1.193  63.57
       340   1     189.7124     45.11052  22.3595   0.2582    647.3112   1437.4187     0.982     0.476  -8.80
       341   1     440.9816     55.07486  21.4437   0.1356    445.0434    946.8583     1.166     0.741   1.90
       342   1     241.7876     49.18245  22.0962   0.2209    132.0015    946.2512     0.678     0.434  -0.08
       343   1     99.72852     33.93911  23.0577   0.3696     87.6717   1448.6608     0.578     0.333 -45.47
       344   1     137808.5     74.61461  15.2066   0.0006   1090.2324   1432.9703     1.991     1.908   0.31
       345   1     159.7971     35.05217  22.5459   0.2382    267.4831    948.4963     0.505     0.494 -45.71
       346   1     76325.15     70.64989  15.8481   0.0010    114.1711   1392.4930     1.892     1.837   2.53
       347   1     128.1001     35.05217  22.7859   0.2972    391.5019   1452.4630     0.502     0.497  37.38
       348   1     3444.249      57.4631  19.2120   0.0181    224.4329   1434.2791     1.542     1.494  -2.47
       349   1     941.1045     64.69238  20.6207   0.0747    797.9230    979.5256     1.382     1.193 -82.58
       350   1     220.0422     45.11052  22.1985   0.2226   1347.1246   1434.9100     0.957     0.687 -12.86
       351   1     206.4093     44.68292  22.2680   0.2351     61.2406    952.0077     0.701     0.427 -89.66
       352   1     2425.138     52.57825  19.5929   0.0235    618.8336   1438.6829     1.429     1.335  -2.78
       353   1     353.1288     54.01902  21.6849   0.1661    416.2845    964.0222     1.147     0.762   0.38
       354   1     7017.543     60.71213  18.4393   0.0094   1428.2762   1387.1427     1.609     1.533  -6.08
       355   1     932.8481     61.96406  20.6303   0.0721   1031.0402   1399.2919     1.473     1.292  26.72
       356   1     460.0679     60.71213  21.3977   0.1433    340.6069   1431.0420     1.721     0.833  25.83
       357   1     1466.331     53.66245  20.1392   0.0397   1386.3597   1413.7847     1.365     1.297 -51.81
       358   1     121.7543     35.05217  22.8411   0.3127   1029.5052    953.5342     0.504     0.495 -41.19
       359   1     17328.33     68.72147  17.4579   0.0043   1126.1416   1417.9104     1.859     1.730 -66.45
       360   1     1691.638     60.07639  19.9840   0.0386   1038.5302   1390.9829     1.391     1.323 -62.12
       361   1     215.9186     46.36966  22.2191   0.2332   1487.5507    980.2189     0.984     0.702  -0.78
       362   1     516.4369     75.12743  21.2722   0.1580    452.0928    977.4117     1.097     0.955  74.59
       363   1     2233.755     51.47121  19.6822   0.0250    307.9359   1407.1616     1.339     1.331 -72.44
       364   1     529.6731     44.68292  21.2448   0.0916    349.5081   1410.0396     1.369     1.027  36.08
       365   1     117.3583     36.65843  22.8810   0.3392   1363.3004   1402.6686     0.562     0.341  46.64
       366   1     13574.53     191.4263  17.7230   0.0153   1135.1514   1358.5911     5.697     4.625  74.93
       367   1     323.8311     42.92996  21.7790   0.1440   1596.5851   1064.1340     0.992     0.861  15.48
       368   1     348347.6     112.0505  14.1997   0.0003   1159.4381   1364.9259     2.974     2.847 -50.80
       369   1     2374.614     56.11084  19.6158   0.0257    713.0481   1389.1337     1.496     1.366  12.66
       370   1     441.1189     42.02607  21.4434   0.1035      6.5746   1062.4746     1.130     0.990  36.74
       371   1      282.452      53.3035  21.9274   0.2049    569.7603   1065.2341     0.925     0.450 -44.87
       372   1     92.38416     26.28912  23.1408   0.3090   1475.6754   1063.6809     0.567     0.339 -44.73
       373   1     419.4818     47.99715  21.4980   0.1243    806.2859   1387.4335     1.186     0.965  -3.11
       374   1      77.7793     29.06372  23.3276   0.4058   1584.3380   1387.3101     0.569     0.338 -43.66
       375   1      8120.58     61.65346  18.2808   0.0082   1018.7941   1371.2097     1.637     1.588 -24.36
       376   1     250.1167     41.56675  22.0594   0.1805    318.5918   1378.3931     1.111     0.728 -26.82
       377   1     523.9976     42.92996  21.2565   0.0890      6.6476   1072.3970     1.266     0.977 -12.20
       378   1     442.4166      60.3951  21.4402   0.1483     42.7823   1082.8191     1.202     1.042 -41.51
       379   1     100.0215     29.71692  23.0545   0.3227    474.6741   1351.3342     0.575     0.335  45.37
       380   1     437.9169     55.07486  21.4513   0.1366    329.8063   1078.0201     1.261     1.068 -32.29
       381   1     185.6288     42.48042  22.3832   0.2485     52.1566   1079.6680     0.956     0.674  68.66
       382   1     348.5986     60.07639  21.6990   0.1872   1215.4215   1369.2180     0.970     0.718  -1.68
       383   1     1102.377     66.73734  20.4490   0.0657    742.1796   1292.2568     1.374     1.125  18.61
       384   1     2900.312     55.42234  19.3987   0.0208    642.3666   1088.1907     1.505     1.397   1.56
       385   1     2343.644     112.0505  19.6301   0.0519   1218.9595   1070.7594     2.060     1.787 -76.78
       386   1     739.9753     48.39548  20.8817   0.0710    412.4313   1291.8519     1.250     1.051 -16.39
       387   1     896.0669     95.99431  20.6739   0.1163    678.1635   1104.4949     1.887     1.343  30.28
       388   1     10086.41     63.49427  18.0454   0.0068    751.7085   1103.3607     1.691     1.583   6.21
       389   1     128.6989     33.36867  22.7808   0.2816    573.7831   1305.3979     0.752     0.449 -18.80
       390   1     802.3821     77.88761  20.7938   0.1054    468.1808   1089.7869     2.061     1.122 -66.59
       391   1     1079.869      96.9891  20.4714   0.0975   1139.3118   1328.9382     1.698     1.369 -67.13
       392   1     466.3486     79.11041  21.3830   0.1842    151.0393   1350.9673     1.195     0.833 -70.78
       393   1     6621.497      63.7959  18.5024   0.0105    427.7849   1106.4558     1.675     1.619   3.26
       394   1      293.972     58.78427  21.8840   0.2172    604.6937   1345.0083     0.741     0.672  89.70
       395   1     578.4263     58.78427  21.1492   0.1104    386.4966   1329.3369     1.274     1.056  -1.75
       396   1     28502.77     67.59481  16.9176   0.0026    659.7620   1318.9108     1.819     1.699   1.26
       397   1     2609.223      60.3951  19.5135   0.0251    669.5140   1306.3063     1.521     1.401  24.42
       398   1     2666.516     93.56367  19.4899   0.0381   1035.9504   1306.4060     2.526     1.758 -32.08
       399   1     779.8809     45.95378  20.8247   0.0640    107.2309   1331.7883     1.255     1.143 -21.94
       400   1     113.1135     32.19747  22.9210   0.3091    989.6658   1311.6663     0.578     0.333 -44.98
       401   1     218.1923     48.79055  22.2077   0.2428    769.6744   1144.0275     0.742     0.673  83.76
       402   1     181419.9     76.89538  14.9081   0.0005    724.6708   1297.2642     2.052     1.940  -6.50
       403   1     278.0045     34.50013  21.9447   0.1348    176.0954   1181.1243     1.127     0.718  10.75
       404   1      3157.29     53.57551  19.3065   0.0184    655.6528   1328.7194     1.544     1.453 -29.23
       405   1     640.6233     43.37484  21.0383   0.0735    892.7018   1303.4418     1.174     1.043 -46.56
       406   1     525.7758     63.49427  21.2528   0.1311    263.6410   1318.1453     1.203     1.096  -9.28
       407   1     29604.35     69.00026  16.8764   0.0025    147.8255   1137.6332     1.819     1.766  13.31
       408   1     637.3663     69.00026  21.0438   0.1176    219.3282   1129.3582     1.454     0.911 -16.50
       409   1     260.4866      53.3035  22.0153   0.2222    546.0164   1289.5433     0.823     0.683  86.65
       410   1     463.0808     74.35687  21.3906   0.1744    661.6729   1139.7195     1.414     0.966 -20.50
       411   1     6687.312     70.10433  18.4917   0.0114    761.9095   1290.1145     2.084     1.576 -18.34
       412   1     3171.897     57.12804  19.3015   0.0196    807.7321   1264.1892     1.563     1.442  14.98
       413   1      12545.4     119.9929  17.8086   0.0104    609.8644   1271.5988     4.095     2.365 -57.73
       414   1     271.9105     33.93911  21.9687   0.1356     53.7935   1298.4053     1.001     0.781 -52.26
       415   1     642435.4     215.5423  13.5352   0.0004    995.0497   1220.3157     5.869     5.350 -29.08
       416   1     701.2474       56.791  20.9401   0.0880    598.8438   1228.4076     1.455     1.380   8.94
       417   1     251.1282     31.59559  22.0550   0.1366    854.8088   1260.9320     0.890     0.736  -1.83
       418   1     8997.296     67.02438  18.1695   0.0081   1194.8434   1217.5336     1.817     1.643  18.58
       419   1     82.73901     30.98203  23.2605   0.4067    343.2201   1276.6355     0.748     0.447 -17.22
       420   1     300070.7     118.0574  14.3617   0.0004    693.5473   1150.5725     3.230     2.963 -16.05
       421   1     3804.976     56.45195  19.1039   0.0161   1331.2343   1276.5774     1.475     1.444  36.48
       422   1     1444.065     50.33984  20.1558   0.0379    338.6378   1200.9242     1.383     1.234  59.60
       423   1     252.9585     32.19747  22.0472   0.1382    697.9058   1272.7793     1.024     0.657  29.79
       424   1     927.7263     72.52707  20.6362   0.0849   1353.3368   1152.2167     1.476     1.327 -87.94
       425   1     1621.427     54.01902  20.0300   0.0362   1553.2626   1235.3568     1.427     1.366 -34.23
       426   1      2004.41     109.8006  19.7998   0.0595    123.7317   1193.8207     2.017     1.799  67.85
       427   1     800.3199     44.68292  20.7966   0.0606    672.4705   1241.3962     1.317     1.025  13.82
       428   1     401.0116     40.63255  21.5469   0.1100     48.0830   1236.9100     1.176     1.011  48.65
       429   1     345.4396     35.05217  21.7089   0.1102   1153.4540   1227.2687     0.957     0.935  19.49
       430   1     1316.126     88.93516  20.2565   0.0734    432.3192   1258.3755     1.902     1.773   1.35
       431   1     2554.236     56.11084  19.5366   0.0239    304.4727   1233.3051     1.472     1.412  -0.43
       432   1     1114.708     54.37324  20.4369   0.0530   1555.3717    999.9985     1.322     1.250 -36.16
       433   1     139.1471     39.67636  22.6961   0.3097    215.6046   1261.1990     0.754     0.441 -69.80
       434   1     225.4436     47.19042  22.1722   0.2273   1415.6775   1209.0464     0.873     0.600  64.51
       435   1       1529.6     119.3512  20.0933   0.0847   1428.9896   1210.7572     2.258     1.721  71.68
       436   1      180.359     33.93911  22.4144   0.2044   1217.1223   1202.8684     0.764     0.570 -42.21
       437   1     14059.67     65.28319  17.6848   0.0050    512.8241   1213.5566     1.765     1.622   1.22
       438   1     1087.305     63.19119  20.4639   0.0631   1442.0104   1199.4136     1.979     1.370  70.31
       439   1     15449.65     64.69238  17.5825   0.0045    183.3287   1129.0735     1.745     1.663   8.60
       440   1     1502.419     50.71977  20.1128   0.0367    838.6290   1206.4138     1.419     1.247   8.74
       441   1      1611.61     79.35271  20.0366   0.0535   1075.5841   1201.9446     1.823     1.384  25.96
       442   1     444.0145     56.45195  21.4363   0.1381    549.1391   1179.9291     1.185     1.070  49.04
       443   1     1290.266     50.33984  20.2781   0.0424    271.8067   1182.8752     1.389     1.260 -57.97
       444   1     6882.325      132.319  18.4604   0.0209    757.6408   1171.4684     3.561     3.199 -53.38
       445   1     353.3578     50.71977  21.6842   0.1559    673.3273   1181.5228     0.961     0.945  10.01
       446   1     1306.102      53.3035  20.2648   0.0443     99.1641   1150.2494     1.409     1.284  44.81
       447   1     218.7089     39.18951  22.2051   0.1946   1599.5543   1165.7251     0.967     0.484 -82.16
       448   1     318.6338     55.42234  21.7966   0.1889    606.9894   1132.2048     1.220     0.733  -0.85
       449   1     47914.15     70.64989  16.3536   0.0016   1299.6521   1163.7928     1.868     1.813  -1.91
       450   1     5439.392     61.65346  18.7159   0.0123    236.1230   1156.9557     1.645     1.567   5.92
       451   1      600.804     55.07486  21.1079   0.0996    887.3908   1160.5538     1.282     0.952  -6.02
       452   1     14160.46     168.1043  17.6771   0.0129   1278.7617   1209.2909     5.707     3.335  83.19
       453   1     175.5015     41.10231  22.4441   0.2543    568.1872   1154.3998     0.749     0.449  19.14
       454   1     198.3116     38.69654  22.3114   0.2119   1052.9990   1194.3286     0.746     0.659  -0.73
       455   1      597.618     44.25119  21.1137   0.0804    547.0253   1128.0515     1.227     1.103 -78.94
       456   1     320.0989     61.02752  21.7916   0.2070    396.3960   1087.0878     1.026     0.751  50.28
       457   1     222.0297      45.5341  22.1888   0.2227    359.2154   1130.3535     0.910     0.640  16.98
       458   1     75.04285     31.59559  23.3665   0.4572    838.6746   1127.3470     0.580     0.332  45.90
       459   1     2315.092     101.8173  19.6434   0.0478    329.6084   1119.3715     2.332     1.576  57.83
       460   1     1645.003     120.7902  20.0144   0.0797    479.0043   1109.1113     2.091     1.776  31.99
       461   1     570.2297     69.00026  21.1647   0.1314    674.0977   1112.7843     1.122     1.035  72.95
       462   1     31858.33     68.44154  16.7967   0.0023    511.9223   1078.8845     1.844     1.739  -0.09
       463   1     1010.985     63.19119  20.5429   0.0679   1526.4425   1093.8942     1.363     1.188  -6.74
       464   1     257.9039     35.59564  22.0261   0.1499   1136.0365   1093.3427     1.045     0.797 -30.61
       465   1     28702.04     67.87823  16.9100   0.0026    778.0053   1093.7670     1.837     1.695  -5.97
       466   1      9265.97     62.58063  18.1376   0.0073   1148.0754   1080.4218     1.656     1.593 -17.12
       467   1     1321.217     83.59409  20.2523   0.0687    453.8517    985.2458     1.643     1.382 -42.40
       468   1     235.3265     49.95702  22.1256   0.2305   1453.5759   1084.8627     0.859     0.611  12.97
       469   1     1422.298     126.9885  20.1723   0.0970   1563.4491   1063.7783     2.298     1.535 -73.99
       470   1     94.96692     29.06372  23.1108   0.3324    268.3080   1017.6820     0.559     0.342  45.55
       471   1     152.9899     33.93911  22.5931   0.2409    233.2620    997.4180     0.719     0.461  18.58
       472   1     904.7445     76.64531  20.6635   0.0920    726.8434   1058.7687     1.364     1.127   5.31
       473   1     117.2208     39.67636  22.8823   0.3676    515.0000    981.9960     0.836     0.289  90.00
       474   1      28007.8     67.87823  16.9366   0.0026    558.2753    983.7862     1.847     1.685   0.92
       475   1     40340.74     69.55448  16.5404   0.0019    632.9376   1039.1467     1.901     1.752  -3.12
       476   1     455100.2     82.90226  13.9095   0.0002     49.9904   1022.7363     2.224     2.065 -21.28
       477   1     8350.639     64.09612  18.2505   0.0083    525.2273   1037.5930     1.774     1.584   2.99
       478   1     18605.15     66.73734  17.3807   0.0039   1379.9098   1024.3289     1.779     1.726  74.47
       479   1     234.2725     49.18245  22.1305   0.2280    466.5743   1039.7631     0.734     0.458  71.11
       480   1     803.5704     60.07639  20.7922   0.0812   1273.6456    998.4636     1.279     1.147  -0.95
       481   1     758.1152     100.4888  20.8554   0.1440    121.5779   1037.9006     1.781     1.110 -51.48
       482   1     1900.994     93.56367  19.8573   0.0535    302.4403   1029.4198     2.382     1.804  60.90
       483   1     403.7262     75.89017  21.5396   0.2041   1270.2164   1020.5706     1.209     0.650 -28.71
       484   1     152.4725     32.19747  22.5968   0.2293   1488.6985    999.6080     0.586     0.325 -48.35
       485   1     207.1831     29.06372  22.2639   0.1523    452.4649   1013.4269     0.983     0.585  45.38
       486   1     15843.41      65.5766  17.5552   0.0045    813.6062   1008.6145     1.799     1.618  -4.73
       487   1     2363.224     58.12744  19.6210   0.0267    344.5641   1010.2621     1.490     1.413   2.15
       488   1     198.2437     47.19042  22.3118   0.2585    267.5084   1009.6623     0.907     0.473   0.36
