#   1 KRON_RADIUS            Kron apertures in units of A or B                         
#   2 Y_IMAGE                Object position along y                                    [pixel]
#   3 MAG_BEST               Best of MAG_AUTO and MAG_ISOCOR                            [mag]
#   4 FLUX_BEST              Best of FLUX_AUTO and FLUX_ISOCOR                          [count]
#   5 X_IMAGE                Object position along x                                    [pixel]
#   6 THETA_IMAGE            Position angle (CCW/x)                                     [deg]
#   7 A_IMAGE                Profile RMS along major axis                               [pixel]
#   8 B_IMAGE                Profile RMS along minor axis                               [pixel]
#   9 MAGERR_BEST            RMS error for MAG_BEST                                     [mag]
#  10 NUMBER                 Running object number                                     
#  11 FLUXERR_BEST           RMS error for BEST flux                                    [count]
 4.47     94.4127  17.0777     24487.03   1125.4513 -67.03     8.432     4.008   0.0118          1     266.3111
 3.50     47.1609  19.2195     3405.753     46.6974 -18.43     3.115     2.992   0.0350          2      109.716
 3.50     33.0301  18.3103     7868.049    450.1791   3.93     1.743     1.661   0.0084          3     60.64782
 3.50      7.9031  16.2843     50850.95    753.4478   2.44     1.983     1.923   0.0015          4     70.34767
 6.18     12.8639  21.4374     441.6123    858.4266  50.98     1.289     0.732   0.1498          5     60.92287
 3.50      7.2113  22.9080     113.9762   1284.7981 -46.48     0.737     0.563   0.2272          6     23.84204
 6.92      6.0000  23.3991     72.50623   1058.0139   0.00     0.847     0.289   0.4975          7     33.21818
 7.55      4.2469  21.1577     571.3595    947.4111  45.53     1.314     0.771   0.1319          8     69.39051
 4.12      3.8348  20.8940     728.4609     72.4608 -16.44     1.246     1.182   0.0726          9     48.72457
 6.10      2.8667  20.5742     977.9572    936.5207 -10.63     1.625     1.134   0.0794         10     71.52611
 5.45      4.6532  23.4237     70.87976    706.7065 -47.69     0.565     0.339   0.3759         11     24.53325
 4.68      1.4142  22.3631     188.2603   1254.7991  -3.78     1.168     0.488   0.1796         12     31.13995
 3.50     20.2485  22.3259     194.8221    234.9529  16.47     1.096     0.906   0.1987         13     35.64599
 6.38     27.8961  20.7818     807.7733    906.5863  84.86     1.356     1.278   0.1156         14     85.96368
 7.83     24.3722  21.1532     573.7382    897.5001  53.33     1.032     0.802   0.1389         15     73.37225
 7.50     21.4723  22.8051     125.2988    123.0066 -32.35     0.789     0.316   0.3399         16     39.21911
 4.06     69.3732  18.7480     5257.809   1463.3916  74.90     3.177     2.756   0.0254         17     122.9385
 7.74     26.3235  23.3349     76.91711    417.3286 -44.76     0.571     0.337   0.4899         18     34.69526
 3.72     32.4382  21.6285     370.3385   1515.2990  30.41     1.107     0.846   0.1072         19     36.57201
 3.50     33.1804  22.5851     153.4456      7.1900  44.59     0.766     0.561   0.1736         20     24.53325
 3.50     47.1839  24.0812      38.6814   1049.4036  70.29     0.741     0.448   0.5624         21     20.03132
 8.32     47.9779  22.1667       225.59    229.0076   1.06     0.613     0.605   0.2521         22     52.36315
 4.81     62.2807  21.1468     577.1595   1014.5557  61.95     1.392     1.123   0.1172         23     62.27989
 6.14     52.4638  22.4593     172.3014    204.7005   8.76     0.973     0.482   0.2776         24     44.03853
 6.35     63.3292  20.8629     749.6483    894.4313  32.57     1.490     1.316   0.1319         25     91.06358
 3.50     95.1854  16.6313     36936.84    917.0939  -9.20     2.432     1.965   0.0023         26     78.86337
 6.68     63.8519  21.5789     387.6328    889.1374  18.53     1.225     0.942   0.1343         27     47.92118
 3.99     65.5806  21.6073     377.6262    971.4410  42.08     1.049     0.908   0.1140         28     39.64312
 3.50     77.6456  20.0646     1563.755    183.8656  35.74     1.922     1.615   0.0444         29     63.87027
 4.01     80.3084  20.5597     991.0784    542.7675 -74.51     1.942     1.344   0.0725         30     66.18423
 3.50     94.6567  19.1611     3593.927    347.2999   1.29     1.577     1.515   0.0166         31     54.85802
 6.42     88.6536  22.4276      177.407   1026.2157  38.54     0.937     0.744   0.3358         32     54.85802
 3.75     93.2241  21.0398     636.8975    737.8329  -2.89     1.220     1.140   0.0770         33     45.16311
 8.20     87.6823  21.9232     282.3151   1076.8492 -12.12     1.079     0.416   0.2179         34     56.65712
 4.37    106.6409  20.2172     1358.682    974.6325 -73.93     2.125     1.886   0.0713         35     89.20872
 3.50    106.5787  19.5147     2594.807     47.9887 -15.76     1.548     1.459   0.0226         36     53.93597
 8.45    104.3943  21.1157     593.9104    265.9957  54.86     1.476     0.923   0.1844         37     100.8221
 9.66     94.4939  22.4896     167.5569   1248.5023  44.92     0.506     0.494   0.3267         38     50.41104
 3.50    100.2884  21.6597     359.8408    357.1915   0.39     1.135     0.906   0.1090         39     36.11197
 3.50     96.5149  23.4816      67.1969    590.4865 -44.94     0.510     0.489   0.3237         40     20.03132
 5.87     99.9511  22.7470     132.1886    173.4704  86.25     0.780     0.498   0.3115         41     37.91867
 5.94    110.1582  22.2646     206.1346   1458.8864 -14.43     1.146     0.934   0.3337         42     63.34458
 4.28    115.3070  21.6370      367.442    925.0088 -50.53     1.258     1.145   0.1557         43     52.68147
 3.70    125.7528  19.5485     2515.381    300.9926 -16.30     1.591     1.521   0.0253         44      58.6864
 4.21    118.2691  21.1796     559.9893     79.9862  35.99     1.594     1.331   0.1228         45     63.34458
 7.06    113.9025  22.6456     145.1364     66.6563 -18.40     0.921     0.676   0.4217         46     56.36126
 8.59    112.3366  22.7811     128.1061   1000.3244 -45.54     0.575     0.335   0.3252         47     38.35705
 3.50    151.1229  17.4726     17020.11     45.8490 -52.15     1.949     1.851   0.0049         48     77.28745
 3.50    212.4886  14.0079     413862.7    967.6542  40.01     3.048     2.888   0.0003         49     106.1534
 9.18    119.3316  22.8256     122.9543    231.3272 -45.20     0.574     0.335   0.3539         50     40.06263
 4.90    130.0126  21.2675     516.3977     55.4443  37.97     1.241     1.021   0.1204         51     57.24426
 5.54    133.5662  21.9086     286.1256   1498.7036  -0.10     1.148     0.959   0.2249         52     59.25343
 5.33    140.3865  21.4542     434.8308    218.2452 -66.34     1.301     1.032   0.1582         53     63.34458
 4.32    158.7005  18.9321     4437.743     50.5213  14.00     2.556     2.201   0.0205         54     83.83352
 7.56    131.6804  22.6827      140.252   1315.2950  46.43     0.554     0.344   0.2649         55     34.20998
 4.48    152.9119  21.9256     281.6841    879.5300 -60.81     1.011     0.961   0.1727         56     44.79139
 3.72    173.7126  19.0715     3903.055    557.3240  47.42     2.364     2.321   0.0249         57     89.39594
 4.23    183.8768  18.7984     5019.259   1263.0786  -7.93     2.523     2.381   0.0230         58     106.1534
 5.13    166.4995  21.0633      623.254    746.5167 -74.63     1.407     1.236   0.1192         59     68.41997
 4.28    164.1927  21.4982     417.5765   1521.5858  74.81     1.105     0.950   0.1184         60     45.53179
 5.24    162.8947  22.0406     253.3779   1154.2748  52.79     0.950     0.930   0.2175         61     50.74161
 4.89    172.7050  21.1902      554.519    945.0700 -51.52     1.571     1.253   0.1364         62     69.63103
 3.50    185.3256  18.2053     8667.127    378.2397 -28.54     1.786     1.762   0.0079         63     63.08009
 7.50    164.1903  22.0119     260.1592    759.0225  37.12     0.938     0.473   0.2090         64     50.07829
 7.24    168.6113  21.9462     276.3806   1158.9104  47.54     1.111     0.480   0.2107         65      53.6251
 3.94    174.5828  22.2921     200.9833    961.8307  82.06     0.977     0.930   0.2073         66     38.35705
 3.50    237.3644  14.5938     241248.8   1389.7841 -41.09     2.309     2.169   0.0004         67      80.5415
 6.87    181.0341  22.3080     198.0699    461.1556 -54.27     0.926     0.470   0.2536         68     46.26034
 6.16    196.4339  19.8890     1838.306   1066.2972 -20.88     2.031     1.821   0.0715         69     121.0197
 6.78    188.9588  21.2379     530.7018   1070.1791 -24.62     1.548     1.057   0.1187         70     58.02713
 3.50    206.1323  18.9785      4252.02     21.5627 -56.80     1.638     1.562   0.0147         71     57.53558
 3.50    201.2601  20.2884     1272.449    185.9180   6.51     1.443     1.361   0.0430         72     50.41104
 5.23    202.1462  20.9972     662.4259    412.4117  66.29     1.510     1.319   0.1236         73     75.39513
 4.88    201.9580  21.9366     278.8451   1294.5009 -85.51     1.212     0.838   0.1937         74     49.74331
 5.93    205.3313  20.7309     846.5231    353.9930  16.74     1.813     1.438   0.1261         75     98.30323
 3.50    224.9422  17.4697     17065.01   1093.4563 -59.44     1.814     1.775   0.0041         76     65.16595
 3.99    218.7306  19.5824     2438.077   1020.6931  -7.62     2.094     1.983   0.0371         77      83.1963
 4.87    216.3218  20.5087     1038.727   1198.5570  55.51     1.841     1.567   0.0886         78     84.78872
 6.51    203.9402  23.4529     68.99585    452.2255  87.50     0.695     0.417   0.5611         79     35.64599
 4.60    268.1983  18.7019     5485.739    140.7266  65.34     5.964     2.061   0.0327         80     164.9799
 3.82    210.1299  22.4583     172.4617    908.8029  49.34     0.821     0.649   0.1746         81      27.7321
 3.50    223.1118  20.7616     822.9542   1178.3679  -5.05     1.281     1.210   0.0591         82     44.79139
 6.18    213.5688  22.7347     133.6921   1061.7803  21.01     0.736     0.449   0.3008         83     37.02634
 3.89    286.2726  17.5974     15172.27   1328.5978 -54.54     4.071     3.479   0.0107         84     149.9006
 7.11    232.5957  19.7726     2046.311    654.3945  19.87     2.685     1.375   0.0741         85     139.6218
 3.53    242.9650  18.7460     5267.597    566.6058  37.93     1.679     1.645   0.0123         86     59.53492
 3.55    236.5731  19.8807     1852.348    836.9667   6.66     1.498     1.372   0.0309         87     52.68147
 3.50    258.8932  17.9191     11280.94   1426.9111 -51.38     2.259     1.731   0.0069         88     71.29198
 4.05    234.9387  20.9494      692.183    880.2339 -62.63     1.346     1.177   0.0822         89     52.36315
 5.69    244.0083  19.6457     2299.894    660.8113  37.74     2.162     1.852   0.0551         90     116.6584
 3.50    247.6646  19.0486     3986.296    577.4250  67.60     1.633     1.559   0.0154         91     56.65712
 6.01    254.1846  19.6564     2277.448   1369.7998 -47.94     2.427     1.671   0.0593         92      124.291
 6.17    241.2870  20.4793     1067.312    369.2222  30.13     1.736     1.378   0.0999         93       98.133
 7.66    228.4811  22.4624     171.8058    906.4860  44.84     0.514     0.484   0.2532         94     40.06263
 7.03    242.2005  20.7204     854.7502    966.9060 -61.08     1.771     0.956   0.1201         95     94.48753
 4.36    249.6382  21.4184     449.4104   1163.8445 -84.59     1.850     0.892   0.1390         96     57.53558
 6.57    255.1234  20.4560     1090.464     76.2674 -83.10     2.133     1.143   0.1046         97     105.0451
 6.82    243.4088  22.9159     113.1484   1339.8333  80.45     1.073     0.852   0.6401         98     66.68754
 3.50    251.5225  21.9141     284.6736    914.5157  22.95     1.473     1.146   0.1765         99     46.26034
 6.16    261.7776  20.7298     847.3649    410.9438 -50.42     1.595     1.170   0.1104        100     86.15794
 4.50    296.8800  18.8149     4943.384    375.0334  30.08     5.932     2.233   0.0368        101     167.4942
 3.81    279.1085  19.3545      3007.38   1128.7777 -37.13     2.416     1.730   0.0289        102     80.12527
 4.37    264.9361  21.6440     365.0942    271.6232 -73.63     1.138     0.946   0.1365        103     45.89751
 6.46    263.5041  22.5314     161.2294    721.2064 -89.49     0.987     0.733   0.3776        104     56.06383
 3.50    281.3364  19.4165      2840.64    955.4014 -28.15     1.574     1.506   0.0209        105      54.5524
 3.50    266.9327  22.0186     258.5555    767.3180 -16.25     0.981     0.732   0.1262        106     30.04697
 3.50    286.3484  19.8597     1888.539    743.6095  40.15     1.460     1.383   0.0296        107     51.39637
 7.40    278.8119  23.0686     98.30103   1454.3896 -71.06     0.759     0.445   0.4907        108     44.41655
 6.29    279.6088  22.9196     112.7611    884.7463  18.33     0.745     0.451   0.3566        109     37.02634
 3.73    313.6259  18.7396     5298.375    792.7342  28.19     2.366     2.017   0.0171        110     83.39702
 7.37    289.1764  22.1270     233.9824   1177.8871  42.69     0.851     0.670   0.2630        111     56.65712
 7.07    292.0175  23.7064        54.63   1277.2856  87.01     0.742     0.692   1.0409        112     52.36315
 5.13    298.8221  21.4435     439.1355    863.1149  17.37     1.474     1.048   0.1631        113     65.93113
 3.50    374.0452  14.4950     264234.4   1263.0072 -33.49     2.333     2.210   0.0003        114      80.9556
 5.61    315.0114  20.8941     728.4066    803.5080  31.74     1.723     1.262   0.0936        115     62.77437
 3.50    338.2123  17.3367     19288.64    596.3755 -66.87     1.875     1.854   0.0038        116     66.93777
 3.50    332.7775  18.3990     7251.187    789.3983 -34.10     1.680     1.646   0.0089        117     59.25343
 6.26    311.5056  22.3090     197.8772   1549.0146  -1.35     0.805     0.500   0.2199        118     40.06263
 7.97    317.2074  22.5476     158.8447   1061.6068 -71.74     0.763     0.449   0.3355        119      49.0665
 5.00    323.1175  21.1637     568.2322    833.2548  -4.62     1.149     1.073   0.1088        120     56.95144
 5.46    323.2687  21.2581     520.9019    289.3503  -5.53     1.242     1.080   0.1369        121     65.67706
 3.50    328.8228  20.8607     751.1704    720.6425 -72.46     1.375     1.253   0.0669        122     46.26034
 3.50    335.3305  20.0983     1515.979   1146.0575 -32.82     2.232     1.734   0.0509        123     71.05708
 6.41    327.7767  22.0433     252.7515    157.4338  64.09     1.391     0.861   0.3083        124     71.75947
 0.00    322.0162  99.0000    -10.91528   1454.0000  90.00     0.864     0.289  99.0000        125      40.4778
 5.74    335.9540  21.2255     536.7596   1038.2914 -51.54     1.658     1.399   0.1801        126     89.02112
 5.32    334.7170  20.8178     781.4395    661.8060   3.32     1.727     1.269   0.1125        127      80.9556
 3.50    361.4441  19.0269      4066.84    708.8192 -68.97     2.479     2.197   0.0223        128     83.39702
 0.00    329.3398  99.0000    -11.65869    220.3325 -45.30     0.580     0.332  99.0000        129     14.16428
 4.02    375.0766  18.1664     8983.153   1364.3392   5.19     3.340     2.486   0.0143        130     118.6479
 6.59    349.8664  22.2032     218.1222   1576.3282 -74.94     1.358     0.321   0.2230        131     44.79139
 3.50    347.4366  22.0370     254.2078   1599.3663  84.48     0.950     0.617   0.1019        132     23.84204
 5.25    348.1754  22.9911      105.572     40.1509  47.67     0.757     0.568   0.3667        133     35.64599
 3.50    363.7216  19.8663     1877.107    504.4440  69.04     1.459     1.405   0.0301        134     52.04288
 4.73    360.6756  20.7639     821.1797    640.8969 -84.53     1.210     1.133   0.0765        135     57.82543
 7.26    359.7431  21.5031     415.6931   1278.9045 -66.17     1.174     1.052   0.2163        136     82.79341
 5.16    357.1693  22.8113     124.5881   1291.4176  69.78     0.750     0.447   0.2619        137     30.04697
 6.49    357.3419  22.4189     178.8292   1050.6553 -12.61     1.135     0.614   0.3368        138      55.4642
 7.49    363.0229  22.7391     133.1615     99.2650  89.07     1.168     0.847   0.6185        139     75.83734
 7.33    359.0027  22.2612     206.7866   1095.3845 -89.96     0.875     0.486   0.2559        140     48.72457
 7.56    369.7059  21.2740     513.3529   1341.3179  34.94     2.012     1.027   0.2356        141     111.3796
 8.28    365.7765  21.6890      350.261   1284.6234 -65.85     1.036     0.935   0.2592        142     83.59725
 4.23    451.0447  17.8935     11550.46   1220.1050  54.56     7.010     2.619   0.0174        143     185.4926
 6.71    368.1672  21.8217     309.9731    268.3489 -52.80     1.060     0.678   0.2036        144     58.11383
 3.92    401.3127  18.4972       6623.8    825.4194  45.88     3.281     2.709   0.0197        145     120.0487
 3.55    389.2865  18.7398     5297.377   1463.5734  -5.81     1.789     1.699   0.0129        146     63.08009
 6.34    380.2635  21.4941     419.1484    959.4734 -67.00     2.181     1.119   0.2617        147     100.9878
 7.87    368.8943  21.6347      368.217    643.5867  27.32     1.151     0.577   0.1907        148     64.65079
 3.72    377.3903  21.2674     516.4749    163.5931  83.29     1.331     1.253   0.1046        149     49.74331
 3.89    385.7827  20.3936     1154.988    867.8937  84.36     1.357     1.232   0.0477        150     50.74161
 6.27    377.7131  21.8343     306.3981    430.5041 -24.91     1.601     0.716   0.2434        151     68.66389
 6.35    383.5173  21.0414     635.9679   1278.0845  88.46     1.306     1.166   0.1375        152      80.5415
 3.55    392.8902  19.6863     2215.554   1317.9773  52.61     1.645     1.444   0.0278        153     56.65712
 3.50    413.7154  17.5204     16286.45     67.4630 -60.35     1.877     1.839   0.0044        154     66.18423
 3.50    417.2204  17.1716     22456.76   1308.3070  17.11     1.920     1.876   0.0033        155      67.9295
 5.35    391.8077  21.8455     303.2428   1206.6018 -76.03     1.191     0.958   0.2112        156      58.9706
 3.50    719.8947  15.6393      92105.8    199.2038 -41.88    13.551    10.306   0.0050        157     423.9042
 5.07    393.7631  22.8728     117.7257     18.9677  -1.50     0.688     0.425   0.2558        158      27.7321
 3.50    458.0837  15.7908     80109.04     12.6700 -49.85     2.253     2.053   0.0010        159     77.36515
 3.92    413.4766  21.3943     459.4994    665.7608  68.88     1.487     0.880   0.1085        160     45.89751
 3.50    416.9565  22.0331     255.1229   1158.3895  81.84     1.470     1.033   0.1891        161     44.41655
 5.02    410.1406  21.6062     378.0366    750.1879   9.17     1.114     0.725   0.1329        162     46.26034
 5.64    421.2555  21.3928     460.1125    102.5200  61.15     1.205     1.020   0.1514        163      64.1315
 6.17    419.6847  20.1643     1426.554    889.6652 -66.61     0.907     0.718   0.0416        164     54.59295
 6.45    421.7512  21.8801     293.7383    893.2390 -21.82     1.314     0.898   0.2618        165      70.8214
 6.55    425.8313  22.5417     159.7039    962.7754 -80.47     1.045     0.847   0.4235        166     62.27989
 4.90    439.7298  20.3284     1226.399    908.9675 -25.61     1.890     1.699   0.0801        167     90.51111
 3.50    466.1190  16.4698     42864.27   1075.1609 -32.82     2.018     1.954   0.0018        168     70.34767
 5.59    428.7175  23.1093     94.68481   1431.8264 -31.22     0.864     0.605   0.4783        169     41.69851
 8.66    432.2888  22.1767      223.516   1516.0232  -8.46     0.723     0.673   0.3026        170     62.27989
 7.01    433.7692  22.5783     154.4177    415.6180  72.67     0.747     0.453   0.2904        171     41.29562
 3.50    439.5482  21.7233     339.3765    815.4628  33.56     1.225     1.095   0.1321        172     41.29562
 3.89    449.0450  20.6472     914.3746    290.8685 -32.56     1.440     1.299   0.0659        173      55.4642
 3.96    450.0580  20.0191     1630.599    174.6930   9.52     1.794     1.456   0.0437        174     65.67706
 5.03    448.5518  22.9222     112.4928   1378.3848 -62.47     1.098     0.709   0.4466        175     46.26034
 6.63    452.0868  22.2144     215.8989    966.7126  51.79     1.085     0.975   0.3503        176     69.63103
 5.32    457.6748  21.4202     448.6593   1159.9452  81.80     1.617     1.344   0.1955        177     80.74882
 0.00    445.6780  99.0000    -5.535645   1485.3439  44.05     0.577     0.333  99.0000        178       32.711
 8.33    445.6734  24.6307     23.31897    376.6509 -44.08     0.581     0.331   1.7453        179     37.47516
 3.94    462.5902  19.8710     1869.009    275.6967   0.35     1.827     1.463   0.0386        180     66.43636
 6.02    454.2875  22.6340     146.6935    478.9831 -14.32     0.732     0.666   0.3232        181     43.65724
 4.32    465.1969  20.9636     683.2197   1190.5952 -13.54     1.366     1.198   0.0910        182     57.24426
 5.75    462.4704  21.4279     445.4828   1091.8141   0.80     1.161     0.967   0.1518        183     62.27989
 7.91    459.6889  24.7776     20.36865   1099.6337 -42.76     0.581     0.330   1.9005        184     35.64599
 6.44    462.9705  22.3080     198.0691   1263.0303 -45.42     0.898     0.532   0.2476        185     45.16311
 3.50    488.4069  18.3207      7793.56    574.1901  14.25     1.761     1.641   0.0086        186     61.46927
 5.42    473.1105  22.2160     215.5695    250.7760  62.62     1.279     0.550   0.2385        187     47.33215
 3.92    478.8407  20.6363     923.6143   1017.6990  32.97     1.410     1.333   0.0659        188     56.06383
 4.91    474.3923  21.5414       401.29   1138.5402  20.56     1.229     0.936   0.1476        189      54.5524
 8.42    476.2465  22.5911     152.6001   1162.2501  71.10     0.859     0.351   0.3318        190     46.62035
 6.33    479.8654  22.0408     253.3214   1571.2762 -17.61     1.048     0.546   0.2059        191     48.03341
 0.00    478.6742  99.0000    -38.84253    219.6721 -44.91     0.572     0.336  99.0000        192     20.03132
 3.50    505.4083  18.2969     7965.884   1142.3480 -37.17     1.754     1.707   0.0085        193     62.54776
 3.50    557.4858  17.5021     16563.98   1456.4041 -85.58     1.868     1.858   0.0044        194     66.68754
 3.50    497.8973  21.1635     568.3102    604.8098  73.73     1.557     1.321   0.0982        195     51.39637
 3.94    489.5105  23.5131     65.27454    769.5135 -45.64     0.501     0.498   0.3333        196     20.03132
 6.09    509.2844  19.9306     1769.169    999.6625  34.56     1.878     1.755   0.0694        197     113.0188
 5.95    500.9969  21.3207     491.7388   1011.0789  -7.59     1.946     1.093   0.1978        198     89.58277
 3.88    506.7611  20.7156     858.5099    538.5916 -46.71     1.331     1.280   0.0662        199     52.36315
 4.64    536.8422  18.6165      5934.78    353.0277  -6.58     2.927     2.803   0.0249        200     136.1049
 4.43    530.4689  19.3439     3036.994   1006.4338 -32.62     3.333     2.123   0.0430        201     120.1879
 4.34    532.7872  19.8775     1857.793    671.9299  67.38     2.482     1.690   0.0460        202     78.61314
 5.77    515.0647  21.6994     346.9318   1524.5029  43.62     1.155     1.062   0.2032        203     64.90888
 6.10    513.0201  23.3918     72.99304    164.0000  90.00     0.859     0.289   0.4633        204     31.13995
 3.50    547.5416  17.5167     16342.41    374.1339 -74.44     1.992     1.893   0.0046        205     69.87073
 4.39    518.2790  22.1499     229.1083   1431.6025  -7.67     0.981     0.919   0.2014        206     42.49284
 5.07    539.9126  19.9372     1758.408    674.2069 -44.53     2.487     1.668   0.0503        207     81.38546
 3.50    532.7383  20.9830     671.1471    654.4314 -13.30     1.289     1.121   0.0688        208     42.49284
 3.50    561.8504  16.9244     28198.08    583.2339  25.76     1.888     1.857   0.0026        209     67.43546
 8.60    524.7182  22.9088     113.8856   1374.9868  -0.82     0.679     0.450   0.4679        210      49.0665
 8.08    525.6044  23.6742     56.27319    331.1867 -19.31     0.762     0.444   0.9469        211      49.0665
 5.94    528.8715  22.6330     146.8284    229.1235 -49.93     0.753     0.572   0.2901        212     39.21911
 6.14    533.1379  22.0760     245.2543   1227.7197 -14.57     1.024     0.751   0.2416        213      54.5524
 3.50    566.7295  17.1901     22077.54    956.1602 -21.55     1.898     1.874   0.0033        214     67.68293
 0.00    536.7968  99.0000    -50.05151    468.3878 -71.16     0.767     0.443  99.0000        215     37.02634
 9.26    541.7950  22.0989      240.136   1099.5922  70.86     0.771     0.446   0.2481        216     54.85802
 3.50    573.1076  17.2148     21581.43   1028.6041 -44.41     1.924     1.902   0.0035        217     68.66389
 5.01    556.3446  20.5179      1030.04   1073.6241 -45.92     1.536     1.400   0.0786        218     74.50285
 3.50    549.0526  21.6030     379.1572    756.0723  61.77     1.201     1.104   0.1171        219     40.88875
 5.15    553.8810  21.4957     418.5326      3.6394  32.48     1.065     0.961   0.1264        220     48.72457
 8.21    546.5253  22.8306     122.3936   1397.5427 -59.29     0.500     0.498   0.3700        221     41.69851
 3.50    556.8666  22.4282     177.3043    271.1406  47.75     0.831     0.664   0.1623        222     26.49894
 6.99    554.3266  23.2754     81.25439   1164.6796  45.30     0.569     0.338   0.4016        223     30.04697
 4.41    570.3473  20.7791     809.8036   1513.9795 -34.99     1.495     1.249   0.0835        224     62.27989
 6.45    562.5316  22.4784     169.2882    231.6833 -32.09     0.947     0.678   0.3400        225     52.99788
 4.08    579.8500  19.6450     2301.425   1365.8766  51.11     1.601     1.546   0.0308        226     65.16595
 6.48    562.2994  22.9662     108.0282    757.6545  42.74     0.567     0.338   0.3021        227     30.04697
 7.26    568.9766  22.2418     210.5049   1328.5712 -29.92     1.048     0.663   0.3213        228     62.27989
 3.50    664.6186  14.0359     403301.7   1486.7719 -44.51     2.438     2.292   0.0002        229     84.19509
 5.59    585.4757  21.8566     300.1621    272.9999  75.25     1.681     1.447   0.3228        230     89.20872
 6.57    584.7122  21.3802     465.4952   1527.9791 -46.52     1.663     1.287   0.2301        231     98.64279
 8.38    575.5018  22.0006     262.8849    629.9894  -0.56     0.821     0.500   0.2241        232     54.24506
 4.68    613.2316  18.9576     4334.832    572.2295  76.04     2.753     2.396   0.0308        233     122.9385
 4.98    596.0724  20.8475     760.3477   1054.8129 -30.04     1.526     1.374   0.1058        234     74.05268
 4.76    984.0365  21.1895     554.8906    173.7719 -28.46     1.311     1.117   0.1154        235      58.9706
 6.65   1598.0112  21.8095     313.4589   1445.3649 -38.15     1.007     0.627   0.1688        236     48.72457
 4.75   1598.7107  24.0896      38.3855   1307.6581 -42.20     0.561     0.340   0.5667        237     20.03132
 7.94   1595.3134  22.6055     150.5879    257.7211  45.02     0.964     0.740   0.4773        238     66.18423
 5.29   1594.8629  23.7416     52.89062    335.9893  84.75     0.925     0.751   0.9042        239     44.03853
 4.51   1583.5969  18.5021      6594.15    831.3826 -77.94     4.143     3.372   0.0282        240     170.9521
 7.19   1589.6140  21.6470     364.0836   1460.7354  81.48     1.113     0.952   0.2288        241      76.7141
 8.87   1590.3269  22.8485     120.3899   1530.3248 -45.10     0.571     0.337   0.3614        242     40.06263
 3.50   1584.3572  21.9345     279.3813    908.5189  57.80     1.212     0.847   0.1404        243     36.11197
 4.41   1583.1919  21.9806     267.7772    370.4655  39.27     1.044     0.833   0.1691        244     41.69851
 6.72    849.1667  21.7836     321.0471   1509.8450 -82.14     1.947     0.693   0.2710        245     80.12527
 4.57    844.4033  20.4095     1138.142     98.9329 -81.96     3.650     1.456   0.1023        246     107.2502
 3.50    874.4470  19.0782     3878.994     39.4187  21.25     1.629     1.579   0.0159        247     56.95144
 3.50    846.2758  21.5185     409.8156   1142.0671  13.92     1.141     1.019   0.1016        248     38.35705
 3.50    874.3253  20.7944     798.4175    845.9553 -33.12     2.015     1.267   0.0790        249     58.11383
 4.32    848.7893  19.8763     1859.911    646.7096 -87.03     2.307     2.031   0.0559        250     95.71812
 7.46    839.3712  22.8290     122.5756   1520.2462 -11.74     1.575     0.369   0.5123        251     57.82543
 6.79    835.0080  20.8500     758.5587   1371.5316  77.70     1.464     1.244   0.1332        252     93.06122
 6.67    836.5049  23.6129     59.54358    955.9969 -32.71     0.780     0.319   0.5966        253       32.711
 5.89    826.0537  21.6524     362.2786    342.8156 -42.75     1.480     0.902   0.2102        254      70.1096
 4.46    823.0322  22.4844       168.36   1599.5962 -88.85     0.777     0.491   0.1626        255     25.20552
 3.50    879.3613  17.7350     13365.73   1341.0470 -23.46     1.995     1.894   0.0056        256     69.14915
 9.08    821.5098  23.9757      42.6311   1332.4580 -48.46     0.506     0.492   1.1876        257     46.62035
 4.33    818.7234  20.5565     994.0344   1030.1981  65.07     1.415     1.334   0.0663        258     60.64782
 7.19    819.6550  22.2473     209.4443    524.6809 -46.13     0.576     0.334   0.1642        259     31.67229
 4.44    816.8698  20.9092     718.3058    819.4221 -28.82     1.298     1.270   0.0887        260      58.6864
 6.20    794.0475  21.2999     501.2507    434.8087  54.25     1.669     1.305   0.2028        261     93.59863
 7.82    795.5040  22.5449     159.2382   1284.5521 -66.87     0.501     0.497   0.2844        262     41.69851
 5.06    793.0139  21.2917     505.0526    938.2761 -54.24     1.720     1.274   0.1631        263     75.83734
 7.39    789.0296  21.0400     636.8022    868.1213  58.74     1.744     1.081   0.1770        264      103.764
 3.83    792.0107  21.9916     265.0709   1464.2678  47.29     0.914     0.809   0.1402        265     34.20998
 3.50    786.9997  17.0898     24215.62    527.5715 -38.55     1.969     1.885   0.0031        266     69.14915
 3.50    776.6987  15.0845     153538.1    727.8635 -35.58     2.282     2.165   0.0006        267     79.70686
 6.07    786.7769  21.4119     452.0963   1107.9977  75.71     1.210     0.960   0.1596        268     66.43636
 3.82    786.9265  22.3375     192.7543    218.9024 -80.94     1.292     1.112   0.2647        269      46.9776
 5.55    784.4888  21.5310      405.131    374.6701 -23.43     1.576     0.867   0.1781        270     66.43636
 3.86    784.8297  21.4433      439.208    184.4231  -6.24     1.299     1.102   0.1188        271     48.03341
 3.96    780.7413  19.9836     1684.771    992.9757 -25.27     1.582     1.477   0.0400        272     62.01086
 3.50    770.7085  16.4510     43611.02    369.4375 -84.39     2.068     1.995   0.0018        273     73.14402
 6.19    780.1841  22.6422     145.5907    127.0010 -89.88     0.981     0.750   0.4046        274     54.24506
 7.53    787.2905  22.3851     184.4891   1377.4557  24.71     1.171     0.938   0.4753        275     80.74882
 6.22    765.7124  21.2325     533.3313   1408.9180  84.25     1.596     1.028   0.1661        276     81.57281
 6.57    762.4935  22.0331     255.1295   1360.3601  34.12     1.197     0.857   0.2881        277     67.68293
 6.25    760.6926  23.0389     101.0311   1040.5757  31.12     0.967     0.545   0.4934        278     45.89751
 6.08    758.1440  23.3515     75.75269   1065.5687 -12.62     0.874     0.617   0.6475        279     45.16311
 4.26    756.4565  21.7924     318.4575    889.9158 -84.94     1.045     0.997   0.1502        280     44.03853
 8.19    754.4973  22.9083     113.9358   1275.8314  50.13     1.099     0.737   0.7250        281     76.05747
 6.73   1401.5085  23.7768     51.20007   1083.4974 -44.93     0.513     0.487   0.6938        282       32.711
 5.68    735.3345  22.7430     132.6776   1080.7650  53.44     1.091     0.867   0.4638        283     56.65712
 5.86    731.1986  21.8757     294.9259   1468.8861  60.31     1.318     0.892   0.2381        284     64.65079
 0.00    731.9658  99.0000    -4.001953   1340.0000  90.00     0.853     0.289  99.0000        285     23.84204
 3.68    728.3334  20.6696     895.6658    127.9870  69.34     2.006     1.710   0.0847        286     69.87073
 3.50    727.3524  20.2904      1270.05    624.3361 -11.04     1.463     1.326   0.0428        287     50.07829
 5.08    724.2869  20.0601     1570.227    970.7228 -81.69     2.769     1.694   0.0783        288     113.1666
 5.61    741.9032  20.2901     1270.461    918.6675 -43.74     2.264     1.568   0.0925        289     108.1815
 6.76    725.8743  22.4856     168.1733   1433.8495 -46.55     1.345     0.907   0.4897        290     75.83734
 6.52    723.4359  22.7887     127.2135   1319.2839  -8.81     1.019     0.476   0.3918        291     45.89751
 3.50    719.7520  21.3434     481.5577    659.0257  50.68     1.155     1.118   0.0903        292     40.06263
 4.49    719.3348  23.5877      60.9447    725.3120 -46.10     0.569     0.338   0.3569        293     20.03132
 6.55    742.9020  21.1781     560.7567   1432.5208  79.27     1.277     0.997   0.1477        294     76.27698
 7.52    742.6771  21.7107     343.3461   1293.7584 -70.09     1.441     1.018   0.2955        295     93.41984
 3.50    709.9128  19.0850     3854.741   1354.5731 -74.25     1.596     1.544   0.0157        296     55.76482
 3.95    708.1457  21.6616     359.2152    403.5540  16.32     1.376     1.079   0.1473        297     48.72457
 6.56    708.4860  22.8577     119.3755    778.0148  31.86     0.805     0.310   0.2976        298       32.711
 0.00    706.4850  99.0000    -20.49805    848.4735  48.21     0.502     0.497  99.0000        299     28.32856
 3.68    702.3450  19.5245     2571.658   1040.3937  58.64     1.597     1.494   0.0244        300     57.82543
 3.50    698.0961  18.2772     8111.681     96.7310  -5.81     1.785     1.718   0.0084        301     62.54776
 7.93    702.2547  21.9369      278.776     14.0408   4.23     0.728     0.692   0.2230        302     57.24426
 7.82    700.7561  21.9503     275.3441     19.3754 -73.23     0.979     0.643   0.2488        303     63.08009
 6.75    698.4558  21.9865     266.3176    910.0122 -63.26     1.034     0.659   0.2358        304     57.82543
 6.49    688.5469  21.0945     605.5924   1185.9166 -21.70     1.719     1.036   0.1590        305      88.6447
 5.90    684.6528  20.4017     1146.308    494.2355  33.95     1.699     1.579   0.0938        306     98.98119
 4.30   1577.2255  20.7393     839.9697    509.3104  76.48     1.886     1.748   0.1031        307     79.70686
 7.46    678.6743  22.9715     107.5011    943.0048  28.15     0.912     0.211   0.3305        308       32.711
 5.95    674.3161  20.8053      790.442   1442.8916 -53.65     1.764     1.634   0.1415        309     102.9552
 3.50    668.5950  17.9904     10564.73   1090.3999 -58.85     2.110     1.758   0.0071        310     68.66389
 3.50    671.7319  21.2751     512.7958    758.1774  10.12     1.401     1.121   0.0956        311     45.16311
 3.98    672.6792  25.5386     10.10583   1570.6760 -44.84     0.568     0.338   2.1526        312     20.03132
 6.41    671.0736  21.1424      579.465    456.1226 -20.71     1.629     1.121   0.1665        313     88.83311
 4.97    668.2959  21.3560     475.9783    350.3431 -58.60     1.548     1.311   0.1653        314     72.45506
 6.05    667.7723  20.7908     801.0836   1307.7014 -25.72     1.778     1.336   0.1295        315     95.54329
 0.00    686.0467  99.0000    -28.92065   1360.5156 -88.39     0.789     0.499  99.0000        316     28.91271
 5.72    661.6709  20.7861     804.5623    316.3075   7.18     1.640     1.409   0.0957        317     70.89832
 3.50    654.2615  19.1354     3680.001    312.4706  51.26     1.703     1.595   0.0177        318     59.81509
 3.92    682.3065  21.2994     501.4481   1072.2152  10.46     1.174     1.036   0.0954        319     44.03853
 6.77    658.6656  22.6845     140.0244    922.3510 -23.92     1.183     0.933   0.5691        320     73.37225
 3.50    657.1321  22.3981     182.2867    686.3115 -17.86     0.938     0.656   0.1688        321     28.32856
 3.56    652.6425  19.3379     3053.813     16.4175 -19.14     1.643     1.549   0.0207        322     58.11383
 6.22    648.4801  21.7534     330.1038     83.8654  69.42     1.058     0.824   0.1977        323     60.09395
 4.29    643.3030  20.3138     1243.075    165.2615  23.80     1.448     1.367   0.0544        324     62.27989
 4.06    636.0479  18.4452     6949.253    871.1270 -57.28     2.848     2.377   0.0169        325     107.8719
 5.96    641.0565  21.0053     657.4523    220.5041  32.30     1.877     1.739   0.1830        326     110.7776
 4.36    636.1115  21.5555     396.1132    713.3629  76.13     1.181     1.097   0.1409        327     51.39637
 6.57    633.0480  23.7068     54.61218    398.3068 -88.64     0.725     0.673   0.9412        328     47.33215
 3.85    735.7529  20.6487     913.0839    372.6208 -53.84     1.467     1.395   0.0663        329     55.76482
 3.50    628.0223  21.0618     624.1355   1540.7615 -39.07     1.307     1.128   0.0766        330     44.03853
 3.89    626.0219  21.5020     416.0898    984.0187  43.26     1.352     1.126   0.1254        331     48.03341
 8.55   1586.3198  22.8868      116.224     49.6663  44.36     0.572     0.336   0.3584        332     38.35705
 7.80    620.4565  22.2314     212.5422    135.9588  31.75     0.803     0.310   0.2131        333     41.69851
 4.11    615.7855  20.5912     962.7208    191.3643 -89.16     1.966     1.820   0.0899        334     79.70686
 3.94    611.6806  19.1940     3486.435    588.6849  12.48     2.447     1.458   0.0238        335     76.27698
 4.21    613.7873  23.0155      103.224   1535.5619  68.99     0.727     0.452   0.2581        336     24.53325
 7.56    612.9899  23.2079      86.4635    971.5016 -57.83     0.795     0.314   0.5032        337     40.06263
 5.06    607.8281  22.1987     219.0299    299.9239 -10.12     2.002     0.667   0.2938        338     59.25343
 8.00    606.4014  22.1793     222.9867   1380.7959 -18.61     0.753     0.451   0.2339        339     48.03341
 3.50    602.5517  20.0065      1649.72   1580.4075 -11.24     1.526     1.340   0.0336        340     51.07003
 8.21   1594.5544  22.4277     177.3827    953.4969  16.63     0.500     0.497   0.2553        341     41.69851
 7.77    597.6989  21.8449     303.4258     31.4397  82.19     0.977     0.483   0.1953        342      54.5524
 6.96    597.3018  21.6879     350.6182    442.1967   6.84     1.194     0.614   0.1895        343     61.19668
 6.49    589.9781  23.2820     80.76074    260.5208  32.50     0.983     0.607   0.7041        344     52.36315
 7.93   1581.2156  22.8620     118.9058    263.3687   9.48     0.930     0.780   0.6316        345     69.14915
 4.31   1574.4686  20.7853     805.1246     28.0613  10.92     1.600     1.328   0.0869        346     64.39167
 3.50   1571.2089  21.3759     467.3586    429.6039  -1.45     1.361     1.146   0.1041        347     44.79139
 4.07   1545.4407  20.0205     1628.582    665.0071  51.81     1.760     1.585   0.0466        348     69.87073
 0.00   1590.3119  99.0000    -89.20874    264.9013  52.87     1.742     0.950  99.0000        349     105.5215
 3.86   1531.7686  19.6001     2398.586    868.0372 -65.16     1.927     1.713   0.0283        350     62.47609
 7.00   1560.0084  22.4168     179.1732    253.0228 -89.67     0.637     0.610   0.2737        351     45.16311
 4.91   1576.2517  22.8513     120.0862     70.2120 -63.74     1.159     0.657   0.3948        352     43.65724
 4.39   1524.4141  21.1083     597.9789    803.2822 -86.80     1.411     1.238   0.1076        353     59.25343
 5.13   1455.8646  20.4894      1057.44    129.3153  67.02     2.099     1.448   0.0943        354     91.79502
 3.50   1566.6180  18.6264     5880.958     19.5467 -47.25     2.257     1.870   0.0135        355     73.37225
 6.90   1551.2915  21.4992     417.1821    216.9980 -24.69     1.282     0.851   0.1939        356     74.50285
 3.50   1559.4353  18.3143     7839.005   1362.0237  63.78     1.908     1.873   0.0094        357     67.68293
 4.31   1553.7059  21.0995     602.8549   1074.0826  52.81     1.434     1.188   0.1042        358     57.82543
 6.59   1562.3291  23.3289     77.34912    285.7401  -1.76     1.447     0.688   0.9503        359     67.68293
 3.50   1510.2600  15.8337      77005.2   1281.9120 -47.62     2.346     2.315   0.0012        360     83.39702
 4.48   1546.0299  21.7366     335.2372   1237.0082  -0.53     1.222     0.970   0.1622        361     50.07829
 6.26   1554.4752  22.4212     178.4531    637.1225  -4.50     1.289     0.929   0.4296        362     70.58493
 4.46   1526.8496  22.1009     239.6902    958.9269 -73.15     1.089     0.843   0.1943        363     42.88449
 5.69   1515.7474  21.6132     375.6073   1038.1201 -12.16     1.481     1.190   0.2243        364     77.58096
 6.25   1511.4946  22.0893     242.2654      8.4691 -89.95     1.014     0.499   0.2074        365     46.26034
 6.55   1548.0656  21.7068     344.5593    437.2470  77.07     1.824     1.148   0.3050        366     96.76044
 5.93   1555.9697  21.4326     443.5475    309.0487  31.62     1.672     1.255   0.2161        367     88.26669
 3.50    839.5729  14.3373     305557.1    275.3863 -32.69     2.446     2.276   0.0003        368     84.59131
 5.87   1510.1105  21.5163     410.6544    983.2292 -68.91     1.098     0.911   0.1604        369     60.64782
 7.76   1533.7628  22.2118     216.4139    686.9981  -0.08     0.695     0.425   0.2171        370     43.27259
 3.50   1534.6948  18.1832     8845.593    875.6373 -44.06     2.005     1.951   0.0092        371     74.92342
 4.24   1512.8563  20.5195     1028.526    594.0773 -50.41     1.814     1.450   0.0766        372     72.58434
 4.85   1534.8787  21.3847     463.5635    113.2209  19.20     1.348     1.120   0.1434        373     61.19668
 3.60   1522.7526  20.3815     1167.837   1514.9204  -8.52     1.603     1.427   0.0519        374     55.76482
 5.48   1520.4866  20.1922     1390.318    587.4318 -45.64     2.188     1.674   0.0670        375     85.76031
 5.10   1509.5151  21.8103     313.2324    525.4976 -21.54     0.945     0.893   0.1677        376     48.38022
 3.50    849.8386  16.4261     44622.73    214.7959 -89.16     2.086     2.009   0.0018        377     73.82656
 3.50    873.5165  18.9839     4231.063    448.0450  54.34     1.699     1.602   0.0152        378     59.25343
 5.10   1460.2817  20.7780     810.5677    123.9003 -73.87     1.447     1.419   0.0825        379     61.54494
 3.89   1504.7812  21.5679     391.5989   1361.0045  -3.68     1.441     1.306   0.1521        380     54.85802
 4.77    862.8785  22.1852     221.7793    655.4520  10.53     1.004     0.867   0.2247        381     45.89751
 4.40    875.8676  20.6435      917.464   1085.1508  -7.33     1.491     1.353   0.0759        382      64.1315
 8.29   1473.4630  21.4864     422.1389    568.0322 -59.21     1.056     1.047   0.2290        383     89.02112
 3.89    864.6418  21.6256     371.3134    523.1866 -14.76     1.130     1.039   0.1277        384     43.65724
 4.51   1473.0681  19.5056     2616.694   1563.4991  15.07     2.439     2.174   0.0441        385     106.3108
 9.04   1483.5951  22.3263      194.744    831.2081 -18.79     0.762     0.449   0.2973        386     53.31241
 4.02   1462.1167  21.4827     423.5658    597.6520  -7.33     1.521     1.215   0.1437        387     56.06383
 3.51   1482.0107  21.8793     293.9525   1409.4650 -87.70     1.119     0.930   0.1317        388     35.64599
 7.93   1480.3177  21.7058      344.881     23.5609 -30.65     0.938     0.537   0.1821        389     57.82543
 6.35   1433.6267  21.8172     311.2494    891.0014 -21.66     1.277     0.953   0.2487        390     71.29198
 7.55   1471.6377  21.5319     404.7932   1550.5687  -7.35     1.047     0.641   0.1714        391     63.87027
 5.04   1410.3209  21.7842     320.8716   1507.6195 -53.65     0.967     0.869   0.1614        392     47.68407
 6.89   1396.3572  21.9866     266.2811    558.1595 -53.28     1.109     0.913   0.2879        393     70.58493
 3.50   1464.3440  21.5130     411.9064    882.2447   2.22     1.485     1.255   0.1285        394     48.72457
 4.77   1454.9135  20.2304     1342.257    717.7418  89.13     1.675     1.547   0.0638        395     78.86337
 3.50   1464.5929  22.8167     123.9677    222.6826  82.83     1.026     0.645   0.2482        396     28.32856
 6.65   1467.0140  20.7815      807.967     55.5362 -53.29     1.517     1.263   0.1268        397     94.31042
 7.00   1472.4838  23.1956     87.44653   1213.5007 -43.03     0.502     0.498   0.4062        398       32.711
 3.50   1461.2921  16.6126     37580.68    251.0937   1.15     2.202     2.129   0.0023        399     78.01077
 3.50   1465.8066  15.6251     93317.53    533.8480  73.53     2.604     2.391   0.0010        400     89.58277
 3.87   1451.3909  22.3205     195.7922   1206.5895 -40.76     1.049     0.842   0.2079        401     37.47516
 4.24    887.7533  20.9413     697.4241    689.4931 -73.17     1.761     1.318   0.1038        402     66.68754
 3.50    879.7380  15.1587     143391.4    165.7873 -75.27     2.291     2.231   0.0006        403     81.16186
 5.83   1454.0531  22.6220     148.3191   1034.4991  89.46     0.795     0.500   0.2809        404     38.35705
 3.50    862.1480  13.9460     438111.2   1395.6820 -50.46     4.386     4.092   0.0004        405     152.3346
 4.23    867.5311  21.9889      265.729   1057.9016  57.14     1.167     0.815   0.1704        406     41.69851
 4.68   1417.8381  19.7058     2176.082    691.1601  80.33     2.607     2.052   0.0553        407     110.7776
 5.12    895.6939  23.2596     82.44031   1171.3042  45.11     0.552     0.345   0.3047        408     23.13017
 4.31    900.5183  22.8176     123.8641    299.5195 -45.08     0.508     0.492   0.1964        409     22.39569
 4.13   1438.8507  21.4205     448.5342    959.9644  50.16     1.434     1.195   0.1357        410     56.06383
 7.64   1419.5228  21.4488     437.0032   1083.0508  31.94     1.422     0.938   0.2226        411     89.58277
 3.55   1419.7631  19.2021     3460.527   1049.8881 -25.01     1.909     1.715   0.0207        412     65.93113
 7.57   1390.4725  22.5343     160.7903    805.4818 -40.25     0.501     0.498   0.2591        413     38.35705
 5.46   1425.6345  22.1623      226.505    837.3907 -47.92     1.018     0.876   0.2526        414     52.68147
 4.10   1413.1150  20.1754     1411.951    966.2263 -15.41     1.850     1.510   0.0521        415     67.71494
 3.50   1415.7566  16.6181     37389.05    953.6645 -38.58     2.233     2.178   0.0023        416     79.49682
 6.93   1388.0636  22.4247      177.869    402.1930 -88.50     1.402     1.095   0.5378        417     88.07706
 3.50   1384.8019  15.9820     67170.99    907.4203 -43.53     2.302     2.269   0.0013        418     82.18537
 5.71   1404.0055  20.8070     789.1881    754.0024  48.42     1.513     1.204   0.1074        419     78.01077
 7.17    905.8369  22.2653     206.0118   1518.7594  60.60     1.419     0.767   0.4090        420     77.58096
 3.50   1371.6240  21.5463     399.4655   1249.4401   5.81     1.274     1.008   0.1066        421     39.21911
 6.53    920.5975  21.7380     334.8088    854.4276  57.35     1.085     0.947   0.2187        422     67.43546
 4.59   1366.4231  20.6437      917.288    332.8526  58.06     1.508     1.443   0.0819        423     69.14915
 4.10    916.5317  21.0124     653.2111   1146.2092 -33.66     1.482     1.187   0.0922        424      55.4642
 3.50   1398.2227  18.2052     8668.201    899.3804  55.11     2.059     2.021   0.0099        425     78.79332
 3.50   1307.5990  18.8168     4935.136    133.4513  29.25     1.825     1.703   0.0139        426     63.08009
 4.29    915.4589  19.4147     2845.305    936.3211  82.71     2.810     2.016   0.0400        427     104.7263
 3.50   1348.5779  23.4384     69.92725    206.7708  18.76     0.723     0.460   0.3360        428     21.63629
 7.26   1376.2065  22.1701     224.8882    522.3862 -33.82     0.717     0.647   0.2466        429     51.07003
 4.62    921.2342  21.8161     311.5828    225.2704  21.61     0.965     0.827   0.1481        430     42.49284
 5.28   1376.1886  20.8510     757.8634    568.6592  33.54     2.026     1.514   0.1359        431     94.84075
 6.10   1381.5914  22.1475     229.6097    940.4048 -46.23     1.020     0.859   0.2803        432     59.25343
 6.56   1369.0570  22.4789     169.2161   1364.4938 -89.04     0.792     0.500   0.2727        433     42.49284
 4.10    922.6752  20.0330     1609.926    506.2149  46.75     1.555     1.449   0.0420        434     62.27989
 3.50   1366.7965  17.2860      20211.1   1439.1449 -11.98     2.141     2.043   0.0041        435     75.39513
 5.88    938.3269  22.1447     230.2083    622.8256 -57.53     1.405     1.162   0.3670        436     77.79616
 7.13   1371.5240  22.1206     235.3717   1047.5117  18.94     0.993     0.403   0.2151        437     46.62035
 5.82    928.0559  21.6268     370.9354    856.1138 -80.37     1.242     1.086   0.2032        438     69.39051
 4.16   1364.6201  21.0881     609.2031   1493.9623 -78.33     1.247     1.131   0.0905        439     50.74161
 3.50    919.0305  16.0348     63985.78    620.1516 -59.56     2.179     2.107   0.0013        440     77.14874
 3.88   1361.1562  20.9483     692.8857    521.5701 -66.89     1.373     1.303   0.0836        441     53.31241
 5.20   1364.8397  21.4158     450.4729   1175.5447   6.53     1.536     1.137   0.1690        442      70.1096
 5.62    929.1722  21.7799     322.1294    112.3968  11.58     1.347     0.695   0.1860        443     55.16194
 5.51    926.3683  22.5221     162.6157    693.5194 -20.12     0.930     0.828   0.3299        444     49.40607
 3.50   1350.0790  20.2918     1268.434   1493.9451  55.23     1.524     1.486   0.0467        445      54.5524
 4.30    934.1721  22.5460     159.0784   1019.4662  14.71     1.063     0.717   0.2589        446     37.91867
 6.19    932.8015  22.4786     169.2682    530.5983  71.19     0.752     0.450   0.2376        447     37.02634
 3.50   1311.8887  20.8996     724.7185   1231.8870 -35.25     1.778     1.456   0.0858        448     57.24426
 3.50   1244.0924  15.8823     73637.27    570.3313 -22.79     2.337     2.254   0.0012        449      81.9817
 4.13    931.8657  18.6964     5513.545    944.4788 -76.67     4.628     2.472   0.0283        450     143.5189
 4.54   1306.2303  20.7666     819.1442    724.1013 -72.57     2.117     1.572   0.1132        451     85.37822
 6.86   1331.9374  23.7482     52.56885   1453.0000  90.00     0.842     0.289   0.6651        452     32.19584
 5.99   1301.7611  20.7346     843.6444    942.3810  28.47     1.510     1.278   0.1104        453     85.76897
 4.45    934.9901  23.0009     104.6265    803.1639  33.05     0.809     0.504   0.3061        454      29.4853
 3.50   1248.2002  17.9592      10872.2     37.7628  78.36     1.959     1.901   0.0069        455     68.90695
 4.40   1325.2061  21.1087     597.7419   1202.4988 -15.09     1.226     1.129   0.0957        456     52.68147
 6.10   1326.3965  22.4871     167.9471    702.1823  18.69     0.766     0.447   0.2394        457     37.02634
 7.97   1329.9893  23.6732     56.32788    775.4835 -57.84     0.795     0.313   0.8039        458     41.69851
 5.15   1275.7538  21.7550     329.5964    942.2804  43.18     1.311     0.668   0.1628        459     49.40607
 6.21   1310.4795  22.8190      123.704   1420.0291  -1.59     0.807     0.499   0.3480        460     39.64312
 3.50   1311.4575  15.3758     117401.5    923.7183 -45.83     2.407     2.300   0.0008        461     84.19509
 6.65   1303.5713  22.2395     210.9629    953.4283  26.52     1.155     0.851   0.3484        462     67.68293
 6.41   1258.7173  21.3775     466.6696    468.3109  39.53     1.124     0.878   0.1522        463       65.422
 6.23   1300.9634  22.2585     207.2991   1554.5389 -29.37     1.254     0.624   0.3014        464     57.53558
 5.45    972.1663  21.3861       462.99   1261.3557 -36.21     1.343     0.829   0.1370        465     58.40082
 5.05   1253.9293  24.0814     38.67664    805.5657 -58.58     0.807     0.307   0.6889        466     24.53325
 3.66   1277.4868  19.0496     3982.658    260.6229   5.60     1.835     1.750   0.0183        467     67.18707
 4.50   1270.3066  21.4282     445.3617    755.5483  -5.90     1.289     1.151   0.1367        468     56.06383
 8.69   1255.3307  22.2511      208.713   1207.6758  45.29     0.572     0.336   0.2063        469     39.64312
 6.41    974.6508  21.8982      288.884   1167.7118  71.62     1.331     0.927   0.2732        470     72.68543
 4.16   1278.8495  20.1470     1449.443   1141.6589 -37.54     1.558     1.437   0.0471        471      62.8145
 3.77   1275.0731  19.6962     2195.387    569.6889  32.25     1.751     1.563   0.0315        472     63.60797
 6.66   1252.0199  20.9050     721.1113   1423.5256 -27.29     1.501     1.105   0.1309        473     86.93068
 7.47   1268.5126  21.2636     518.2773   1312.4094  26.43     1.161     0.885   0.1621        474     77.36515
 3.50   1251.1924  18.9314     4440.656    492.3547  12.21     1.768     1.718   0.0154        475      62.8145
 6.54    967.3333  23.1589      90.4585    476.6846  45.86     0.569     0.337   0.3607        476     30.04697
 4.17   1267.2521  20.7081     864.4529   1407.9072 -16.65     1.530     1.278   0.0762        477     60.64782
 4.86   1260.9121  21.4418     439.8258   1422.5894 -75.42     1.349     1.057   0.1470        478     59.53492
 3.59   1234.7123  20.8629     749.5911    711.5583  59.52     1.625     1.345   0.0795        479     54.85802
 3.50   1238.3600  18.8170     4934.035   1246.0221 -14.32     1.855     1.784   0.0143        480     65.16595
 3.50    936.5521  18.8688     4704.219    842.1199  74.45     1.720     1.673   0.0139        481     60.37152
 3.74   1241.5107  19.4932     2646.788    865.0555  66.92     1.791     1.630   0.0269        482     65.67706
 3.50   1228.7976  17.1319     23294.04   1333.7159 -77.34     2.063     2.021   0.0034        483     73.59975
 4.52   1178.4353  19.9196     1787.142   1464.3932  -0.53     3.511     1.725   0.0696        484     114.4885
 6.56   1232.8136  22.0130     259.8857   1542.4172 -40.92     1.187     1.079   0.3169        485     75.83734
 3.50   1236.9219  18.1375     9225.662    384.1447 -87.38     1.968     1.917   0.0081        486     69.14915
 3.50    943.6912  24.7753     20.41162    869.3198  44.41     0.561     0.342   0.7536        487     14.16428
 3.50   1213.9702  14.9625     171789.9   1194.7819 -41.78     2.461     2.334   0.0005        488     86.15794
 5.99   1234.2408  21.8793     293.9659   1465.8170  18.76     1.092     0.905   0.2261        489     61.19668
 3.50   1228.7915  18.9036      4555.88    319.0116  26.13     1.803     1.719   0.0152        490     63.87027
 8.74    958.4910  22.6053     150.6237   1350.4940 -44.86     0.504     0.495   0.3229        491     44.79139
 6.31   1128.9634  22.3498     190.5747   1354.0076 -43.37     0.916     0.531   0.2574        492     45.16311
 8.03   1219.7965  22.1742     224.0393    904.7841  44.69     0.931     0.457   0.2629        493     54.24506
 3.50   1205.4482  21.1720        563.9    117.0941  22.46     1.346     1.253   0.0884        494     45.89751
 5.19   1208.4337  21.1737     563.0173    490.4267  87.59     2.133     1.345   0.1742        495     90.32621
 4.62   1224.3573  20.8772     739.7811    425.1234   5.03     1.454     1.301   0.0964        496     65.67706
 5.35    974.3796  22.3640     188.1091    282.6032   0.53     0.960     0.681   0.2564        497     44.41655
 5.18   1212.8921  21.7550     329.6068   1112.3815  56.57     1.345     0.839   0.1837        498     55.76482
 7.10   1188.6272  20.7896     801.9661    585.7938  52.61     2.463     1.577   0.1939        499      143.169
 6.07   1199.9415  22.1666     225.6099    834.9534  46.02     0.909     0.534   0.2083        500     43.27259
 3.50   1193.6270  17.3338     19341.83   1031.1660 -11.24     2.067     2.036   0.0041        501     73.59975
 7.84   1198.4917  21.7917     318.6403    463.5009 -18.77     0.959     0.416   0.1763        502     51.72063
 0.00   1022.6279  99.0000   -0.6533203    396.6944 -47.69     0.581     0.330  99.0000        503     26.49894
 4.22   1203.2529  20.9374     699.9235   1349.7855 -12.43     1.353     1.299   0.0888        504     57.24426
 3.50    942.4642  16.6181     37390.26    689.6323  32.22     2.533     2.047   0.0024        505      81.7775
 7.41    971.1232  22.5589     157.1896    130.4357 -61.39     1.065     0.702   0.4607        506     66.68754
 6.26   1188.7766  20.6978     872.6919   1456.8196  24.64     2.192     1.385   0.1395        507     112.1277
 3.50   1178.9105  18.8802     4654.817      6.1461  48.76     1.720     1.691   0.0142        508     60.92287
 3.81   1040.5870  19.8931     1831.364     23.0064 -43.65     1.603     1.515   0.0360        509     60.64782
 3.50   1160.0333  22.0696     246.6959   1196.0551 -38.92     1.151     0.983   0.1630        510     37.02634
 4.76   1185.4515  21.0085     655.5579    284.1159  34.06     1.307     1.197   0.1018        511     61.46927
 3.50   1153.9246  18.5336     6405.817    195.1328 -89.96     1.798     1.764   0.0108        512     63.60797
 6.85   1175.1505  21.5478     398.9271   1044.8020   1.74     1.543     0.850   0.2170        513     79.70686
 3.83   1040.1049  19.5264     2566.975   1084.2731  18.06     1.590     1.502   0.0254        514     60.09395
 0.00   1172.9836  99.0000    -1.238159    848.0000  90.00     0.830     0.289  99.0000        515     30.59834
 5.70   1146.8975  21.9919     264.9873    390.9275  63.42     1.197     0.942   0.2530        516     61.74066
 3.50   1042.6750  18.7661     5171.058    424.1342 -27.61     1.907     1.706   0.0135        517     64.39167
 3.92   1027.2858  18.4349     7015.396    607.5982  -0.54     2.937     2.334   0.0162        518     104.8858
 3.51   1139.1234  21.8753     295.0494    312.2096  46.20     1.224     1.071   0.1505        519     40.88875
 3.50   1123.6833  21.4278     445.5338    767.2013  55.10     1.273     1.129   0.1036        520     42.49284
 6.78   1167.6044  22.2057     217.6288    432.6160 -31.44     1.285     0.777   0.3439        521     68.90695
 8.08   1150.4957  23.0478     100.2045    484.0085 -32.41     0.788     0.317   0.4519        522     41.69851
 8.22   1141.5033  22.6018     151.1089    430.0066 -32.03     0.799     0.313   0.2997        523     41.69851
 3.50   1130.1757  16.8352     30614.22    620.7014 -31.00     2.285     2.082   0.0028        524     79.07508
 3.50   1125.2101  18.5358     6392.475     68.9930  52.07     5.415     2.742   0.0235        525     138.1774
 4.39   1132.3076  22.5800      154.172    292.9208 -10.90     0.738     0.664   0.2268        526     32.19584
 5.88   1078.0590  21.4332     443.3391    856.2999 -83.86     1.492     1.167   0.1958        527     79.91633
 4.42   1074.3591  20.0828     1537.698    142.3772  28.88     2.176     1.744   0.0625        528     88.45589
 5.76   1049.9124  21.1766     561.5292    312.5385  88.08     1.588     1.260   0.1628        529     84.19509
 6.45   1113.2792  22.5739     155.0322    602.0090  -4.38     0.729     0.673   0.3241        530     46.26034
 3.50   1015.5732  21.9901     265.4333    821.2109 -51.95     0.976     0.940   0.1400        531     34.20998
 3.50   1110.8773  19.1587     3601.961   1267.7404  56.34     1.736     1.704   0.0185        532     61.46927
 5.50   1049.1709  22.3479     190.9144    226.7189 -59.01     1.401     1.077   0.3961        533     69.63103
 4.66   1100.0394  20.5979     956.8081   1452.0444 -78.85     1.388     1.168   0.0698        534     61.46927
 3.50   1094.7350  18.0781     9744.252     15.9221 -65.02     1.808     1.768   0.0072        535     64.39167
 6.73   1064.2007  21.8524     301.3251    531.8288   7.78     1.540     0.811   0.2796        536     77.58096
 4.64   1059.7367  21.6991     347.0336    958.4913  19.81     1.245     1.140   0.1782        537     56.95144
 3.54   1081.6238  22.1354     232.1891    306.5401  16.03     0.965     0.794   0.1506        538     32.19584
 6.22   1079.7250  23.0387     101.0464   1051.5647 -80.02     1.009     0.471   0.4774        539     44.41655
 4.90   1084.5737  21.9412      277.663    386.4814   0.40     1.334     1.222   0.2478        540     63.34458
 6.78   1080.8109  22.6853     139.9156    704.9886  37.14     0.943     0.468   0.3562        541     45.89751
 7.37   1053.6665  22.7221     135.2603   1403.6602 -44.74     0.580     0.332   0.2543        542     31.67229
 6.74   1081.5771  22.0684     246.9609   1122.1453 -25.85     1.191     1.044   0.3373        543      76.7141
 3.50   1090.1770  18.3231     7775.917    792.3015  63.20     1.883     1.847   0.0093        544     66.68754
 7.02   1091.0970  22.4621     171.8572   1428.7511  -9.67     1.161     0.723   0.4198        545     66.43636
 5.39   1093.0427  23.2615     82.29944    676.9826 -59.68     0.804     0.781   0.5861        546     44.41655
 7.22   1078.6747  23.8000     50.12061    911.2928  46.86     0.556     0.343   0.6747        547     31.13995
 3.50   1069.8640  20.1928     1389.603     62.4995  -6.69     1.637     1.484   0.0443        548     56.65712
 4.04   1030.6969  21.3840     463.8771    848.0089 -75.49     1.870     1.176   0.1420        549     60.64782
 6.53   1069.3798  21.8779     294.3326   1185.4484  69.10     1.737     0.719   0.2765        550     74.95032
 3.50   1057.6855  18.2635     8214.828    239.4490  84.41     1.867     1.816   0.0087        551     65.93113
 3.63   1063.6155  20.6334     926.1005    862.4768 -21.97     1.831     1.466   0.0698        552     59.53492
 4.57   1062.9104  22.4678     170.9612   1335.6189  14.61     1.008     0.727   0.2571        553      40.4778
 3.50   1011.1583  20.4810      1065.66    374.5453 -25.62     1.452     1.381   0.0517        554     50.74161
 4.31   1047.3929  18.5052     6575.245   1382.6086 -68.67     3.761     2.809   0.0238        555     143.9842
 4.70   1053.7889  21.6037     378.9087   1320.4387  85.32     1.709     1.055   0.1860        556     64.90888
 3.84   1006.3179  19.2525     3303.787   1353.1570   4.46     1.708     1.638   0.0216        557     65.67706
 8.49   1063.1918  22.4471     174.2441    934.9999 -59.55     0.821     0.507   0.3531        558     56.65712
 3.56   1030.4066  19.5781     2447.603    766.0451 -56.04     1.688     1.629   0.0267        559     60.09395
 3.50   1036.8479  20.1036     1508.521    207.8894  43.17     1.552     1.414   0.0384        560     53.31241
 3.69   1020.0496  20.1740     1413.818    502.3459 -20.93     1.648     1.467   0.0457        561     59.53492
 6.88   1035.4869  21.3913     460.7706    622.2975 -66.71     0.932     0.821   0.1449        562     61.46927
 6.81   1029.6265  22.5206     162.8341   1367.2620 -16.37     0.721     0.458   0.2644        563     39.64312
 3.50   1021.1165  18.7492     5251.903    106.2325  40.85     1.782     1.715   0.0130        564     63.08009
 4.04   1029.1187  19.8655     1878.453    310.2960  12.18     1.667     1.531   0.0381        565     65.93113
 0.00   1009.3348  99.0000    -84.34607    219.6961  46.57     0.565     0.339  99.0000        566       32.711
 5.23   1008.8175  23.1316     92.76367    186.4417  40.28     1.058     0.713   0.5458        567     46.62035
 3.50   1001.1121  17.0419      25306.5    997.8738  72.15     2.031     2.012   0.0031        568     72.22394
 7.40   1002.5422  23.0134     103.4242    291.9825 -63.87     1.043     0.663   0.6568        569     62.54776
 4.89    999.2411  21.3323     486.4867   1446.3911  18.60     1.237     1.138   0.1335        570     59.81509
 3.50    995.0240  18.1964     8738.477    144.7581  70.78     1.800     1.739   0.0079        571     63.87027
 6.78    992.0427  22.0139      259.678   1077.4990  29.63     0.991     0.667   0.2369        572     56.65712
 3.50    986.8708  20.3753     1174.623    729.9510 -35.59     1.513     1.406   0.0487        573     52.68147
