#   1 KRON_RADIUS            Kron apertures in units of A or B                         
#   2 MAGERR_APER            RMS error vector for fixed aperture mag.                   [mag]
#   3 Y_IMAGE                Object position along y                                    [pixel]
#   4 X_IMAGE                Object position along x                                    [pixel]
#   5 THETA_IMAGE            Position angle (CCW/x)                                     [deg]
#   6 FLUX_APER              Flux vector within fixed circular aperture(s)              [count]
#   7 A_IMAGE                Profile RMS along major axis                               [pixel]
#   8 B_IMAGE                Profile RMS along minor axis                               [pixel]
#   9 FLUX_RADIUS            Fraction-of-light radii                                    [pixel]
#  10 FLUXERR_APER           RMS error vector for aperture flux(es)                     [count]
#  11 MAG_APER               Fixed aperture magnitude vector                            [mag]
#  12 NUMBER                 Running object number                                     
 4.76   0.0057     53.0736     63.6999   5.51     26274.97     3.988     3.644     13.562     137.3752  17.0011          1
 4.66   0.0355     16.6918    984.9968 -88.02     4203.811     2.956     1.596      9.197      137.453  18.9909          2
 4.55   0.0423     17.7495     91.2424 -79.59     3528.594     1.576     1.521      4.939     137.5308  19.1810          3
 3.71   0.0162     14.6941   1445.5286 -33.38     9223.288     1.861     1.820      4.752     137.4374  18.1378          4
 6.47   0.2527     24.7442    367.1736  67.11     591.0723     1.088     0.513      3.347     137.5464  21.1209          5
 3.50   0.0035     59.7851   1078.2341  63.34     42341.57     2.315     2.253      5.239     137.5308  16.4831          6
 3.50   0.0037     80.1138    537.5025  22.52     40645.21     2.275     2.216      5.067     137.3596  16.5275          7
 3.50   0.0002    182.1499   1107.1932 -21.30     931965.4     4.588     4.274      8.534     137.5775  13.1265          8
 5.82   0.0977     74.8997    127.8917  41.44     1526.682     1.288     1.149      4.717      137.344  20.0906          9
 3.50   0.0025    121.7268    788.9882 -20.11     60796.62     2.363     2.344      5.235      137.593  16.0903         10
 5.06   0.0702     96.3947     55.8320 -19.57     2128.877     1.350     1.259      5.276     137.5464  19.7296         11
 3.50   0.0006    193.4290    317.9678 -41.29     259006.4     2.705     2.621      5.496     137.5464  14.5167         12
 3.50   0.0044    162.3457   1468.0752 -45.67     34028.66     2.232     2.175      5.068      137.453  16.7204         13
 3.57   0.0192    170.2823    877.1946 -21.20      7774.16     1.992     1.867      4.925     137.5153  18.3234         14
 6.54   0.1098    170.8250    325.2957 -40.33     1360.107     0.965     0.838      5.128     137.4686  20.2161         15
 5.02   0.0062    234.6016    403.6657 -33.42     23915.58     5.167     4.116     17.568      137.593  17.1033         16
 6.84   0.1832    192.4389   1350.2408 -25.96     815.2567     0.910     0.766      4.038     137.5619  20.7718         17
 6.98   0.0447    210.5078    826.8778  -8.98     3338.153     2.130     1.475     10.605     137.4219  19.2412         18
 5.91   0.0919    206.2398    548.8522 -12.23     1625.306     1.229     1.170      5.432     137.5308  20.0227         19
 5.27   0.1000    212.1731   1305.9985  33.21     1493.992     1.288     1.084      3.816     137.4997  20.1141         20
 8.84   0.1593    209.5003    348.5010  45.08     936.1816     0.500     0.500      3.001      137.344  20.6216         21
 4.19   0.0906    223.6748   1225.5409  21.43     1648.113     1.361     1.283      3.935     137.4686  20.0075         22
 3.50   0.0013    259.5799    997.2325 -12.04     114279.5     2.518     2.449      5.335     137.5308  15.4051         23
 7.91   0.0552    229.2366    561.4113  -5.39     2708.258     1.962     1.282      9.655     137.5464  19.4683         24
 7.59   0.4020    222.3091    774.6770  44.27     371.2159     0.562     0.341      2.724     137.4219  21.6259         25
 3.50   0.0019    265.5647     67.4432  10.39     77600.09     2.437     2.395      5.286     137.5775  15.8253         26
 7.60   0.1150    243.6204    112.7716  16.62     1298.937     0.964     0.645      4.719     137.5308  20.2660         27
 5.19   0.0460    255.0401    612.7058 -17.92     3246.099     2.021     1.620      6.653     137.3752  19.2716         28
 3.50   0.0005    312.1774    439.1657 -13.83     316350.7     2.766     2.661      5.574     137.5308  14.2996         29
 3.63   0.0084    287.4764   1486.1249 -43.80     17813.73     2.048     2.043      4.889     137.4374  17.4231         30
 4.46   0.0402    281.9365   1522.0271  12.37     3715.936     1.606     1.534      4.981     137.5308  19.1248         31
 3.50   0.0028    318.4750    905.3110 -23.49     53587.73     2.384     2.325      5.259     137.3907  16.2273         32
 3.72   0.0111    302.8204    201.5913 -11.79     13450.88     2.036     1.963      4.974     137.4686  17.7281         33
 6.43   0.0907    289.4337    514.9032  21.77     1644.642     1.280     1.109      5.178     137.4063  20.0098         34
 4.69   0.1015    293.8911   1327.2559  -8.13     1470.233     1.331     1.133      4.894     137.4374  20.1315         35
 3.50   0.0005    351.2150    890.6105 -20.64     279638.1     2.679     2.619      5.495     137.4841  14.4335         36
 3.50   0.0006    351.3136   1345.6615 -16.35     269581.8     2.678     2.609      5.485     137.4374  14.4733         37
 3.50   0.0172    321.7043    697.1205  -1.34     8668.585     1.980     1.792      4.736     137.3907  18.2051         38
 6.73   0.0933    327.1209    595.3190  77.27     1600.545     1.190     1.017      6.333     137.4374  20.0393         39
 4.94   0.0241    346.1332    866.8626  -2.58     6198.514     1.804     1.786      6.557      137.453  18.5693         40
 4.66   0.0309    355.4992    431.5913 -85.48     4824.558     1.980     1.746      5.745      137.453  18.8414         41
 3.92   0.0163    367.8107    760.9424 -23.24     9151.781     1.949     1.894      4.982     137.5775  18.1462         42
 7.95   0.1525    349.6844     54.8306 -29.57     979.2401     0.861     0.613      5.163     137.5153  20.5728         43
 4.89   0.0978    360.8478   1500.0731  49.68     1525.569     1.286     1.166      4.008      137.453  20.0914         44
 3.99   0.0455    367.0157    442.6554  -4.74     3285.135     1.629     1.481      4.520     137.5619  19.2586         45
 3.50   0.0033    394.8368    231.2965  41.81     44772.21     2.343     2.277      5.231     137.3907  16.4225         46
 3.90   0.0249    396.8571   1460.8850  14.04     5993.236     1.841     1.731      4.529     137.4219  18.6058         47
 3.60   0.0212    397.8311    354.3651  44.80     7033.842     1.883     1.750      4.722     137.5308  18.4320         48
 3.50   0.0036    419.2020    433.1641  22.31     41126.96     2.328     2.295      5.299     137.4997  16.5147         49
 5.36   0.1123    393.6920   1088.5493  89.56     1328.835     1.201     1.013      4.243      137.453  20.2413         50
 3.50   0.0075    415.3564    837.2811   8.63     19819.69     2.140     2.089      5.072      137.453  17.3073         51
 4.35   0.0453    424.0066    926.2327 -43.07     3295.017     1.595     1.518      4.490     137.5308  19.2554         52
 3.57   0.0101    437.5113    251.9212  10.66     14821.98     2.048     2.002      5.008     137.4219  17.6227         53
 3.50   0.0012    460.6612    807.4064  -9.60     127282.6     2.537     2.441      5.343     137.6086  15.2881         54
 7.43   0.1631    420.7388    160.2448 -19.02     915.7453     0.875     0.354      3.026     137.5153  20.6456         55
 5.16   0.1243    432.4912   1422.0449  46.46     1200.728     1.374     1.035      5.125     137.4219  20.3514         56
 4.26   0.0322    449.7295     21.2905 -30.46     4635.906     1.732     1.698      5.174     137.4219  18.8847         57
 7.75   0.2459    440.0000    306.0034   0.00     607.2413     0.851     0.289      2.426     137.5153  21.0916         58
 4.30   0.0292    457.3224     34.5136  41.77     5101.153     1.728     1.708      5.006     137.3907  18.7808         59
 6.50   0.1909    444.0941    122.7514 -35.96     781.5682     1.097     0.521      3.381     137.4063  20.8176         60
 6.49   0.0377    467.3463    850.1621  24.15     3963.932     4.170     1.534     17.279     137.5153  19.0547         61
 6.06   0.0797    463.3726    468.1671  79.66     1873.653     1.361     1.210      6.039     137.5308  19.8683         62
 5.00   0.0725    471.6059    735.0529 -58.33     2061.406     1.408     1.302      4.508     137.6397  19.7646         63
 5.16   0.1117    470.9095    254.1994  49.02      1336.75     1.312     1.019      4.671     137.4686  20.2349         64
 5.12   0.0531    477.5139    922.9161  -6.91     2808.926     1.588     1.406      5.268     137.4219  19.4286         65
 6.22   0.1961    477.5089   1276.5143 -73.41     760.8177     1.022     0.733      3.741     137.3907  20.8468         66
 6.30   0.1324    483.7006   1070.2640  14.36     1127.587     1.125     0.992      5.774      137.453  20.4196         67
 7.68   0.0908    495.1989     82.1739  72.36     1644.945     1.283     0.950      6.932     137.4997  20.0096         68
 8.53   0.0977    494.4341   1189.1519  78.86     1528.377     0.889     0.613      4.816     137.5464  20.0894         69
 3.77   0.0135    512.1891   1302.6895   2.77     11085.85     2.605     1.838      6.106     137.4997  17.9381         70
 5.35   0.0112    532.4780    518.7072  42.64     13354.92     3.332     2.704     12.316     137.4374  17.7359         71
 6.37   0.2502    501.2008    863.6277 -73.06     596.7712     0.729     0.454      2.563     137.4841  21.1105         72
 6.88   0.0662    514.8291   1460.6050  23.71     2255.407     2.174     1.173     10.934     137.5308  19.6669         73
 9.16   0.1863    513.5114   1178.5463 -51.67     801.0387     0.503     0.494      3.019     137.4374  20.7909         74
 4.72   0.1102    539.8799    999.7950  63.00     1355.025     1.209     1.168      4.223     137.4997  20.2201         75
 3.50   0.0005    587.6208   1315.8385  12.88     291251.8     2.657     2.602      5.444     137.5464  14.3893         76
 5.39   0.0702    558.6192   1041.6226 -49.65     2127.458     1.473     1.301      4.761     137.5464  19.7303         77
 4.09   0.0236    572.2031   1242.7196  38.49     6341.412     1.751     1.723      4.768     137.5308  18.5445         78
 3.96   0.0170    580.0729    144.9288  70.17     8763.667     1.890     1.825      5.005     137.3907  18.1933         79
 3.50   0.0003    630.7131    483.2363  13.54     517873.1     2.827     2.779      5.612     137.4997  13.7644         80
 4.16   0.0172    581.5784    319.2341  61.20     8665.426     1.927     1.876      5.254     137.5464  18.2055         81
 6.89   0.0999    570.7512     45.9504  48.62     1495.768     1.416     1.002      7.590     137.5775  20.1128         82
 6.29   0.1339    573.8788   1337.0791 -66.01     1114.648     1.088     0.942      4.583      137.453  20.4322         83
 9.08   0.0937    570.5884   1447.2085 -20.04     1592.723     0.773     0.441      4.638      137.453  20.0446         84
 6.23   0.0352    596.4893    782.4854  81.04     4243.383     2.181     1.973      9.457     137.4219  18.9807         85
 6.19   0.1533   1001.0735   1555.3445  15.77      973.367     1.037     0.745      4.132     137.4374  20.5793         86
 8.06   0.1544    928.0015   1322.3193 -89.58     967.2603     0.751     0.672      4.203     137.5308  20.5861         87
 7.50   0.1857    912.4890    838.6716 -89.47     803.6395     0.940     0.470      3.993     137.4374  20.7873         88
 4.02   0.0256    899.8826    302.7993  34.45     5841.415     1.810     1.755      4.922     137.5153  18.6337         89
 3.50   0.0002    881.5768    183.9508 -13.91     930365.8     2.956     2.893      5.691     137.5775  13.1284         90
 6.18   0.1424    896.3508    538.8231 -43.55     1048.881     1.212     0.849      4.082     137.5775  20.4982         91
 3.50   0.0015    880.0118   1592.4092  59.51     102039.7     2.485     2.419      5.373      137.453  15.5281         92
 6.68   0.0370    879.3483    224.1944  85.96     4044.085     4.026     1.518     13.722     137.6086  19.0329         93
 5.78   0.0601    869.0080   1103.1798 -34.02     2484.437     1.486     1.474      6.515     137.4841  19.5619         94
 3.50   0.0006    858.9609   1224.4232  23.63     255011.9     2.690     2.654      5.523     137.5464  14.5336         95
 8.57   0.1218    877.2705   1176.7744 -72.54     1226.752     0.835     0.351      3.658     137.5308  20.3281         96
 7.91   0.1478    859.0000   1156.5350   0.00     1010.931     1.161     0.289      3.332     137.6086  20.5382         97
 7.26   0.1488    843.1048   1106.8746 -75.24     1003.179     0.978     0.710      4.535     137.4219  20.5466         98
 7.07   0.0792    837.5580   1247.4752   2.17     1884.212     1.388     1.075      6.648     137.4841  19.8622         99
 6.16   0.0973    836.2336    298.4433 -87.05     1535.397     1.215     1.019      5.422     137.5775  20.0844        100
 3.78   0.0254    822.4514    654.3923  62.24     5888.814     1.906     1.701      4.784      137.593  18.6249        101
 4.40   0.0279    802.7780   1378.5226 -60.86     5344.586     1.725     1.703      5.243     137.5308  18.7302        102
 3.81   0.0097    798.0674    695.6057  88.39     15408.12     2.555     2.010      5.833      137.593  17.5806        103
 4.84   0.0593    799.9536     41.0705  76.53     2518.972     1.478     1.354      4.806     137.4841  19.5469        104
 6.63   0.0642    774.1362   1427.0630 -85.17      2324.73     1.892     1.255      7.695     137.4686  19.6341        105
 5.64   0.1204    766.1399    391.8227  50.41     1240.493     1.264     1.061      4.671     137.5619  20.3160        106
 5.48   0.1101    742.3915    556.7040  78.10     1356.073     1.277     1.149      4.190     137.4841  20.2193        107
 3.50   0.0004    723.6109    404.8487  -7.98       355329     2.737     2.702      5.502     137.5775  14.1734        108
 3.50   0.0024    726.2004    848.3845   5.24     60960.55     2.389     2.348      5.286     137.4841  16.0874        109
 5.99   0.1634    726.7936   1178.3159  -8.79     913.7961     0.905     0.765      3.287     137.4997  20.6479        110
 5.37   0.1373    715.3687    808.1308 -14.17     1087.856     1.204     0.957      3.430     137.5153  20.4586        111
 5.12   0.1382    708.2617   1163.7617  76.32     1080.746     1.319     1.038      4.958     137.5153  20.4657        112
 7.48   0.0974    703.4436   1338.5859  50.36     1533.599     1.193     0.802      5.966     137.5308  20.0857        113
 4.41   0.0660    702.1777    952.2957 -57.06     2262.628     1.516     1.368      4.385     137.4841  19.6635        114
 5.73   0.0751    685.3104    644.2101 -60.68     1987.028     1.360     1.290      6.039     137.4997  19.8045        115
 7.44   0.0892    680.8766    543.4276 -43.60     1673.211     1.427     0.901      7.487     137.4997  19.9911        116
 3.50   0.0025    648.0181   1464.2283  13.82     60036.69     2.374     2.349      5.282     137.5153  16.1040        117
 5.22   0.1021   1569.9100     92.4346 -54.30     1461.851     1.158     1.035      3.979      137.453  20.1377        118
 4.14   0.0155    639.2830    536.7927  -3.16     9618.417     1.966     1.893      5.630     137.4997  18.0922        119
 5.14   0.1669    623.0889   1581.3657 -33.27     894.7136     1.048     0.838      3.750     137.4841  20.6708        120
 6.30   0.1598    604.9369    586.3323 -13.78     934.2325     1.013     0.756      3.949      137.453  20.6239        121
 4.60   0.1703   1584.5095   1108.9586   4.37     876.4873     1.145     0.966      2.915      137.453  20.6931        122
 5.20   0.0718   1542.0271    654.5812 -83.10     2080.708     1.471     1.249      5.214     137.5308  19.7545        123
 3.50   0.0028   1563.1943    304.0779  33.95      53643.1     2.267     2.215      4.983     137.5153  16.2262        124
 4.98   0.0789   1565.9387     21.8800  79.20     1890.804     1.343     1.153      4.373     137.4219  19.8584        125
 5.93   0.1943   1560.3761    861.1697 -67.44     768.3383     0.918     0.685      3.380     137.4841  20.8361        126
 3.50   0.0028   1557.4879    487.5964 -65.71     53067.08     2.294     2.287      5.134     137.4841  16.2379        127
 7.68   0.1030   1565.7225    784.5153 -18.36     1449.607     1.194     0.861      5.958     137.4219  20.1469        128
 3.59   0.0109    929.3309   1178.3392  65.57     13751.17     2.089     2.039      5.026      137.453  17.7041        129
 4.54   0.0094   1552.2527    682.1414 -13.12     15799.87     3.556     3.280     11.283     137.4841  17.5534        130
 4.19   0.0491   1541.2693    135.0337  18.48     3042.756     1.541     1.467      4.504     137.5308  19.3418        131
 6.05   0.2276   1503.8435    723.1686 -42.66     656.4067     0.761     0.566      2.643     137.5775  21.0071        132
 3.50   0.0052   1506.6525    269.2638   7.18     28548.22     2.182     2.111      4.953     137.4686  16.9111        133
 8.47   0.0913    986.5678    453.7992  -8.77     1636.101     1.032     0.475      5.039     137.5153  20.0155        134
 4.00   0.0209   1514.2882    392.6559 -58.37     7126.267     1.812     1.777      5.013     137.4374  18.4178        135
 5.03   0.0912    938.8495   1066.8735 -33.34     1636.144     1.334     1.209      4.425     137.4219  20.0154        136
 7.70   0.1743    999.8006   1273.5909  70.88     856.2789     0.762     0.448      3.587      137.453  20.7185        137
 3.61   0.0056    984.3760    558.4080  38.30     26580.27     2.251     2.207      5.314     137.5153  16.9886        138
 7.90   0.0970   1029.7847    302.2120  10.78     1539.184     1.134     1.000      6.557     137.4997  20.0818        139
 3.58   0.0055   1094.6384    778.1648  69.19     26953.32     2.275     2.184      5.257     137.5464  16.9735        140
 3.53   0.0050   1079.4926    512.2214  54.14     30050.71     2.274     2.244      5.282     137.4686  16.8554        141
 4.19   0.0240   1107.0248    428.0919  60.25     6210.312     1.941     1.743      5.293     137.4686  18.5672        142
 3.80   0.0154   1104.1162    751.8383  -5.00     9693.078     2.060     1.964      5.154     137.4997  18.0838        143
 6.96   0.0684   1119.7220    329.5727  63.96     2181.568     1.765     1.199      9.060     137.4997  19.7031        144
 5.06   0.0724   1407.5315    308.2361 -44.22      2061.67     1.439     1.279      4.250     137.5308  19.7645        145
 8.97   0.1245   1109.7917    478.5934  71.14     1198.889     0.771     0.447      4.518     137.4841  20.3531        146
 4.15   0.0492   1434.7892    224.7439  46.04     3034.955     1.583     1.494      4.523     137.5775  19.3446        147
 3.50   0.0012   1433.9342   1090.2458  30.52     128442.5     2.488     2.469      5.304     137.4997  15.2782        148
 6.44   0.0257   1356.6797   1135.6938  36.20     5798.289     3.580     2.833     16.472     137.4063  18.6418        149
 3.71   0.0092   1418.8335   1126.1434  84.99     16224.67     2.156     2.041      5.188     137.5464  17.5246        150
 4.17   0.0693   1439.2010    619.2320   9.88     2154.433     1.402     1.321      4.193     137.4997  19.7167        151
 3.92   0.0194   1372.0837   1018.8958  -9.03     7692.115     1.852     1.822      4.692      137.344  18.3349        152
 5.32   0.1000   1414.9160   1386.2550  60.07     1492.023     1.344     1.047      4.311     137.4374  20.1156        153
 4.03   0.0966   1391.7971   1038.7439  67.47     1547.514     1.304     1.098      4.063     137.6241  20.0759        154
 3.50   0.0021   1392.8529    114.4571  71.21     71920.06     2.415     2.367      5.309     137.4841  15.9079        155
 8.52   0.2403   1399.6058   1031.2242 -17.40     621.6316     0.766     0.452      3.527     137.5308  21.0662        156
 7.13   0.0457   1365.9126   1134.3555  45.43     3263.865     1.911     1.722     11.466      137.453  19.2657        157
 5.01   0.0635   1389.8397    713.2199  22.47     2353.765     1.507     1.263      4.441     137.5619  19.6206        158
 3.50   0.0002   1365.8357   1159.0712   2.32     703797.3     2.848     2.781      5.549     137.5308  13.4314        159
 4.01   0.0221   1388.3790   1428.3553  73.36     6771.767     1.895     1.769      5.029     137.5464  18.4732        160
 6.78   0.2082   1332.1637    107.1231 -44.81     717.2614     0.822     0.689      3.718     137.4841  20.9108        161
 7.61   0.2491   1292.9835    412.4896 -88.70     599.6915     0.796     0.500      3.283     137.5308  21.1052        162
 6.76   0.0838   1293.0438    742.0370 -32.95     1783.504     1.201     1.102      7.207     137.5775  19.9218        163
 6.59   0.0545   1307.5371   1035.8656 -22.46     2738.331     1.860     1.418      8.466     137.4374  19.4563        164
 8.86   0.1937   1304.5039    892.5345  49.53     770.8481     0.503     0.496      3.019     137.4686  20.8326        165
 3.61   0.0055   1319.6693    659.9656 -32.93     27002.83     2.227     2.193      5.175     137.5308  16.9715        166
 3.50   0.0009   1298.0555    724.8812   8.01     168693.2     2.619     2.570      5.460     137.4374  14.9823        167
 4.75   0.0436   1329.2986    656.0548 -75.48     3419.786     1.896     1.538      6.169     137.3907  19.2150        168
 8.95   0.1882   1318.5270    264.4885  41.74     792.7188     0.502     0.497      3.013     137.4063  20.8022        169
 4.80   0.0152   1272.3201    610.1558 -47.01     9793.199     3.322     2.306     10.077      137.453  18.0727        170
 5.32   0.0562   1307.1979    669.4045 -23.51     2657.065     1.607     1.459      5.720     137.4841  19.4890        171
 9.25   0.1281   1259.4890    431.9816  32.19     1165.636     0.794     0.314      3.927     137.4997  20.3836        172
 6.29   0.1159   1150.6633     99.5792  44.92      1289.34     1.036     0.885      4.047     137.5619  20.2741        173
 4.38   0.0242   1291.0667    761.9180 -41.16     6177.648     1.919     1.769      5.390     137.4219  18.5729        174
 4.25   0.0515   1264.9709    807.7477  59.90     2898.079     1.599     1.494      4.459     137.5619  19.3947        175
 3.53   0.0053   1138.0643    148.1477  46.91     28321.44     2.327     2.282      5.444     137.4686  16.9197        176
 4.22   0.0403   1277.7104   1331.2352  22.97     3708.374     1.680     1.563      4.360      137.453  19.1270        177
 4.36   0.0700   1233.8513    304.6225  36.17     2135.667     1.449     1.298      4.017     137.5775  19.7262        178
 4.43   0.0178   1209.7117   1278.6561 -85.99     8390.525     4.261     2.740     11.239     137.4374  18.2405        179
 3.50   0.0002   1151.3195    693.8876 -36.88     649604.8     2.880     2.833      5.680     137.4219  13.5184        180
 8.61   0.2299   1242.6707    672.6620 -44.63      649.322     0.578     0.333      3.035      137.453  21.0188        181
 3.50   0.0001   1221.1533    995.1743 -17.12      1093868     4.964     4.589      9.206     137.5775  12.9526        182
 3.54   0.0114   1214.2229    513.0850 -16.99     13105.64     2.066     1.985      4.983     137.4997  17.7564        183
 4.34   0.0176   1218.5485   1194.7737  -3.77     8487.646     1.975     1.919      5.842     137.5619  18.2280        184
 5.37   0.0297   1172.4696    758.3431 -47.89     5020.194     2.674     2.414     10.049      137.453  18.7982        185
 5.51   0.1085   1201.3074    339.3050  -1.91     1374.846     1.244     1.068      4.342     137.3752  20.2044        186
 6.13   0.1022   1206.9932    838.8481   0.27     1462.044     1.198     1.079      5.261     137.5775  20.1376        187
 5.88   0.1088   1236.7904   1553.1959  35.68     1371.666     1.209     1.061      4.624     137.4686  20.2069        188
 6.70   0.0850   1071.7524   1219.0967  83.74     1754.224     1.523     1.196      6.350      137.344  19.9398        189
 7.04   0.0917   1203.0830   1076.0216 -22.86     1627.966     1.241     1.145      6.296     137.5308  20.0209        190
 3.60   0.0103   1129.5677    183.6499  83.13     14502.36     2.121     2.085      5.111     137.5619  17.6464        191
 7.03   0.1093   1193.9590    124.2465  -9.73     1367.431     1.215     1.051      6.699     137.5619  20.2102        192
 4.46   0.0282   1157.3230    236.5551  70.05     5301.863     1.814     1.725      5.637     137.4686  18.7389        193
 3.50   0.0033   1164.8165   1299.7317  53.73     44800.96     2.368     2.291      5.276     137.5619  16.4218        194
 8.19   0.1839   1129.4969    219.9676  32.24     811.6218     0.794     0.314      3.419     137.4063  20.7766        195
 4.99   0.0584   1088.8848    642.5204  47.95      2557.47     1.595     1.454      4.636     137.4219  19.5305        196
 4.10   0.0172   1081.3861   1148.1320  76.39     8686.127     1.998     1.870      5.327      137.593  18.2029        197
 3.50   0.0039   1039.8916    633.0511  39.10     38304.19     2.365     2.271      5.325     137.4686  16.5919        198
 4.43   0.0190   1038.2446    525.3903  64.29     7856.161     1.943     1.864      5.619     137.5464  18.3120        199
 3.50   0.0004   1022.9890     50.2034 -11.81       421444     2.772     2.735      5.574     137.4686  13.9881        200
 3.76   0.0100   1009.4022    813.7109 -80.04     14965.62     2.081     2.026      5.161     137.4841  17.6123        201
 3.72   0.0086   1025.4417   1379.8547  69.55     17374.22     2.148     2.070      5.281     137.4997  17.4502        202
 5.41   0.0637   1010.7049    344.8102  -2.32     2343.632     1.423     1.369      5.743     137.4686  19.6253        203
 5.80   0.0568   1000.9542    542.7289 -56.96     2627.582     1.450     1.365      6.623     137.4841  19.5011        204
