#   1 KRON_RADIUS            Kron apertures in units of A or B                         
#   2 Y_IMAGE                Object position along y                                    [pixel]
#   3 MAG_BEST               Best of MAG_AUTO and MAG_ISOCOR                            [mag]
#   4 FLUX_BEST              Best of FLUX_AUTO and FLUX_ISOCOR                          [count]
#   5 X_IMAGE                Object position along x                                    [pixel]
#   6 THETA_IMAGE            Position angle (CCW/x)                                     [deg]
#   7 A_IMAGE                Profile RMS along major axis                               [pixel]
#   8 B_IMAGE                Profile RMS along minor axis                               [pixel]
#   9 MAGERR_BEST            RMS error for MAG_BEST                                     [mag]
#  10 NUMBER                 Running object number                                     
#  11 FLUXERR_BEST           RMS error for BEST flux                                    [count]
 3.50      8.5337  18.1731     8928.428    753.8251  60.49     1.375     1.363   0.0087          1     71.46306
 3.98     33.6869  20.2830     1278.811    450.4712 -45.79     1.232     1.145   0.0603          2     70.96505
 8.71     69.8053  20.8558     754.5126   1463.4071 -71.30     0.761     0.450   0.1104          3     76.72809
 9.38     96.1218  19.7142     2159.412   1125.8981 -76.47     0.992     0.705   0.0587          4     116.6987
 3.72     95.9752  18.5624     6237.814    917.6512   8.18     1.345     1.282   0.0127          5     72.93668
 3.67     95.3703  21.4196     448.9177    347.6633 -41.15     0.970     0.857   0.1188          6     49.10829
 6.46    107.2876  21.2464     526.5292     47.8193 -73.14     1.074     0.656   0.1675          7     81.21884
 5.82    126.5465  21.6049     378.4836    301.4945  36.21     0.502     0.495   0.1279          8     44.56504
 3.50    151.7228  19.4329     2798.047     46.1761  12.84     1.247     1.146   0.0245          9     63.02449
 0.00    144.6546  99.0000    -17.46667    213.2779  48.77     0.557     0.341  99.0000         10     41.25921
 6.89    159.4227  20.8574     753.4042     50.8405  64.72     1.123     0.576   0.1177         11     81.65434
 3.50    213.1703  15.9669     68111.88    967.8254   6.11     1.690     1.644   0.0014         12     86.70982
 3.72    186.2118  20.3461     1206.643    378.7480  -8.72     1.115     1.041   0.0541         13     60.14512
 8.58    184.6100  21.2791     510.9165   1263.2317 -17.68     0.736     0.455   0.1571         14     73.90276
 4.25    205.7045  21.6415      365.915    986.0535   7.47     0.713     0.672   0.1275         15     42.94395
 3.77    206.9375  21.2235     537.7581     21.8411  -5.76     0.908     0.735   0.0932         16      46.1292
 3.50    238.2898  16.5652     39256.58   1390.1582  -3.69     1.593     1.538   0.0023         17     81.65434
 3.50    225.9340  19.5793     2445.036   1093.7515  -6.04     1.211     1.140   0.0267         18     60.14512
 8.08    219.6556  22.4144     179.5734   1021.6714 -45.65     0.580     0.332   0.3301         19     54.58081
 6.60    227.1519  20.8126     785.1981    975.7388  23.84     0.947     0.665   0.1080         20     78.10243
 6.70    237.4840  22.0635     248.0898    837.9660   0.46     0.799     0.500   0.2709         21     61.88882
 4.65    243.6980  20.6567     906.3734    567.0759   5.73     1.012     0.867   0.0775         22     64.69062
 4.93    248.5117  20.9641     682.8798    578.0966  76.98     0.974     0.870   0.1088         23     68.42067
 4.06    259.9771  19.9576     1725.609   1427.0297  32.54     1.079     1.060   0.0414         24     65.77794
 6.18    287.5581  19.7566      2076.72   1328.6306 -75.04     1.710     1.123   0.0665         25     127.1694
 6.90    279.9722  21.7586     328.5251   1129.0000  90.00     0.842     0.289   0.1550         26     46.89172
 3.50    282.1113  21.9826     267.2833    955.6761  18.33     0.884     0.682   0.1641         27      40.3905
 4.51    314.7289  21.3195     492.2469    793.1882  -7.86     1.095     0.833   0.1415         28     64.14005
 7.99    324.9998  22.8208     123.5038    290.0000  90.00     0.820     0.289   0.5184         29     58.95401
 3.98    333.7581  20.4349     1111.798    789.7813 -85.07     1.149     1.032   0.0632         30     64.69062
 3.85    339.0500  19.3109      3130.83    596.8334  21.31     1.347     1.203   0.0253         31     72.93668
 3.50    374.9164  16.5090     41343.73   1263.4199 -11.08     1.642     1.558   0.0022         32     84.64007
 6.01    362.1308  21.2184     540.3081    709.0848 -45.63     0.858     0.668   0.1365         33     67.90035
 5.33    361.2755  23.2822     80.74414    640.6434  40.68     0.560     0.339   0.4806         34     35.73153
 6.53    364.4894  22.3232     195.3131    504.5386 -48.87     0.504     0.494   0.2649         35     47.64204
 6.31    375.8721  20.4005     1147.594   1364.7144 -44.39     1.518     1.170   0.1185         36     125.2021
 5.69    373.6692  23.1451     91.61731   1563.6791 -45.47     0.571     0.337   0.4465         37     37.66434
 4.26    390.4198  20.9031      722.375   1463.5830 -51.15     1.057     0.829   0.0895         38     59.55255
 4.41    393.4999  22.5725     155.2322   1318.5051 -45.08     0.505     0.495   0.2357         39     33.68801
 7.72    402.7296  21.0029     658.9456    825.3961 -72.26     0.749     0.454   0.1110         40     67.37601
 3.50    414.5235  19.6281     2337.519     67.9640 -88.51     1.241     1.170   0.0293         41     63.02449
 3.50    418.0926  19.2964     3172.807   1308.7546   3.31     1.335     1.217   0.0229         42     66.84756
 0.00    434.0663  99.0000    -14.95349    658.3311  82.38     0.744     0.644  99.0000         43     35.73153
 3.50    458.7441  17.8354     12185.15     13.2296 -37.37     1.492     1.401   0.0067         44     74.85639
 6.71    452.7018  20.8395     765.9312   1221.1836  40.36     1.095     0.694   0.1258         45     88.73129
 3.50    466.9967  18.5363     6389.959   1075.5585 -20.62     1.427     1.273   0.0121         46     71.46306
 3.50    489.1604  20.5559     994.6167    574.9230 -19.29     1.101     1.035   0.0603         47     55.22676
 4.24    506.3505  20.5056     1041.717   1142.7244  14.55     1.038     0.914   0.0651         48     62.45924
 0.00    509.2778  99.0000    -20.87427   1563.6588  41.37     0.555     0.342  99.0000         49     35.73153
 6.40    530.2516  24.1818      35.2605    212.6039 -72.48     0.755     0.454   1.7009         50     55.22676
 3.50    548.4669  19.6292     2335.238    374.6524 -51.27     1.288     1.176   0.0293         51     63.02449
 8.55    538.6262  21.2014     548.8392    353.7966  17.85     0.770     0.444   0.1472         52      74.3811
 3.74    558.4240  19.6463     2298.708   1456.6426   6.24     1.280     1.147   0.0321         53     67.90035
 3.50    562.7390  19.0570     3955.339    583.6765 -16.93     1.355     1.223   0.0186         54     67.90035
 3.50    567.6361  19.3385     3052.082    956.5933  15.22     1.442     1.242   0.0253         55     70.96505
 3.73    573.9706  19.3378     3053.961   1028.8879  38.10     1.257     1.245   0.0249         56      69.9584
 7.00    580.9031  21.5918     383.0645   1366.3043  23.29     0.899     0.675   0.2315         57     81.65434
 6.26   1015.3428  25.8321     7.711792   1447.2975 -47.29     0.565     0.339   5.9301         58     42.11001
 3.50    943.5165  18.8516     4779.113    690.0786  44.57     1.322     1.305   0.0153         59     67.37601
 4.62    937.6874  21.0181     649.7933    842.4064  48.68     1.018     0.918   0.1108         60     66.31491
 3.50    920.0018  18.2162     8580.277    620.5195 -33.60     1.483     1.397   0.0094         61      74.3811
 3.50    914.4984  25.3659     11.84753    471.5129 -45.48     0.505     0.495   2.6743         62     29.17467
 5.34    912.5112  25.2541      13.1333    567.6704  18.28     1.466     0.550   6.0312         63     72.93668
 3.50    880.6385  17.3204     19581.65    166.1975 -41.67     1.558     1.488   0.0045         64     80.34077
 3.50    880.5171  20.0774     1545.434   1341.4749   9.62     1.209     1.098   0.0427         65     60.73192
 6.80    875.4247  22.3072     198.2125     39.7761  86.87     0.956     0.724   0.4614         66     84.22002
 5.55    874.3450  21.2961     502.9998    448.3039  43.81     0.990     0.862   0.1667         67     77.18892
 3.50    863.2215  15.1591     143340.5   1395.8429 -43.35     1.804     1.772   0.0007         68     93.78344
 3.50    850.7582  18.6069     5987.281    215.2323 -15.35     1.419     1.270   0.0129         69     70.96505
 3.50    840.5008  16.4899     42077.95    275.8560  -5.60     1.631     1.541   0.0021         70     82.08752
 0.00    829.3097  99.0000    -10.73462    910.3375 -43.66     0.569     0.338  99.0000         71     27.93262
 7.29    795.2935  24.0032     41.56372    936.6273  41.56     0.575     0.332   1.2053         72      46.1292
 3.50    787.8984  19.3181     3110.129    528.0440  -7.80     1.357     1.174   0.0233         73     66.84756
 3.50    777.6007  17.2209     21460.65    728.2275 -17.65     1.551     1.487   0.0040         74     79.00538
 3.59    771.6260  18.6169     5932.555    369.8672 -20.92     1.358     1.285   0.0129         75     70.46352
 0.00    729.6534  99.0000    -25.00037   1577.3302  45.66     0.582     0.331  99.0000         76     38.59446
 7.36    723.1130  18.7346     5322.979    199.3556  77.08     1.775     1.505   0.0367         77     179.8447
 4.80    710.7004  21.1543     573.1477   1354.8799  30.74     0.982     0.870   0.1236         78     65.23655
 0.00    711.4685  99.0000    -21.52051    555.9477 -79.89     0.747     0.662  99.0000         79     35.73153
 5.92    703.1860  21.6558     361.1582   1040.1483 -39.52     0.792     0.684   0.1978         80     65.77794
 3.78    698.8950  20.3381     1215.478     97.0887 -20.52     1.115     1.020   0.0532         81     59.55255
 3.54    669.6442  20.4526     1093.869   1090.6628   8.72     1.047     1.002   0.0535         82     53.92712
 3.50    665.5748  16.1344     58377.87   1487.1353 -35.97     1.683     1.600   0.0016         83     85.05805
 3.50    655.1586  21.4010     456.6749    312.7132 -16.37     0.942     0.825   0.1097         84      46.1292
 5.95    654.0309  21.2976      502.307     16.6808 -78.37     0.721     0.673   0.1363         85     63.02449
 6.22    637.3861  20.8530     756.4691    871.4728 -25.80     1.153     0.959   0.1405         86     97.85482
 7.31    614.4613  21.9313     280.2168    572.5083 -37.94     0.502     0.496   0.2165         87     55.86524
 4.70    612.9728  21.9762     268.8483    590.0347   3.86     0.616     0.604   0.1667         88     41.25921
 0.00    586.6627  99.0000    -12.84167    389.6753 -45.56     0.575     0.334  99.0000         89     29.17467
 0.00   1576.1272  99.0000    -30.44128   1129.8270 -45.15     0.714     0.555  99.0000         90     33.68801
 6.87    990.9874  22.5861     153.3119    213.5000  88.54     0.780     0.500   0.4384         91     61.88882
 4.21   1567.7410  21.0427     635.2233     19.5486 -16.06     0.948     0.896   0.0998         92     58.34934
 5.70   1560.4543  20.7025     868.9417   1362.2059 -55.20     1.014     0.892   0.1010         93     80.78101
 3.64   1462.3051  19.0097     4131.542    251.3973 -29.15     1.361     1.283   0.0189         94     71.95762
 6.87   1525.6722  23.6048     59.98914   1294.9987  28.23     0.911     0.211   0.7922         95       43.762
 6.33   1524.5082  25.3851      11.6405   1515.4877 -45.11     0.511     0.488   4.4448         96     47.64204
 4.20   1535.6650  20.7205     854.6765    875.8801  -6.41     1.177     0.918   0.0829         97     65.23655
 3.50   1511.4844  18.2832     8067.067   1282.0679 -12.86     1.396     1.325   0.0097         98     71.95762
 3.50   1466.7014  18.0204     10276.22    534.0131   7.30     1.485     1.406   0.0080         99     75.79802
 6.98   1473.5054  22.5997     151.4022   1563.5198  45.70     0.507     0.492   0.3470        100     48.38072
 4.57    996.0776  20.2524     1315.396    145.2588 -57.67     1.157     1.067   0.0633        101     76.72809
 3.50   1416.8661  19.0392     4020.791    953.8477 -14.13     1.338     1.256   0.0185        102     68.42067
 3.50   1002.2164  19.3476     3026.732    998.0946 -24.76     1.272     1.210   0.0234        103     65.23655
 6.76   1421.0579  21.4522     435.6483   1049.7332 -84.33     0.734     0.667   0.1731        104     69.44961
 5.22   1007.1936  21.9189     283.4246   1353.1521  11.97     0.930     0.677   0.2349        105      61.3131
 5.30   1021.9153  21.0472     632.5928    106.6269  18.07     1.213     0.932   0.1446        106     84.22002
 6.91   1028.5962  20.8526     756.7512    607.5695 -21.97     1.473     0.868   0.1688        107     117.6069
 3.50   1399.4707  21.0535     628.9521    899.5739 -11.32     1.124     0.939   0.0920        108     53.26542
 3.50   1385.8469  18.3626     7498.185    907.5899 -24.23     1.459     1.308   0.0105        109      72.4488
 7.29   1341.2932  24.3628     29.84424    390.3075 -44.10     0.548     0.346   1.6786        110      46.1292
 3.50   1037.6610  23.8181     49.28931    208.6505 -44.61     0.587     0.327   0.4545        111     20.62961
 6.29   1029.7521  22.6312     147.0681    310.5815 -19.83     0.986     0.572   0.5350        112      72.4488
 8.74   1041.5128  22.4345     176.2803     23.5005  44.65     0.507     0.493   0.4019        113     65.23655
 3.50   1368.0732  19.7644     2061.688   1439.2480   4.56     1.202     1.170   0.0323        114      61.3131
 4.19   1040.8652  22.5546     157.8138   1084.6525 -77.15     1.067     0.424   0.2955        115     42.94395
 3.97   1238.0380  20.5164     1031.415    384.3324 -47.75     1.162     0.969   0.0664        116     63.02449
 4.52   1239.3766  21.0643     622.6866   1246.1620  83.09     1.113     0.816   0.1109        117     63.58472
 5.55   1308.5393  21.0362     639.0323    133.5595 -25.13     1.015     0.999   0.1395        118     82.08752
 3.50   1312.5579  17.7134     13634.89    923.8445 -14.76     1.515     1.403   0.0061        119     77.18892
 5.81   1278.6492  21.4386     441.1111    260.9317 -60.73     0.875     0.681   0.1684        120     68.42067
 6.60   1276.3993  22.2849     202.3239    569.8483 -19.92     0.734     0.448   0.2964        121     55.22676
 3.50   1285.5226  23.4578     68.68604   1127.4628 -47.20     0.505     0.493   0.4613        122     29.17467
 4.28   1249.1250  20.2899     1270.738     37.9862 -30.12     1.104     0.982   0.0567        123     66.31491
 4.32   1252.7129  21.4732     427.2931    492.8547  79.93     1.093     0.705   0.1420        124     55.86524
 6.90   1242.5549  21.7034     345.6593    865.7887  77.15     0.838     0.621   0.2322        125     73.90276
 3.50   1215.0698  17.2547     20801.92   1195.0428 -78.16     1.476     1.470   0.0041        126     78.55521
 3.50   1245.1102  18.1857     8824.788    570.5760 -22.37     1.442     1.362   0.0090        127     73.42131
 3.50   1111.9489  27.1558     2.278564      1.8598 -42.34     0.807     0.612  16.0562        128     33.68801
 3.50   1229.8593  19.5161     2591.628   1333.8658  -9.71     1.293     1.205   0.0276        129     65.77794
 4.20   1229.8514  21.5671     391.8815    319.1284 -41.42     0.857     0.839   0.1458        130     52.59538
 0.00   1187.1475  99.0000    -50.14331     31.4201 -20.18     0.857     0.651  99.0000        131     39.50269
 0.00   1132.9907  99.0000     -9.13147    529.0000  90.00     0.781     0.289  99.0000        132      34.7248
 3.92   1194.6493  19.6809     2226.598   1031.4041 -23.51     1.276     1.133   0.0349        133     71.46306
 4.26   1179.7045  21.1845     557.4448      6.4451 -61.55     0.997     0.933   0.1206        134     61.88882
 0.00   1174.6692  99.0000    -56.95325   1126.6654 -44.84     0.577     0.334  99.0000        135     29.17467
 3.50   1142.4834  24.1333     36.86963    937.0837  -1.92     0.719     0.499   0.9923        136     33.68801
 0.00   1146.6865  99.0000    -41.75403    720.6721 -44.28     0.566     0.339  99.0000        137     52.59538
 4.08   1154.6710  20.8457     761.6216    195.5327   4.60     1.130     0.937   0.0899        138     63.02449
 3.50   1131.2783  19.1110     3763.682    620.9372 -10.55     1.352     1.281   0.0199        139     68.93706
 5.02   1111.6760  21.4015     456.4744   1268.2570 -43.85     1.055     0.848   0.1688        140     70.96505
 4.08   1043.7810  21.3548     476.5344    424.6862   0.46     1.163     0.829   0.1384        141     60.73192
 3.50   1091.0695  20.6140     942.7593    792.6173  57.02     1.128     1.058   0.0644        142     55.86524
 3.50   1095.6605  20.4374     1109.321     16.4552  68.25     1.076     1.007   0.0534        143     54.58081
 4.46   1058.5704  20.7469     834.1409    239.6436 -28.15     1.108     0.998   0.0911        144      69.9584
 7.05   1031.4886  21.9757     268.9907    765.5862 -57.52     0.505     0.487   0.2040        145     50.53201
