#   1 KRON_RADIUS            Kron apertures in units of A or B                         
#   2 Y_IMAGE                Object position along y                                    [pixel]
#   3 MAG_BEST               Best of MAG_AUTO and MAG_ISOCOR                            [mag]
#   4 FLUX_BEST              Best of FLUX_AUTO and FLUX_ISOCOR                          [count]
#   5 X_IMAGE                Object position along x                                    [pixel]
#   6 THETA_IMAGE            Position angle (CCW/x)                                     [deg]
#   7 A_IMAGE                Profile RMS along major axis                               [pixel]
#   8 B_IMAGE                Profile RMS along minor axis                               [pixel]
#   9 MAGERR_BEST            RMS error for MAG_BEST                                     [mag]
#  10 NUMBER                 Running object number                                     
#  11 FLUXERR_BEST           RMS error for BEST flux                                    [count]
 3.50     59.9924  16.3214     49142.38   1078.7397 -76.37     3.031     3.004   0.0021          1     97.26984
 3.80     53.4462  16.4581     43326.55     63.9191   1.33     5.337     4.876   0.0045          2     178.1201
 4.08     16.9284  18.6426     5793.827    985.4626 -87.34     4.427     2.434   0.0230          3     122.5328
 3.50     18.2198  19.0820     3865.451     91.5117 -89.07     2.184     2.115   0.0191          4     68.09087
 3.54     14.9005  18.0163     10315.64   1446.0903 -42.62     2.591     2.467   0.0087          5     82.25485
 7.64      7.3019  22.8740     117.6021   1466.3320 -43.43     0.563     0.340   0.2836          6     30.71558
 6.30      5.0665  21.5814     386.7533    144.8630 -83.55     0.803     0.681   0.1202          7     42.81334
 8.49      4.0000  22.9451     110.1458   1580.0042   0.00     0.836     0.289   0.3932          8     39.87959
 6.13     25.1073  20.5990      955.861    367.6415  26.07     1.770     1.749   0.1130          9     99.46211
 8.11     17.1742  21.5316     404.9056    385.0853 -33.22     1.396     0.608   0.1837         10      68.4856
 6.87     34.8679  21.5143     411.4156   1109.8555  64.00     1.403     0.661   0.1598         11     60.54721
 3.50     80.3080  16.3763     46719.38    537.8432 -75.16     2.975     2.935   0.0022         12     95.31025
 7.99     37.7023  21.6751     354.7902   1521.1277  69.14     0.976     0.690   0.1819         13     59.42379
 9.43     38.5241  21.6894     350.1415   1170.4841  44.19     0.505     0.494   0.1347         14     43.43839
 6.75     42.1870  22.0888      242.364    915.0546  36.06     0.940     0.466   0.1847         15     41.20927
 0.00     44.2103  99.0000    -47.02148    564.4238  70.29     0.750     0.451  99.0000         16     29.36971
 4.55     75.2320  20.0850     1534.566    128.0788  -2.01     2.038     1.769   0.0567         17     80.09643
 3.50    121.9991  15.9483     69290.66    789.4222 -43.33     3.091     2.991   0.0015         18     97.82252
 8.23     80.6874  21.6230     372.2122    422.8605 -69.48     1.831     0.584   0.2272         19      77.8782
 6.64     90.7543  20.6237       934.37    377.0980  89.81     2.137     1.683   0.1345         20     115.7452
 4.32     96.7815  19.6141     2367.892     56.4105 -47.91     2.142     1.995   0.0377         21     82.25485
 6.56     97.9843  20.8970      726.468    453.0412 -10.20     2.000     0.927   0.1225         22     81.92649
 3.92    170.5607  18.1839     8839.495    877.5997 -21.37     2.596     2.542   0.0114         23     92.72994
 3.50    162.5962  16.5664     39214.23   1468.6017 -50.03     2.946     2.848   0.0026         24     93.59795
 0.00    131.7585  99.0000    -44.23413   1511.9980  -0.09     0.691     0.428  99.0000         25     23.21879
 6.88    165.6576  20.9894     667.1698   1446.0773 -42.49     1.415     1.198   0.1339         26     82.25485
 4.86    166.8479  21.3284      488.233    104.9452 -84.09     1.507     1.343   0.1428         27     64.22001
 5.88    159.3233  25.3268     12.28186    537.6866  45.51     0.564     0.340   2.1038         28     23.79218
 6.12    192.8279  20.4192     1127.999   1350.5502 -33.77     2.922     1.450   0.1119         29       116.21
 4.93    211.0075  18.9477     4374.355    827.9856  -4.47     4.185     2.622   0.0372         30     149.9366
 4.53    206.7366  19.9741     1699.583    549.4040 -48.40     2.105     1.879   0.0529         31     82.74496
 4.65    212.5211  20.0849     1534.716   1306.4330 -68.02     2.091     1.821   0.0592         32     83.71655
 5.26    230.1405  19.0007     4165.987    562.5012 -37.69     3.810     3.392   0.0452         33     173.5207
 3.50    260.0289  15.4930     105385.9    997.7187 -31.72     3.179     3.090   0.0010         34     100.8081
 6.95    210.9013  21.3467     480.0854    684.3038 -59.47     1.540     1.020   0.1812         35     80.09643
 4.23    224.0483  19.6911     2205.816   1226.2903 -22.70     2.031     1.927   0.0380         36     77.18285
 5.35    222.7530  21.3547     476.5529    775.3895 -54.77     1.809     1.449   0.1806         37     79.25061
 3.50    266.0527  15.6779     88889.06     67.7354 -43.79     3.128     3.024   0.0012         38     98.64572
 5.83    243.7050  19.9920     1671.801    113.0363 -77.12     2.694     1.956   0.0800         39      123.191
 4.54    255.5920  19.0801     3872.168    613.4211 -37.77     2.987     2.534   0.0323         40     115.0444
 7.03    239.4051  21.5394     402.0295    838.6548 -80.25     1.643     0.860   0.2066         41     76.48117
 0.00    229.6943  99.0000   -0.2977295    538.6589 -43.29     0.568     0.338  99.0000         42     32.42328
 3.50    287.9388  17.2567     20764.46   1486.5565 -29.06     3.092     2.733   0.0049         43     93.16496
 8.22    252.1398  22.3490     190.7249   1374.1748   9.82     0.995     0.700   0.1770         44     31.07868
 3.50    282.1220  18.9594     4327.657   1522.4805 -44.20     2.397     2.330   0.0191         45     76.12791
 3.50    303.2986  17.5865      15324.8    201.9460  81.55     2.725     2.685   0.0062         46     87.03177
 3.50    322.3131  18.0606      9903.09    697.5564  78.99     2.545     2.526   0.0090         47     81.92649
 5.03    302.6460  21.0986     603.3423    563.9017  -9.44     1.653     1.383   0.1264         48     70.23445
 8.03    308.3838  21.0875     609.5369     86.2233  87.87     1.279     0.996   0.1486         49     83.39394
 5.57    327.8480  20.0194     1630.223    595.7647 -36.72     2.312     2.177   0.0766         50     114.9272
 7.03    323.0115  20.9733     677.1539    640.0058  80.26     1.572     1.066   0.1337         51     83.39394
 7.64    321.4944  21.2442     527.6262    643.4767  53.38     1.782     0.813   0.1733         52     84.19815
 7.19    331.8544  21.4185      449.358     93.1126  72.97     1.157     0.864   0.1617         53      66.8927
 3.68    368.6599  17.9925     10544.17    760.9850 -48.41     3.231     2.593   0.0101         54     98.23499
 7.54    329.5132  22.3497     190.5934   1546.5171  -0.14     1.089     0.500   0.2944         55     51.65855
 5.33    349.9267  20.8884     732.2137     54.7275 -33.05     1.707     1.422   0.1132         56     76.30474
 3.50    395.3920  16.2694     51552.16    231.5977 -62.82     3.044     2.975   0.0020         57     96.43489
 4.56    361.4849  20.0385     1601.728   1500.6577 -19.23     2.058     1.899   0.0562         58     82.90768
 5.61    361.1364  21.8965     289.3333   1034.1522  63.29     1.356     0.944   0.2170         59     57.81433
 5.56    381.1993  23.4458     69.45312      1.9191  89.92     2.451     0.904   0.9640         60     61.65016
 3.84    398.3579  18.2692     8171.531    354.7344  68.09     2.588     2.567   0.0122         61     91.55981
 6.97    372.0318  21.5600     394.4644     70.7653 -55.38     1.399     0.754   0.1814         62     65.87757
 3.71    397.4172  18.4483     6929.429   1461.3718 -31.96     2.578     2.377   0.0133         63       84.677
 6.46    370.0135  22.4216     178.3779    209.0098  -0.68     0.615     0.606   0.2120         64     34.82819
 8.07    372.8885  21.6651     358.0769   1084.1633 -12.06     1.030     0.665   0.1863         65     61.43116
 3.69    393.9711  19.9956     1666.292   1088.8983 -52.38     1.986     1.909   0.0436         66      66.8927
 5.12    412.5886  21.3453     480.6891      2.3713  89.00     3.544     1.277   0.1858         67     82.25485
 7.20    382.3391  22.0690     246.8302     67.3483 -45.00     1.110     0.654   0.2481         68     56.39825
 7.63    383.7711  22.8018     125.6889      9.8582  11.59     1.358     0.557   0.2672         69     30.92818
 7.89    397.2686  21.0496     631.1831    626.1052 -77.88     1.385     0.808   0.1316         70     76.48117
 3.50    461.3334  15.1396     145934.1    807.6801 -42.64     3.187     3.087   0.0008         71     101.2084
 3.50    438.1793  17.4935     16694.99    252.3251  -7.72     2.790     2.705   0.0058         72     88.87067
 6.42    420.9557  20.6351      924.651    159.3079  43.28     2.158     1.705   0.1329         73     113.1544
 5.26    433.0997  20.3577     1193.796   1422.1903  69.41     1.817     1.717   0.0773         74     84.99474
 4.99    426.9867  19.7832     2026.315    433.6164   1.79     3.411     1.099   0.0599         75      111.829
 4.50    450.5894  18.7214     5388.081     21.4207  29.10     2.486     2.460   0.0206         76     102.2682
 5.83    426.7534  21.1581     571.1724   1180.0170  34.23     1.461     0.792   0.1099         77     57.81433
 4.89    468.0778  18.3735     7423.123    851.1030  23.78     7.174     2.586   0.0284         78      194.193
 6.88    434.3987  21.4427     439.4648    150.7365   5.03     1.835     1.044   0.2170         79     87.80266
 8.49    431.0078  21.5808     386.9694    720.1688  54.18     0.930     0.469   0.1428         80     50.86983
 6.20    444.9543  20.5033     1043.905    122.5157  59.23     1.881     1.549   0.1015         81     97.54657
 4.06    457.9190  18.6144     5946.409     34.5368 -17.68     2.654     2.427   0.0173         82     94.88507
 5.35    440.3495  21.3507     478.3102    305.9942   4.56     1.300     1.116   0.1339         83     58.96842
 4.37    463.9705  19.8825     1849.198    468.8617  48.26     2.242     1.895   0.0486         84     82.74496
 6.00    461.4203  21.5527     397.1161   1096.9910  70.01     1.411     1.077   0.1846         85     67.49445
 3.50    478.1529  19.4242     2820.493    923.1714 -42.87     2.291     2.063   0.0268         86     69.65638
 5.14    471.5919  20.1229     1481.984    254.7253   9.05     1.979     1.869   0.0666         87     90.82081
 3.64    472.2752  19.6934     2201.114    735.0544  13.65     2.058     1.946   0.0333         88     67.49445
 3.98    596.9883  18.5063     6568.486    782.9264 -87.77     3.616     3.454   0.0213         89     128.8591
 4.16    478.5011  20.5234      1024.83   1277.1141 -65.74     2.062     1.725   0.0764         90     72.12791
 7.44    462.3968  22.0091     260.8214    722.7953 -12.80     1.120     0.417   0.1946         91     46.72692
 6.02    495.6913  19.4359     2790.246     82.7940 -76.01     2.776     2.530   0.0572         92     146.9403
 4.67    495.7672  19.6907     2206.555   1186.4735 -12.09     3.112     2.310   0.0565         93     114.8098
 3.94    483.9861  20.3822     1167.086   1070.6869 -32.19     1.909     1.620   0.0590         94     63.37497
 4.24    531.0347  17.8230     12325.46    519.8568  20.40     5.170     3.237   0.0118         95     133.9578
 7.00    489.6824  21.2474     526.0763    839.3367  48.22     1.546     1.140   0.1761         96     85.31129
 4.65    502.2025  21.0606     624.8418    863.7805 -39.11     1.826     1.368   0.1170         97     67.29446
 5.50    504.4208  20.4052      1142.65    763.4030 -17.69     2.418     1.450   0.0902         98     94.88507
 4.49    515.7132  19.3072     3141.257   1461.0072  21.96     4.042     2.029   0.0410         99     118.6205
 8.23    499.3254  21.8055     314.6273    366.3373 -44.47     0.576     0.334   0.1161        100     33.64723
 8.51    509.5540  20.8650     748.1903    166.5013  80.85     1.056     0.943   0.1138        101     78.39567
 6.68    509.5143  22.2971      200.064    454.2384 -89.83     0.978     0.719   0.2790        102     51.39699
 6.17    513.6793  21.0880     609.2826   1179.5035   5.85     1.540     1.120   0.1325        103     74.33641
 6.30    518.5699  21.1937     552.7493    642.8600 -29.67     1.255     0.759   0.1122        104     57.11068
 3.50    540.5333  19.8787     1855.809   1000.0637 -45.72     2.173     1.750   0.0368        105      62.9482
 8.72    536.4772  22.0497     251.2643    402.4882 -37.02     0.500     0.499   0.1738        106     40.21613
 3.52    559.1711  19.6003     2398.244   1041.8424 -30.51     2.139     1.954   0.0300        107     66.28549
 3.83    580.9929  18.0743     9778.766    145.0090 -71.13     2.633     2.498   0.0100        108     90.22526
 3.59    582.3879  18.0784     9741.536    319.3510 -38.63     2.654     2.520   0.0095        109     85.15317
 4.74    571.4081  20.0660     1561.749     45.8489  54.95     2.361     1.903   0.0643        110      92.4388
 0.00    550.7809  99.0000    -8.295654    143.9820  -0.87     0.655     0.414  99.0000        111     20.76752
 4.62    571.8522  20.0078     1647.699   1447.7355  40.12     2.427     1.906   0.0603        112     91.41248
 8.47    565.4220  21.4288     445.1409    139.1938 -84.40     1.745     0.805   0.2255        113      92.4388
 5.78    577.0038  20.8776     739.5457   1002.5832  -1.68     1.329     1.013   0.0905        114     61.65016
 4.94    584.7218  20.9203     711.0277     75.8023  73.68     1.554     1.136   0.0915        115     59.87568
 6.83    986.9518  19.9169     1791.567    454.2726  73.36     2.267     1.946   0.0802        116     132.3675
 4.97   1598.8541  21.2188     540.1073    654.9175 -26.99     1.750     1.035   0.0690        117     34.29403
 5.87   1595.9941  20.2044     1374.856    652.7838 -22.74     1.121     0.683   0.0400        118     50.60958
 0.00   1599.4045  99.0000    -10.04309     20.3169 -17.39     1.692     0.641  99.0000        119     35.59374
 7.59   1594.4321  21.0697     619.5989    374.4944 -88.56     1.109     0.499   0.0887        120     50.60419
 8.91   1594.3894  21.8038     315.1261   1387.1508  19.77     0.757     0.441   0.1640        121     47.58437
 4.10   1584.9974  20.2850     1276.417   1108.8923  -5.70     1.845     1.581   0.0550        122     64.63839
 4.99   1585.4872  23.3176      78.1571   1068.7310  53.74     1.360     0.225   0.3534        123     25.43491
 3.50   1566.8105  19.8228      1953.71     22.0706  39.44     2.151     1.984   0.0370        124     66.48851
 3.54   1565.8353  20.1160     1491.415    784.5983  73.81     2.207     1.782   0.0469        125     64.42953
 3.50   1558.1235  16.0887     60884.04    487.7611 -84.10     2.956     2.930   0.0017        126     95.16874
 3.50   1552.8146  17.0474     25180.14    682.2030 -28.15     4.833     4.349   0.0064        127     147.9458
 7.93    869.6841  22.0765     245.1267    642.6815 -44.87     0.563     0.341   0.1418        128      32.0049
 6.42    858.8502  21.0576     626.5753   1339.7490 -54.85     1.522     1.265   0.0699        129     40.31399
 5.78    845.3093  20.9900      666.795   1064.6372   4.64     1.337     1.276   0.1128        130     69.26832
 5.35    843.6138  20.2529     1314.787   1106.4128  28.43     1.837     1.523   0.0677        131     81.92649
 4.79    836.8301  20.3325      1221.81    298.9754 -57.04     2.095     1.693   0.0735        132     82.74496
 8.05    837.6497  22.1588     227.2419   1521.6752 -46.05     0.581     0.331   0.1608        133     33.64723
 6.16    836.1196  21.5568     395.6123    819.3091 -20.89     0.916     0.679   0.1234        134       44.963
 3.50    823.2621  18.4457     6945.514    654.5389 -44.83     2.487     2.416   0.0124        135     79.25061
 3.50    803.3782  18.5334     6406.852   1378.7463 -35.98     2.435     2.303   0.0130        136     76.48117
 3.50    798.7995  17.3997     18202.61    695.8089 -82.98     3.169     2.692   0.0056        137     94.02895
 4.08    800.9242  19.4990     2632.636     41.2277 -36.88     2.357     2.166   0.0349        138       84.677
 5.84    797.7188  26.8307     3.073975   1544.2725 -69.71     0.853     0.355   9.8776        139     27.95913
 3.50    774.7054  19.3933     2901.878   1427.5822  88.77     2.779     2.434   0.0314        140     83.87739
 6.60    767.9084  21.6515     362.5602    142.2739  -7.26     1.059     0.677   0.1555        141      51.9188
 8.07    757.6758  22.2342     211.9845   1342.3064  45.95     0.561     0.341   0.1703        142     33.24426
 4.68    742.8165  20.1385     1460.868    556.4481  37.00     1.973     1.809   0.0609        143     81.92649
 6.22    737.9290  20.9600     685.4982   1158.6479 -60.24     1.599     1.112   0.1217        144     76.83281
 3.50    726.8715  15.9287     70551.13    848.5637 -46.77     3.084     2.997   0.0015        145     98.23499
 5.03    736.1727  20.6783     888.5496    650.0113 -61.01     1.476     1.207   0.0756        146     61.86839
 4.27    727.8571  20.3149     1241.822   1178.2950  -1.38     1.918     1.742   0.0629        147      71.9408
 7.32    723.0043  21.3576     475.3075   1395.6740 -15.87     1.218     0.677   0.1404        148     61.43116
 3.50    715.9310  20.1739     1414.012    808.4232   3.82     1.831     1.767   0.0448        149     58.27871
 3.71    709.0450  20.1554     1438.286   1164.1002 -19.42     1.930     1.627   0.0454        150     60.10036
 3.89    704.8819  20.0579     1573.416   1339.0087 -17.61     2.022     1.783   0.0388        151     56.20438
 4.09    703.0588  19.4039     2873.678    952.6016 -17.93     2.164     2.110   0.0303        152     80.26452
 6.60    698.4171  21.2530     523.3597    583.4592  16.60     1.674     1.410   0.1936        153     93.30951
 6.11    691.0156  20.8581     752.9222   1214.0000 -64.82     1.742     1.438   0.1288        154     89.32449
 6.27    687.3191  21.2392     530.0599   1214.3245 -19.51     1.893     1.111   0.1077        155     52.58315
 8.75    687.4052  22.8370     121.6713    132.1882  19.49     0.759     0.446   0.4247        156     47.58437
 3.91    685.7895  19.7538     2082.038    644.3520 -76.66     2.205     2.099   0.0402        157     77.00803
 3.50    648.6792  15.9589     68615.42   1464.4430 -41.35     3.031     2.933   0.0015        158     95.87422
 4.47    654.8028  21.1592     570.5936    871.6137  16.84     1.473     1.161   0.1022        159     53.70523
 7.38    644.9847  21.7179     341.0671    653.9760  45.88     0.902     0.526   0.1524        160     47.86677
 3.90    630.8015  20.8802     737.7684    806.2888  -7.27     1.543     1.099   0.0692        161     47.01447
 3.65    623.5600  20.2483     1320.279   1581.1151   6.85     1.716     1.666   0.0470        162     57.11068
 9.29    618.5418  21.5483     398.7253   1151.5134 -42.70     0.509     0.489   0.1166        163     42.81334
 5.15    912.7505  21.3202     491.9604   1000.7191 -10.53     1.167     0.712   0.0945        164     42.81334
 7.90   1550.8585  21.7285      337.764   1221.9042 -43.50     0.840     0.673   0.1751        165      54.4529
 3.50   1541.9684  19.1223     3724.435    134.9627 -88.98     2.309     2.183   0.0211        166     72.50066
 3.50   1570.5266  19.9742     1699.494     92.6435 -55.10     1.908     1.798   0.0380        167     59.42379
 3.50   1563.8154  16.0797     61394.66    304.2059 -48.02     3.028     2.968   0.0017        168     97.26984
 9.33   1536.9894  21.4377     441.4994   1428.7147 -86.80     0.740     0.689   0.1495        169      60.7694
 3.50   1507.2974  16.7533     33012.43    269.3668 -83.66     2.892     2.852   0.0031        170     92.72994
 4.82   1561.5085  20.6671     897.7928    861.5500  13.31     1.943     1.459   0.0901        171      74.5175
 3.74   1546.2635  20.7774     811.0275    863.2227  11.30     2.004     1.434   0.0787        172     58.73942
 7.08    595.3417  22.8188     123.7261    882.6633  45.20     0.582     0.330   0.2454        173     27.95913
 6.47   1516.2203  21.1897     554.7749   1547.8488  86.81     1.542     1.161   0.1565        174     79.92798
 6.36   1532.8143  21.1121     595.8931    415.7062  51.44     1.225     0.867   0.1095        175     60.10036
 3.50    886.1867  20.5795     973.1656   1500.2448 -41.32     1.734     1.507   0.0576        176     51.65855
 7.25   1504.3042  22.5925     152.4069   1312.3025 -45.11     0.551     0.345   0.2026        177      28.4371
 3.50   1514.9398  18.2510     8310.158    392.6765 -49.10     2.545     2.449   0.0105        178     80.26452
 3.50   1542.7660  19.5737     2457.701    654.7966 -57.64     2.278     2.085   0.0310        179     70.04229
 7.79   1515.3047  21.3589      474.707    483.5810 -40.07     1.280     0.506   0.1317        180     57.58074
 4.45    869.7726  19.2966     3172.279   1104.1035 -25.40     2.568     2.291   0.0340        181     99.46211
 4.76    868.4896  20.3755     1174.324    939.5806  10.66     2.196     1.446   0.0723        182     78.22356
 4.91    876.1675  22.2764     203.9181    542.0865 -47.54     0.851     0.656   0.1770        183     33.24426
 7.19   1496.8009  21.9420     277.4673    844.6091  70.45     0.764     0.441   0.1479        184     37.79746
 6.65    901.2337  23.3096     78.73486      1.4447  69.20     0.732     0.453   0.3922        185      28.4371
 3.50    880.6579  15.3789     117064.7   1592.4362 -70.44     3.101     2.929   0.0009        186     94.17218
 5.70   1504.2101  20.4469     1099.586    723.5041 -13.84     1.557     1.364   0.0757        187     76.65719
 4.89    878.4304  21.1251     588.8005    960.4305  33.17     1.393     0.694   0.0829        188       44.963
 7.03    888.6298  20.8853     734.3008    325.9332 -19.57     1.511     1.008   0.1180        189     79.75918
 6.72    938.1221  20.7823     807.4031    516.4684 -38.73     1.776     1.478   0.1347        190     100.1374
 3.50    900.6879  18.4527     6901.406    303.0618 -32.93     2.564     2.331   0.0117        191     74.46731
 8.46   1437.4961  22.1234     234.7759   1347.4993  44.96     0.505     0.495   0.1732        192     37.43918
 6.18   1406.2505  21.0150        651.6    329.1994  37.89     1.346     1.177   0.1193        193     71.56513
 3.64    929.0269  20.3804     1169.018   1322.1683 -23.87     1.746     1.621   0.0519        194     55.91826
 3.50   1436.4323  15.7192     85569.29   1088.5930  46.50     3.156     2.110   0.0012        195     95.62302
 3.50    913.3269  20.5647     986.5538    838.5448 -74.58     1.717     1.401   0.0557        196     50.60419
 4.52    939.6163  19.7785     2035.195   1067.3986 -70.97     2.160     1.995   0.0459        197      86.0976
 3.50    947.4988  21.8208      310.222    445.8224  20.29     1.299     0.861   0.1192        198     34.04544
 3.67   1411.3929  21.0452     633.7358    349.9223  61.00     1.809     1.631   0.0983        199     57.34619
 5.44    896.1943  20.1965     1384.782    538.6280 -19.69     2.337     2.200   0.0890        200     113.5112
 3.80   1435.3816  19.1340     3684.703    224.9037  54.77     2.253     2.167   0.0228        201     77.35727
 3.50   1393.5499  15.7519     83032.56    114.3857 -47.91     3.046     2.987   0.0013        202     96.85327
 3.50   1439.8126  19.5253      2569.78    619.3232 -57.27     2.162     2.065   0.0289        203      68.4856
 7.28   1434.3214  21.7718      324.536    341.6860  45.38     0.564     0.340   0.0952        204      28.4371
 3.50   1415.5215  20.0101     1644.243   1386.5270 -14.68     1.947     1.825   0.0403        205     60.99078
 3.50   1388.9996  18.3691     7453.255   1428.3959 -75.23     2.420     2.373   0.0113        206      77.5313
 5.13   1412.6035  21.9772     268.5988      1.6324 -87.48     2.074     0.667   0.1878        207     46.43759
 4.45   1400.8259  20.4559     1090.531   1031.7983   3.31     1.904     1.602   0.0709        208     71.18748
 3.50   1408.4286  19.5170       2589.4    308.3497  -2.59     2.203     2.012   0.0286        209     68.28852
 3.50   1095.0238  16.8079     31392.97    778.4089  45.67     2.807     2.661   0.0031        210     88.37553
 5.85   1129.9960  21.0328     641.0164    547.0289  44.68     1.421     1.108   0.1150        211     67.89265
 3.50   1210.8080  17.6136     14947.64   1278.9933  83.25     5.901     3.811   0.0111        212     152.9623
 7.15   1093.4473  20.9515     690.8439    467.2916 -45.65     1.313     0.949   0.1148        213     73.05623
 4.03   1392.6481  19.9063     1809.191   1039.0205 -21.95     2.016     1.858   0.0430        214     71.56513
 3.50   1082.0333  18.0459     10037.86   1148.2734 -15.89     2.643     2.564   0.0090        215     83.39394
 5.64   1130.5193  20.7270     849.5551    219.9613  17.17     1.933     0.961   0.0908        216     70.99789
 7.51   1391.6624  21.9111      285.473    808.3376  45.00     0.581     0.331   0.1185        217     31.15128
 5.69    951.7153  20.4766     1069.893    654.0699 -86.19     1.785     1.414   0.0840        218     82.74496
 7.26   1330.6422  21.0429     635.1021    386.4968  36.27     1.074     0.780   0.1043        219     60.99078
 3.50   1372.7461  18.1109      9454.72   1019.0373 -73.03     2.606     2.568   0.0095        220     82.74496
 3.83   1107.6849  18.4120     7164.672    428.1782 -77.45     2.603     2.456   0.0136        221       89.926
 3.50   1080.1910  16.7166     34147.34    512.2969 -69.69     2.969     2.859   0.0030        222     94.31519
 8.47   1353.4642  21.9560     273.8992    154.5137 -43.11     0.507     0.491   0.1513        223     38.15237
 3.50   1214.8149  17.5850     15345.76    513.1483 -46.75     2.788     2.685   0.0062        224     88.26196
 7.20   1229.4928  21.2591     520.4247   1154.1887 -88.33     1.005     0.740   0.1202        225     57.58074
 5.35   1333.0924  20.3850     1164.075    107.4512 -49.95     1.654     1.308   0.0680        226     72.87151
 8.03   1299.5083  21.8672     297.2518     52.5046  44.92     0.509     0.491   0.1368        227     37.43918
 3.50   1278.2858  18.9069     4541.859   1331.2653  19.66     2.364     2.226   0.0177        228     74.15488
 3.50   1293.0548  20.7610     823.3545    412.8123 -59.79     1.963     1.671   0.0769        229     58.27871
 3.50   1273.0537  17.7272     13462.58    609.9025 -55.37     4.604     3.053   0.0098        230     120.9831
 3.67   1319.2821  21.0218     647.5687    264.3346 -41.09     1.342     1.081   0.0680        231     40.54988
 4.94   1259.4498  20.1609     1430.962    432.2961 -26.24     2.210     1.862   0.0698        232     92.00035
 5.35   1304.6052  20.7591     824.8586    892.9379 -82.97     1.731     1.354   0.0991        233      75.2375
 3.50   1299.5022  24.9581     17.24805   1089.4468 -50.71     0.506     0.491   1.1324        234      17.9852
 6.74   1238.1829  21.4752     426.5146     48.1805  45.52     1.219     0.499   0.1233        235     48.42664
 7.27   1263.2919  21.9912     265.1704    855.0083  21.90     0.729     0.687   0.1960        236     47.86677
 4.26   1213.2944  19.8402     1922.672   1429.4351  61.87     2.704     1.979   0.0515        237     91.11713
 3.80   1202.2263  19.9768     1695.424    339.3524 -60.99     2.012     1.869   0.0434        238     67.69383
 6.35   1230.7163  20.5688     982.8745    598.6448 -26.31     1.728     1.210   0.0936        239       84.677
 3.50   1219.2191  18.0352        10137   1194.9174  56.23     2.692     2.610   0.0092        240     85.94091
 3.60   1234.5607  19.3469     3028.519    304.9623 -43.58     2.220     2.046   0.0253        241     70.42609
 6.85   1238.0038  22.5332     160.9614    856.8279 -34.98     1.279     0.435   0.3210        242     47.58437
 7.40   1204.6573  22.5904     152.6997   1217.3335  45.37     0.581     0.331   0.2022        243      28.4371
 3.50   1237.2053  19.9759     1696.866   1553.3928   3.72     1.978     1.901   0.0399        244     62.30256
 5.18   1195.3461  19.7221     2143.666    124.1042  88.39     2.276     2.069   0.0524        245     103.4475
 3.50   1138.7202  16.7800     32211.63    148.0385 -47.73     2.901     2.826   0.0031        246     92.00035
 3.50   1201.2911  20.4563     1090.115   1442.0563  25.89     1.754     1.557   0.0527        247       52.947
 4.84   1181.3904  21.7581     328.6754    549.5240 -82.69     1.735     1.003   0.1948        248     58.96842
 4.24   1207.9182  20.2883     1272.531    839.1417 -37.75     2.094     1.889   0.0665        249      77.8782
 4.95   1151.3420  20.3034     1255.018     99.5742 -31.94     2.041     1.732   0.0745        250      86.0976
 3.50   1165.4768  16.2584     52077.48   1299.7546 -45.06     2.966     2.895   0.0020        251     94.17218
 4.59   1120.3331  19.4035     2874.617    330.1281  55.50     2.861     2.131   0.0392        252     103.8376
 3.64   1158.1259  18.5676     6207.919    236.4268 -45.23     2.466     2.432   0.0144        253     82.25485
 3.50   1161.9113  21.1414     579.9955    887.8856 -23.63     1.513     1.254   0.0836        254     44.66224
 5.21   1153.7365  20.4904     1056.396   1352.9554  -1.42     1.817     1.304   0.0760        255     73.97291
 6.37   1111.0759  20.0491     1586.215    479.3346  60.00     2.765     1.746   0.0885        256     129.2768
 4.96   1072.4772  19.6265     2341.074   1218.9852 -66.57     2.589     2.211   0.0509        257     109.6458
 3.50   1130.2097  17.4749     16984.27    183.5254 -48.52     2.811     2.665   0.0056        258     87.80266
 7.36   1042.4810  22.5810     154.0248    468.0018  32.34     0.790     0.316   0.2428        259     34.43904
 3.50   1096.0061  20.6260     932.3885   1527.0216  17.14     1.634     1.463   0.0583        260     50.06868
 6.47   1065.9886  21.3972     458.2867   1596.7365  52.89     1.278     0.626   0.1193        261     50.33715
 3.50   1026.0679  17.2894     20148.15   1380.0214 -55.82     2.795     2.683   0.0047        262     88.10913
 7.21   1079.8993  21.4494     436.7498    329.8013  -2.51     1.332     1.111   0.2000        263     80.43226
 5.49   1065.5956  20.1322     1469.373   1562.7943 -48.93     2.215     1.456   0.0668        264     90.37451
 3.50   1010.0671  17.4413     17517.86    813.8275 -65.16     2.713     2.670   0.0054        265     87.03177
 7.01   1016.7502  22.4715     170.3679    454.1198 -29.65     1.034     0.653   0.3359        266     52.69183
 3.50   1038.8405  18.2183     8563.756    525.6727 -60.61     2.701     2.531   0.0107        267     84.51768
 3.50   1040.5190  16.4459     43815.02    633.2500 -61.44     3.027     2.929   0.0024        268     95.59265
 8.15   1042.3296  22.4141     179.6299   1096.3228 -45.32     0.571     0.337   0.2034        269     33.64723
 6.41   1049.0043  27.0233     2.574341   1089.0000  90.00     0.836     0.289  11.7947        270     27.95913
 4.22   1030.0459  20.0538     1579.373    302.9783  66.56     2.899     2.088   0.0659        271     95.87422
 4.13   1011.6921  19.6731      2242.65    345.0459 -64.98     2.237     2.085   0.0399        272     82.41854
 5.76    980.8536  20.3631      1187.83    798.1853 -58.32     1.865     1.469   0.0804        273     87.95603
 4.52   1001.9209  19.3864     2920.453    542.7508  -3.52     2.292     2.245   0.0351        274     94.45798
 3.50   1001.7543  20.2703     1293.807   1555.5012 -25.15     1.812     1.612   0.0459        275     54.69985
 7.54    964.9527  21.7355     335.5834    415.9613 -36.71     1.450     0.971   0.2662        276     82.25485
 4.79   1000.3470  20.5977     956.9849   1273.7705 -15.75     1.937     1.514   0.0854        277      75.2375
 3.50    985.2017  16.8531     30112.69    558.6800 -34.57     2.937     2.855   0.0034        278     93.16496
