#   1 KRON_RADIUS            Kron apertures in units of A or B                         
#   2 Y_IMAGE                Object position along y                                    [pixel]
#   3 MAG_BEST               Best of MAG_AUTO and MAG_ISOCOR                            [mag]
#   4 FLUX_BEST              Best of FLUX_AUTO and FLUX_ISOCOR                          [count]
#   5 X_IMAGE                Object position along x                                    [pixel]
#   6 THETA_IMAGE            Position angle (CCW/x)                                     [deg]
#   7 A_IMAGE                Profile RMS along major axis                               [pixel]
#   8 B_IMAGE                Profile RMS along minor axis                               [pixel]
#   9 MAGERR_BEST            RMS error for MAG_BEST                                     [mag]
#  10 NUMBER                 Running object number                                     
#  11 FLUXERR_BEST           RMS error for BEST flux                                    [count]
 3.50      6.7833  16.1774     56110.81    753.4195 -26.31     1.693     1.620   0.0011          1      57.3719
 3.50     32.0168  18.2550      8279.06    450.2256  86.65     1.260     1.155   0.0055          2     41.70041
 7.42     94.5299  16.9786     26826.25   1126.0465 -61.25     3.501     1.728   0.0073          3     179.8789
 8.02     67.8408  18.7358     5317.194   1463.0812 -33.83     1.259     0.872   0.0170          4     83.40082
 3.81     94.1452  16.5567      39565.3    917.4310  14.88     1.585     1.534   0.0016          5      58.1781
 4.50     93.6758  19.0888      3841.24    347.4099  46.39     1.140     1.015   0.0138          6     48.89806
 5.09    105.6125  19.3685     2968.913     47.7606 -12.90     1.107     0.945   0.0188          7     51.37547
 6.29    125.2587  19.4052     2870.186    301.4771  41.24     1.148     0.796   0.0223          8     58.97329
 0.00    124.6718  99.0000    -7.836182    357.6577 -44.41     0.579     0.332  99.0000          9     28.95531
 4.09    150.3836  17.3273     19457.13     46.1507  65.34     1.635     1.429   0.0034         10     61.29697
 7.57    158.5237  18.5743     6169.787     50.8306  18.38     1.181     1.093   0.0149         11     84.87705
 7.31    172.0959  19.1230     3722.327    556.8343  72.46     1.420     0.587   0.0191         12     65.46149
 3.80    184.3493  18.0661     9852.985    378.5194 -34.85     1.375     1.236   0.0055         13     49.52903
 6.48    182.9585  18.7709     5148.073   1263.3208  14.54     1.401     1.073   0.0165         14     78.41135
 3.50    211.2733  13.8816     464878.6    967.4832 -69.18     1.866     1.833   0.0001         15     63.53572
 0.00    192.6844  99.0000    -50.67456    838.6912 -45.38     0.559     0.342  99.0000         16     24.28975
 6.27    205.2547  18.7857     5078.403     21.8521  59.72     1.337     1.165   0.0164         17     76.81094
 6.37    203.8773  19.1008     3799.124    986.0157  -0.32     1.075     0.834   0.0169         18     59.23597
 3.50    200.5236  20.7489     832.5767    185.5447 -71.37     0.500     0.498   0.0252         19     19.30354
 3.50    236.1223  14.4421     277430.2   1389.8429 -39.31     1.833     1.777   0.0002         20     62.55061
 3.59    223.8233  17.3198     19591.73   1093.4978 -34.27     1.495     1.464   0.0029         21     51.97637
 6.28    216.7570  20.9988     661.4235   1197.7780  72.53     0.841     0.346   0.0557         22      33.8959
 7.59    225.2516  17.8496     12027.61    975.8773  34.29     1.765     1.157   0.0097         23     106.8982
 5.97    216.5507  20.0352     1606.682   1020.3140   9.96     1.056     0.470   0.0282         24     41.70041
 6.91    217.5131  24.8723     18.66748   1562.4775  46.05     0.504     0.495   1.8339         25     31.52255
 4.80    225.0000  24.5803     24.42761    860.9987   0.00     0.861     0.289   1.0799         26     24.28975
 4.91    235.9795  20.0265     1619.557    837.2560  88.88     0.678     0.436   0.0175         27     26.13712
 4.28    241.9200  18.6175     5929.041    566.7307  26.17     1.232     1.101   0.0088         28     48.25885
 4.84    246.7146  18.8519     4777.734    577.7823  -1.83     1.243     0.938   0.0117         29     51.37547
 4.08    257.7660  17.7800     12822.74   1426.8837  -6.92     1.391     1.253   0.0045         30     52.86492
 6.75    269.4035  19.3120     3127.561    140.1496  52.59     1.628     0.415   0.0191         31     54.88228
 4.58    277.9707  19.4477     2759.992   1129.1667 -87.78     1.246     0.759   0.0174         32     44.22997
 6.09    284.9347  17.5485     15871.23   1328.3116 -42.84     1.663     1.477   0.0064         33     94.07381
 6.03    280.2587  19.1985     3472.312    955.4565 -53.81     1.023     0.798   0.0167         34     53.44908
 6.90    285.3190  19.7247     2138.531    744.0028   9.08     0.730     0.652   0.0237         35     46.62247
 6.04    312.6142  18.6565     5720.141    792.7368  -8.48     1.104     0.991   0.0119         36     62.79834
 4.48    331.6496  18.2238     8520.705    789.4247  -1.93     1.296     1.194   0.0070         37     54.59865
 3.67    337.3596  17.1747     22392.56    596.4562 -52.84     1.529     1.487   0.0026         38     53.73878
 3.50    372.8106  14.3269       308482   1263.0996  51.75     1.814     1.786   0.0002         39     63.04509
 5.42    359.9631  19.1314     3693.623    709.0217 -60.39     1.220     0.868   0.0163         40     55.44519
 5.23    362.7189  19.7663      2058.13    504.8946  20.82     0.716     0.677   0.0188         41      35.6811
 4.36    374.2651  18.1551      9077.42   1364.6586  -2.92     1.905     1.283   0.0080         42     66.63683
 7.38    371.2976  25.1452     14.51831    469.3978 -41.33     0.586     0.324   2.2831         43     30.52157
 5.01    388.0258  18.5337     6405.081   1463.8275  77.41     1.123     1.099   0.0094         44     55.16446
 3.95    391.6115  19.5409     2533.049   1318.2032 -75.10     0.974     0.844   0.0155         45     36.11361
 5.02    399.9806  18.5828     6121.852    825.2182 -61.04     1.582     1.146   0.0120         46     67.56239
 3.50    415.9862  17.0159     25919.64   1308.2938  23.66     1.516     1.425   0.0021         47     50.76745
 3.50    413.0386  17.3631     18826.55     67.7270  -3.32     1.569     1.337   0.0029         48     49.84152
 3.50    457.3289  15.6262     93223.53     12.9412  -7.96     1.701     1.582   0.0007         49     56.00245
 6.87    451.0990  18.1295      9294.32   1221.0300  71.70     1.343     1.036   0.0094         50     80.36704
 3.50    465.0982  16.2961     50301.09   1075.2172 -80.28     1.645     1.546   0.0012         51     54.88228
 7.01    461.7713  19.8493     1906.704    276.7593  17.23     0.858     0.350   0.0215         52      37.7942
 3.76    487.6075  18.1969     8734.299    574.5292  73.91     1.267     1.190   0.0057         53     45.61248
 3.94    504.3406  18.1352     9244.941   1142.3790  15.74     1.277     1.171   0.0056         54     47.61105
 3.50    498.6908  24.7516     20.86267    626.3044  45.28     0.554     0.344   0.7105         55     13.64966
 8.30    509.6959  20.3258     1229.387    999.3185  44.19     0.558     0.343   0.0319         56     36.11361
 6.56    535.8053  18.4813     6721.701    353.8041 -26.05     1.334     1.153   0.0131         57     80.94453
 3.87    546.8795  17.3252     19495.68    374.2849  16.25     1.446     1.339   0.0029         58     52.86492
 8.24    540.3218  20.3374     1216.324    674.3281 -44.70     0.570     0.337   0.0322         59     36.11361
 4.03    556.1749  17.2913     20114.05   1456.4642 -66.60     1.402     1.392   0.0030         60     56.00245
 3.66    560.6160  16.7283      33780.6    583.1944  -2.44     1.676     1.468   0.0018         61     56.00245
 3.50    565.6235  17.0219     25778.09    956.4192  86.61     1.451     1.440   0.0021         62     50.15207
 3.50    572.0057  17.0624     24832.76   1028.6418   6.28     1.523     1.419   0.0022         63     49.21456
 6.55    578.5235  19.3383     3052.629   1366.3136  41.35     1.239     0.645   0.0205         64     57.64189
 6.26   1010.3064  20.6653     899.2346    374.6631  43.49     0.567     0.339   0.0336         65     27.86226
 0.00   1574.3383  99.0000    -50.76843   1374.2750 -48.75     0.553     0.343  99.0000         66     34.79995
 3.50    849.2397  16.2123     54337.42    215.1507 -35.43     1.576     1.543   0.0011         67     54.31354
 3.50    838.9365  14.1111     376317.9    275.7407  12.96     1.854     1.814   0.0002         68     63.53572
 5.02    804.9051  24.0485     39.86633   1082.0669 -46.54     0.833     0.527   0.9108         69     33.43471
 3.53    786.1812  16.8957     28955.61    527.8295   6.34     1.471     1.427   0.0019         70     50.76745
 3.50    775.8160  14.8789     185532.8    728.0626  -9.56     1.744     1.684   0.0003         71     59.23597
 7.07    779.6011  19.7772     2037.677    993.2560 -17.31     0.715     0.462   0.0212         72     39.79527
 3.50    770.0457  16.2591     52044.09    369.6897   1.33     1.599     1.516   0.0011         73     54.02692
 7.65    721.8531  15.9239     70868.57    199.0433  75.96     2.871     2.045   0.0028         74     183.1295
 4.23    708.5518  18.8981     4579.066   1354.6356  66.38     1.128     0.938   0.0102         75     43.16402
 4.59    701.5817  19.3796     2938.823   1040.1263 -76.81     0.999     0.737   0.0146         76     39.40318
 3.93    697.5711  18.0434      10060.9     97.0785  28.15     1.454     1.222   0.0056         77     52.27423
 3.50    663.3879  13.8286     488173.4   1486.9547   9.77     1.838     1.819   0.0001         78     63.29089
 4.01    667.5025  17.8388     12147.83   1090.4330  32.70     1.378     1.265   0.0046         79     51.37547
 4.55    653.2896  18.9930     4195.521    312.6598  48.80     1.221     0.914   0.0124         80     47.93604
 5.20    651.9135  19.1578     3604.674     16.6718  60.98     1.201     0.847   0.0157         81     52.27423
 3.65    641.6756  25.4732     10.73315    211.3024  46.20     0.560     0.342   1.5948         82     15.76127
 5.63    634.6196  18.2552     8278.248    871.5801 -59.79     1.504     1.136   0.0096         83     73.08202
 7.01    611.2307  19.2220     3397.933    572.0879  65.10     0.972     0.774   0.0191         84     59.75788
 7.53    611.0481  19.1428     3655.007    590.2112  -5.04     0.933     0.751   0.0185         85      62.3019
 7.31    601.3771  19.8025     1990.738   1580.3748   7.31     1.020     0.633   0.0317         86      58.1781
 8.15   1580.3208  19.8038     1988.265    831.3478 -43.85     0.578     0.333   0.0197         87     36.11361
 4.31   1566.1853  18.3463     7611.833     19.7813  -0.54     1.283     1.104   0.0072         88      50.4607
 5.97   1558.3076  18.0218     10262.99   1362.1667  63.44     1.218     1.134   0.0073         89     69.37646
 3.50    861.1357  14.0681     391542.5   1395.7646 -56.72     1.942     1.924   0.0002         90     66.40343
 3.50    873.0208  18.8643       4723.5    448.2745 -57.95     1.157     0.986   0.0084         91     36.54101
 6.92   1529.4631  24.3159     31.16248   1221.4849  41.20     0.503     0.495   1.0985         92     31.52255
 3.50    874.2851  19.0926     3827.911     39.7706  45.02     0.911     0.731   0.0084         93     29.48664
 4.73   1533.4241  17.8644     11864.26    875.5878 -34.95     1.433     1.359   0.0059         94      64.9854
 3.50   1509.1296  15.5698     98190.65   1282.0568  28.22     1.736     1.614   0.0006         95     57.10064
 4.16    878.1899  17.5038     16538.04   1341.2797 -81.45     1.308     1.265   0.0035         96     52.86492
 3.50   1460.5002  16.3590     47468.95    251.2835   5.61     1.654     1.493   0.0012         97     54.31354
 0.00   1486.6885  99.0000    -13.09143    719.2939  46.09     0.550     0.346  99.0000         98     19.30354
 3.50   1414.7927  16.3657     47176.39    953.8018  16.79     1.588     1.463   0.0012         99     52.86492
 3.50   1464.8256  15.3815     116787.7    533.8793   8.77     1.726     1.631   0.0005        100      58.1781
 5.26   1438.3132  23.8876     46.23242    478.3628 -42.98     0.581     0.330   0.5553        101     23.64191
 5.59   1418.5559  18.9588      4330.02   1050.3850   9.61     1.122     0.961   0.0143        102     56.82808
 4.76   1397.2233  17.9585     10879.12    899.5108  86.80     1.274     1.107   0.0055        103     55.44519
 3.50    879.0897  14.9328     176555.6    166.0865  41.27     1.744     1.670   0.0004        104     58.97329
 3.50    918.1933  15.8099     78712.51    620.4602 -10.14     1.669     1.561   0.0008        105     56.55421
 6.55    922.6434  20.3715     1178.661    508.3062  47.22     0.575     0.334   0.0267        106     28.95531
 3.50   1383.8290  15.7198     85525.69    907.5646 -29.03     1.679     1.625   0.0007        107     57.10064
 3.71   1227.7982  16.9008     28819.16   1333.7915 -23.30     1.488     1.402   0.0020        108      53.1578
 3.50    941.8470  16.4072     45405.84    690.0891 -31.36     1.585     1.524   0.0013        109     54.59865
 4.04    935.6761  18.6295      5864.24    841.9122 -69.53     1.312     1.290   0.0096        110     51.67679
 3.54   1365.7184  17.0460     25211.91   1439.2535  28.65     1.470     1.353   0.0021        111     49.84152
 3.50   1228.1296  18.8097     4967.413    319.4973  63.77     1.038     0.938   0.0074        112      33.8959
 3.50   1306.8788  18.6215     5907.699    133.7601 -10.61     1.269     1.098   0.0075        113     40.56806
 3.50   1327.5264  25.6525     9.099365    458.5125  43.70     0.505     0.494   2.3039        114     19.30354
 3.50   1310.4937  15.1198     148627.6    923.8976   5.28     1.759     1.659   0.0004        115      59.4975
 7.57   1274.4218  19.5144     2595.692    570.1992  20.91     0.731     0.449   0.0182        116     43.52224
 3.50   1243.2957  15.6305     92855.77    570.4771   9.31     1.672     1.605   0.0007        117     56.82808
 4.70   1261.3463  24.6461     22.99133    470.3010 -47.19     0.568     0.337   0.9118        118     19.30354
 5.46   1276.7207  18.7906     5055.365    260.7224  42.87     1.013     0.864   0.0108        119      50.4607
 5.93   1267.5327  24.7411     21.06482   1562.4994 -42.84     0.507     0.492   1.5735        120     30.52157
 3.82   1247.6710  17.7237      13506.2     37.7784 -52.31     1.430     1.332   0.0041        121     51.37547
 5.63   1250.2047  18.6882     5555.348    492.4627  10.30     0.966     0.929   0.0102        122     51.97637
 6.24   1026.8057  18.2999     7943.969    607.6187 -18.49     1.433     0.855   0.0093        123      67.7918
 4.21   1236.0446  17.9099     11377.28    384.5432 -13.80     1.431     1.158   0.0050        124     52.86492
 7.43   1240.2915  19.2333     3362.606    865.0969  29.76     1.030     0.649   0.0192        125      59.4975
 3.50   1005.1924  19.2337     3361.472   1353.6735 -21.24     1.020     0.834   0.0105        126      32.4927
 3.50   1212.9338  14.7017     218438.8   1194.9965  44.05     1.804     1.776   0.0003        127     61.54974
 3.50   1237.0681  18.6087     5977.558   1246.3134 -29.54     1.381     1.191   0.0082        128     44.92654
 5.60   1041.7002  18.4220     7098.729    424.0800  32.55     1.245     0.990   0.0094        129     61.54974
 4.72    994.4263  17.9183     11289.24    145.0579 -12.80     1.464     1.253   0.0061        130     63.29089
 4.51   1020.4490  18.5572     6267.695    106.6252   5.18     1.232     0.958   0.0082        131     47.61105
 3.50   1000.2596  16.8331     30674.55    998.0823  45.51     1.490     1.421   0.0018        132     49.84152
 6.29   1039.7605  19.7935     2007.166     23.4234 -72.32     0.740     0.462   0.0195        133     36.11361
 5.97   1039.4113  19.3839     2927.053   1084.2495  -6.75     0.992     0.481   0.0155        134     41.70041
 7.23   1036.2368  19.8515     1902.754    208.0035  -0.16     0.690     0.425   0.0220        135     38.60708
 3.68   1192.5526  17.0973     24048.68   1031.3252 -22.69     1.501     1.366   0.0023        136     51.97637
 5.54   1178.3993  18.6227     5901.019      6.1971  20.57     1.178     0.869   0.0102        137     55.16446
 8.66   1045.3119  19.4062     2867.553   1382.3235 -44.40     0.564     0.340   0.0143        138      37.7942
 3.50   1170.3538  25.0069     16.49036    839.3178 -46.50     0.579     0.332   0.8989        139     13.64966
 3.61   1153.1121  18.4057     7206.579    195.4326  50.02     1.116     0.999   0.0056        140     37.38114
 3.50   1089.1863  18.1733     8926.564    792.4478   6.83     1.352     1.074   0.0051        141     41.70041
 8.62   1124.4893  19.2753     3235.128     68.4893  44.98     0.502     0.498   0.0140        142     41.70041
 3.50   1129.4515  16.6005     38001.62    620.8256  15.83     1.581     1.485   0.0015        143     52.86492
 5.30   1109.7222  18.9129     4517.044   1267.4922  39.20     1.053     0.958   0.0126        144     52.27423
 6.27   1069.3116  20.1750      1412.49     62.6478  43.23     0.576     0.334   0.0218        145     28.41404
 6.97   1049.0215  19.6877     2212.708   1382.5255  58.33     0.809     0.309   0.0155        146     31.52255
 3.50   1093.9700  17.9022     11458.56     16.2002   9.75     1.396     1.187   0.0042        147     44.22997
 4.11   1056.9001  18.0380     10110.72    239.6890  15.82     1.196     1.107   0.0051        148     47.93604
 5.90   1029.4553  19.3184     3109.051    766.3513 -70.12     0.929     0.814   0.0176        149      50.4607
