#   1 KRON_RADIUS            Kron apertures in units of A or B                         
#   2 MAGERR_APER            RMS error vector for fixed aperture mag.                   [mag]
#   3 Y_IMAGE                Object position along y                                    [pixel]
#   4 X_IMAGE                Object position along x                                    [pixel]
#   5 THETA_IMAGE            Position angle (CCW/x)                                     [deg]
#   6 FLUX_APER              Flux vector within fixed circular aperture(s)              [count]
#   7 A_IMAGE                Profile RMS along major axis                               [pixel]
#   8 B_IMAGE                Profile RMS along minor axis                               [pixel]
#   9 FLUX_RADIUS            Fraction-of-light radii                                    [pixel]
#  10 FLUXERR_APER           RMS error vector for aperture flux(es)                     [count]
#  11 MAG_APER               Fixed aperture magnitude vector                            [mag]
#  12 NUMBER                 Running object number                                     
 5.69   0.0167     16.5823    984.9381 -86.94      4757.78     2.491     1.473      9.104     73.16033  18.8565          1
 4.65   0.0232     17.7012     91.2437  62.60     3422.499     1.522     1.468      4.543     73.08579  19.2141          2
 3.89   0.0080     14.6993   1445.5360 -50.08     9949.249     1.774     1.715      4.856     73.12721  18.0555          3
 4.92   0.0029     53.0452     63.6400   7.51     27750.77     3.684     3.374     12.255     73.16861  16.9418          4
 3.50   0.0017     59.8229   1078.2557  68.73     45478.79     2.259     2.194      5.280     73.18516  16.4055          5
 3.50   0.0018     80.1066    537.4939  13.25     44068.89     2.197     2.153      5.158     73.07751  16.4397          6
 3.50   0.0001    182.1367   1107.2065 -19.35     786694.5     4.434     4.162      8.925     73.20171  13.3105          7
 7.03   0.0591     74.8750    127.7219  14.01     1343.864     1.032     0.750      4.601     73.13549  20.2291          8
 6.00   0.0366     96.3360     55.9325 -15.25     2166.412     1.233     1.071      4.838     73.11065  19.7106          9
 3.50   0.0012    121.7236    788.9908 -22.68     65167.88     2.307     2.266      5.344     73.19344  16.0149         10
 3.50   0.0021    162.3457   1468.0594 -22.19     36947.44     2.184     2.099      5.080     73.14378  16.6310         11
 3.50   0.0003    193.4410    317.9619 -18.77     277422.7     2.614     2.557      5.566     73.18516  14.4421         12
 3.73   0.0094    170.3082    877.2081 -16.24     8409.033     1.853     1.720      4.912     73.14378  18.2381         13
 8.43   0.0646    170.5123    325.5009 -43.32     1228.067     0.501     0.499      3.007     73.08579  20.3269         14
 5.39   0.0031    234.7470    403.5798 -33.70     25710.45     4.602     3.412     16.456     73.17689  17.0247         15
 8.52   0.0699    192.3390   1350.3169 -46.02     1135.882     0.573     0.336      3.296     73.11893  20.4117         16
 7.62   0.0223    210.6147    827.2098 -11.67     3558.578     1.692     1.270      9.645     73.12721  19.1718         17
 6.46   0.0406    206.3976    548.9096 -11.00     1956.239     1.162     0.913      5.124     73.12721  19.8214         18
 5.54   0.0491    212.3253   1305.9001  15.99     1616.187     1.207     0.956      4.283     73.06921  20.0288         19
 5.45   0.0413    223.7165   1225.4967 -32.80      1923.59     1.133     1.061      4.516     73.07751  19.8397         20
 3.50   0.0007    259.5990    997.2290 -20.35     119058.1     2.457     2.395      5.395     73.12721  15.3606         21
 9.37   0.0259    230.0000    561.9872   0.00      3069.68     0.857     0.289      4.012     73.16033  19.3323         22
 3.50   0.0010    265.5631     67.4617  12.68     83022.56     2.379     2.335      5.431     73.16033  15.7520         23
 6.10   0.0227    255.1530    612.7513 -35.09     3499.631     1.715     1.351      7.733     73.18516  19.1899         24
 8.83   0.0679    243.3442    112.6688  45.53     1169.045     0.581     0.331      3.486     73.12721  20.3804         25
 3.50   0.0002    312.1686    439.1684 -15.50       341267     2.705     2.607      5.503     73.17689  14.2173         26
 3.72   0.0040    287.4911   1486.1422  -1.82     19678.44     2.021     1.975      5.074     73.11065  17.3150         27
 4.40   0.0181    281.8382   1522.0143  18.69     4397.184     1.568     1.414      4.683     73.18516  18.9421         28
 3.89   0.0055    302.8144    201.5877   6.89      14509.9     1.944     1.891      5.200     73.15205  17.6458         29
 7.93   0.0456    289.3437    514.9204  66.35     1740.779     0.928     0.695      5.410     73.13549  19.9481         30
 3.50   0.0014    318.4723    905.2948  -7.79     57370.24     2.338     2.258      5.323     73.11893  16.1533         31
 6.59   0.0428    293.7296   1327.4131  -1.64     1858.762     1.004     0.960      4.762     73.20998  19.8769         32
 3.50   0.0003    351.3069   1345.6638 -23.56     291649.7     2.628     2.568      5.398     73.13549  14.3878         33
 3.50   0.0003    351.2153    890.6124 -13.41     302523.8     2.631     2.571      5.444     73.16033  14.3481         34
 3.64   0.0081    321.6846    697.1141   7.04     9821.729     1.839     1.740      4.940     73.10236  18.0695         35
 7.01   0.0429    327.0966    595.3744  14.64       1853.5     1.033     0.756      5.164     73.13549  19.8800         36
 5.03   0.0121    346.1313    866.8199 -21.13     6568.875     1.691     1.617      5.938     73.19344  18.5063         37
 4.77   0.0153    355.4344    431.5809 -85.32     5181.466     1.780     1.651      5.978     73.16033  18.7639         38
 4.03   0.0080    367.8295    760.9108  22.87       9934.4     1.848     1.800      5.248     73.13549  18.0571         39
 4.82   0.0423    360.8949   1500.1207  43.64     1876.219     1.236     1.057      4.688     73.10236  19.8668         40
 4.73   0.0203    367.0470    442.7178  -9.05     3906.415     1.464     1.361      5.192     73.12721  19.0706         41
 3.50   0.0016    394.8083    231.3112  36.26     48357.87     2.265     2.204      5.356     73.16033  16.3388         42
 4.01   0.0102    397.8153    354.4453  68.60     7761.719     1.774     1.704      5.061     73.16861  18.3251         43
 4.29   0.0114    396.8724   1460.8997   9.72     6954.991     1.724     1.620      4.996     73.08579  18.4443         44
 6.23   0.0476    393.5096   1088.5342  83.01     1669.411     0.922     0.916      4.658     73.13549  19.9936         45
 3.50   0.0018    419.1950    433.1605  66.64     44198.35     2.241     2.225      5.311     73.16861  16.4365         46
 3.56   0.0037    415.3754    837.2552  12.49     21473.33     2.101     2.022      5.113     73.19344  17.2203         47
 4.37   0.0209    423.9159    926.2800 -40.75     3794.659     1.480     1.433      4.787     73.11893  19.1021         48
 3.76   0.0050    437.5066    251.9277   5.83     15870.09     1.969     1.898      5.270     73.11893  17.5486         49
 3.50   0.0006    460.6513    807.4163  -5.38     136841.6     2.479     2.390      5.537     73.18516  15.2095         50
 7.11   0.0584    432.4907   1421.9971  62.54      1359.15     1.090     0.655      4.817     73.12721  20.2168         51
 4.52   0.0152    449.7924     21.2016  74.12     5212.429     1.591     1.556      5.368     73.12721  18.7574         52
 4.41   0.0140    457.2684     34.4971  28.39     5676.292     1.675     1.566      5.371     73.13549  18.6648         53
 7.34   0.0192    467.6591    850.6986  25.02     4135.815     2.717     1.299     13.337     73.10236  19.0086         54
 6.62   0.0457    463.3746    468.4101 -50.36     1738.931     1.083     0.971      4.522     73.16033  19.9493         55
 5.30   0.0363    471.7219    734.9535 -62.67     2190.557     1.226     1.147      4.870     73.12721  19.6986         56
 6.46   0.0497    470.8155    254.0362  83.60     1598.488     0.927     0.757      4.619     73.18516  20.0407         57
 5.12   0.0274    477.5528    922.7881 -46.17     2904.022     1.395     1.305      4.919     73.18516  19.3925         58
 8.91   0.0701    477.5064   1276.5192 -45.77     1132.582     0.506     0.494      3.035     73.11893  20.4148         59
 6.13   0.0669    483.9977   1070.2220   1.14     1188.255     0.938     0.759      4.141     73.16033  20.3627         60
 4.00   0.0067    512.1588   1302.5399   5.76     11855.79     2.391     1.756      6.240     73.16033  17.8652         61
 5.48   0.0055    532.4893    518.7509  45.20     14449.35     2.976     2.462     11.416     73.11065  17.6504         62
 8.18   0.0320    514.7327   1460.2910  10.70     2478.788     1.419     0.674      7.151     73.12721  19.5644         63
 5.59   0.0486    539.9737    999.6816  68.50      1635.85     1.108     1.077      4.494     73.15205  20.0156         64
 3.50   0.0003    587.6174   1315.8351  21.37     313499.4     2.605     2.544      5.440     73.16861  14.3094         65
 5.62   0.0342    558.6874   1041.5004 -74.66      2321.51     1.346     1.004      4.885     73.06921  19.6356         66
 4.12   0.0114    572.2595   1242.7538  12.07       6987.8     1.696     1.636      4.849     73.15205  18.4391         67
 4.34   0.0084    581.6237    319.2104  76.10     9479.527     1.866     1.784      5.614     73.16033  18.1080         68
 4.12   0.0084    580.1006    144.8694  38.08     9447.198     1.834     1.754      5.391     73.11893  18.1117         69
 3.50   0.0001    630.7087    483.2369  17.07     556985.4     2.771     2.712      5.697     73.11893  13.6854         70
 9.63   0.0478    570.3286     45.6708  44.97     1660.782     0.574     0.335      3.441     73.10236  19.9992         71
 7.40   0.0592    574.0139   1337.2577  89.43     1343.214     0.735     0.690      4.412     73.17689  20.2296         72
 6.99   0.0172    596.4741    782.5552  81.14     4625.589     1.934     1.485      9.371     73.12721  18.8871         73
 6.01   0.0297   1000.9565    542.7247  -3.06      2675.11     1.286     1.204      5.687     73.13549  19.4816         74
 3.50   0.0007    880.0087   1592.4181  51.21     110389.7     2.445     2.380      5.416     73.14378  15.4427         75
 7.60   0.0204    880.1438    224.1437  84.07     3896.536     2.800     1.309     14.100     73.12721  19.0733         76
 6.12   0.0320    868.9868   1103.1886  31.65     2478.828     1.395     1.174      5.958     73.14378  19.5644         77
 3.50   0.0003    858.9574   1224.4263  25.75     291163.9     2.639     2.588      5.590     73.20171  14.3897         78
 7.62   0.0429    837.2239   1247.4917  -0.45     1850.439     1.009     0.732      5.428     73.13549  19.8818         79
 6.58   0.0597    836.4489    298.4424  15.66     1331.317     0.922     0.915      4.586     73.17689  20.2393         80
 4.06   0.0124    822.4698    654.3860  51.50      6412.52     1.749     1.649      5.197     73.20998  18.5324         81
 4.47   0.0140    802.7502   1378.4924 -50.56     5664.676     1.668     1.607      5.066     73.11893  18.6671         82
 3.88   0.0048    798.0847    695.6307 -88.77     16697.88     2.469     1.952      5.895     73.16033  17.4933         83
 5.71   0.0287    800.0585     41.0773  48.00     2767.973     1.263     1.136      5.171     73.13549  19.4446         84
 8.62   0.0335    774.6725   1427.0803 -73.05      2367.87     1.065     0.754      6.388     73.11893  19.6141         85
 7.26   0.0552    766.2867    391.8763  68.87     1438.402     0.957     0.687      4.678     73.09408  20.1553         86
 6.14   0.0531    742.5024    556.5078  87.83     1495.478     0.941     0.916      4.169     73.09408  20.1130         87
 3.50   0.0002    723.6040    404.8631   9.84     382178.4     2.661     2.628      5.678     73.20998  14.0943         88
 3.50   0.0012    726.1969    848.3800  15.37     65500.39     2.324     2.280      5.412     73.15205  16.0094         89
 7.85   0.0809    726.8041   1178.4011 -70.63     982.1325     0.758     0.446      3.871     73.14378  20.5696         90
 6.61   0.0550    715.1652    808.1205 -42.84      1444.12     0.834     0.679      4.288     73.14378  20.1510         91
 6.22   0.0631    708.2938   1163.8535  70.11      1257.82     0.949     0.690      4.161     73.12721  20.3010         92
 5.04   0.0338    702.1606    952.2911 -58.08     2346.567     1.311     1.266      5.063     73.11065  19.6239         93
 9.71   0.0491    703.5060   1338.5083  45.05     1616.414     0.509     0.491      3.052     73.09408  20.0286         94
 6.78   0.0392    685.1113    644.0930 -46.87     2025.152     1.109     1.105      5.191     73.10236  19.7839         95
 3.50   0.0012    648.0393   1464.2296  50.66     65021.34     2.308     2.287      5.293     73.18516  16.0174         96
 3.50   0.0014   1557.4830    487.5880  30.43      56319.2     2.223     2.198      5.488     73.16861  16.1734         97
 4.37   0.0077    639.2827    536.8463   4.93     10247.42     1.863     1.760      5.417     73.12721  18.0235         98
 8.56   0.0754    623.2075   1581.5868 -70.23     1052.395     0.750     0.448      4.025     73.11065  20.4946         99
 7.45   0.0671    605.1619    586.1762  46.13     1184.434     0.751     0.570      4.355     73.17689  20.3662        100
 5.56   0.0714   1584.3810   1108.8988  67.78     1112.012     0.932     0.696      3.894     73.12721  20.4347        101
 4.42   0.0244   1541.2722    134.9443  13.66     3260.361     1.483     1.348      4.841     73.11893  19.2668        102
 5.96   0.0504   1569.8834     92.4813 -14.03     1576.578     1.030     0.877      4.511     73.11065  20.0557        103
 3.50   0.0014   1563.1888    304.0692  33.60     56888.73     2.231     2.169      5.378     73.19344  16.1624        104
 5.24   0.0368   1566.0160     21.8608  69.12     2157.121     1.193     1.113      5.038     73.16033  19.7153        105
 3.50   0.0001    881.5714    183.9562  -7.91     791026.6     2.889     2.836      6.219     73.20171  13.3045        106
 8.28   0.0760   1560.5081    861.5000 -44.77     1044.795     0.504     0.496      3.024     73.06921  20.5024        107
 4.93   0.0048   1552.1603    682.0789 -14.57     16667.26     3.248     2.869     11.169     73.13549  17.4953        108
 5.65   0.0321   1542.0186    654.5374 -87.78     2472.329     1.286     1.050      5.258     73.17689  19.5672        109
 3.58   0.0026   1506.6364    269.2758  19.22     30470.24     2.078     2.048      5.323     73.14378  16.8403        110
 4.27   0.0104   1514.3198    392.6094 -65.38     7636.375     1.724     1.661      5.295     73.16861  18.3428        111
 4.40   0.0131    899.8454    302.7468  21.09     6059.486     1.705     1.644      5.255     73.16033  18.5939        112
 3.78   0.0055    929.3561   1178.3571  40.94     14573.16     1.998     1.955      5.210     73.17689  17.6411        113
 3.73   0.0028    984.3853    558.4161  48.22     28407.48     2.164     2.121      5.516     73.16033  16.9164        114
 6.45   0.0448    938.8971   1066.5717  -7.20     1772.186     1.046     0.888      4.687     73.11065  19.9287        115
 3.61   0.0025   1079.4897    512.1982  35.25     31766.68     2.200     2.174      5.440     73.12721  16.7951        116
 3.76   0.0043   1025.4875   1379.8679  70.20     18673.65     2.063     2.006      5.322     73.10236  17.3719        117
 7.59   0.0175   1365.9508   1134.3726  67.81       4551.2     1.646     1.268      9.877     73.19344  18.9047        118
 5.04   0.0327   1407.5771    308.1961 -68.88     2429.688     1.305     1.160      4.858     73.16033  19.5861        119
 4.24   0.0087   1081.4326   1148.1920  76.16      9125.58     1.879     1.827      5.376     73.16861  18.1493        120
 4.67   0.0310   1439.1356    619.1685  17.78     2565.006     1.290     1.159      4.674     73.16861  19.5273        121
 3.50   0.0006   1433.9310   1090.2480  32.64     137525.2     2.438     2.410      5.596     73.13549  15.2040        122
 3.88   0.0046   1418.8557   1126.1411 -87.77     17447.51     2.033     1.977      5.524     73.12721  17.4457        123
 4.44   0.0239   1434.6732    224.7623  43.14     3323.796     1.488     1.365      4.945     73.15205  19.2459        124
 5.82   0.0478   1415.0815   1386.3472  77.71     1660.788     1.153     0.910      4.620     73.11065  19.9992        125
 5.70   0.0567   1391.8909   1038.5494  87.37     1400.221     1.129     0.956      4.719     73.13549  20.1845        126
 3.50   0.0001   1365.8345   1159.0762   2.19     754491.2     2.779     2.730      5.998     73.14378  13.3559        127
 5.52   0.0318   1389.9965    713.2199  26.49     2501.311     1.441     1.139      4.874     73.15205  19.5546        128
 3.99   0.0095   1372.0872   1018.9006  73.62     8389.487     1.776     1.726      5.158     73.07751  18.2407        129
 4.18   0.0111   1388.3904   1428.3644  63.57     7155.246     1.780     1.678      5.146     73.16861  18.4134        130
 3.50   0.0010   1392.8549    114.4669  45.89     76780.89     2.350     2.328      5.579     73.13549  15.8369        131
 7.45   0.0135   1356.7125   1135.8651  34.68     5898.864     2.488     2.319     14.928     73.12721  18.6231        132
 4.06   0.0076   1104.0939    751.8116  10.97     10398.73     1.947     1.818      5.471     73.13549  18.0075        133
 4.39   0.0119   1107.1418    428.0562  49.52     6664.884     1.759     1.625      5.298     73.12721  18.4905        134
 7.11   0.0323   1307.2703   1035.9486  -5.67     2459.207     1.406     1.189      7.780     73.12721  19.5730        135
 5.37   0.0270   1307.1144    669.5201   1.91     2938.147     1.465     1.247      5.717     73.11065  19.3798        136
 7.79   0.0369   1119.6740    329.5378  76.50     2152.083     1.116     0.912      6.554     73.12721  19.7179        137
 3.76   0.0028   1319.6647    659.9721 -64.79     28880.15     2.234     2.113      5.440     73.16033  16.8985        138
 5.54   0.0173   1329.3555    656.0067 -89.98     4597.784     1.566     1.299      6.568     73.18516  18.8936        139
 3.50   0.0004   1298.0471    724.8810  10.30     180795.2     2.550     2.510      5.560     73.12721  14.9070        140
 7.82   0.0518   1293.1099    742.1282 -46.15     1531.494     0.848     0.674      5.085     73.11893  20.0872        141
 4.56   0.0246   1265.0479    807.7001  72.72     3228.061     1.509     1.370      4.861     73.05264  19.2776        142
 5.14   0.0075   1272.2990    610.1044 -50.32     10559.82     3.036     2.119     10.030     73.10236  17.9909        143
 3.82   0.0050   1129.5450    183.6320  22.84     15814.27     2.020     1.949      5.297     73.17689  17.5524        144
 4.49   0.0142   1157.4498    236.5468  12.32     5587.667     1.723     1.649      5.429     73.15205  18.6819        145
 4.62   0.0120   1291.0820    761.7897  88.46     6595.979     1.723     1.681      5.725     73.16033  18.5018        146
 4.52   0.0196   1277.5862   1331.1212   2.89     4060.392     1.602     1.428      5.210     73.18516  19.0286        147
 4.89   0.0296   1233.9238    304.7859  23.66     2682.757     1.288     1.172      4.711     73.20998  19.4785        148
 5.06   0.0087   1209.5433   1278.6290 -84.00     9127.956     3.687     2.463     11.930     73.18516  18.1491        149
 3.50   0.0001   1221.1451    995.1828 -15.36     956344.6     4.846     4.455      9.602     73.18516  13.0985        150
 7.34   0.0523   1193.8496    124.3472  27.47     1518.778     0.760     0.654      4.563     73.16033  20.0963        151
 3.50   0.0016   1164.8112   1299.7474  53.33     48410.02     2.294     2.228      5.387     73.20171  16.3377        152
 6.25   0.0487   1236.6519   1553.3611 -39.11     1632.582     1.017     0.891      4.683     73.16861  20.0178        153
 4.58   0.0087   1218.5134   1194.7633 -41.25     9144.717     1.842     1.815      5.603     73.15205  18.1471        154
 3.68   0.0056   1214.2277    513.0873 -14.40     14110.25     1.992     1.907      5.123     73.15205  17.6762        155
 6.58   0.0484   1206.8467    838.7767 -10.08     1643.599     1.080     0.946      5.565     73.18516  20.0105        156
 8.08   0.0521   1203.1272   1075.8750  44.11     1524.149     0.850     0.676      5.103     73.11065  20.0924        157
 7.57   0.0482   1071.5475   1219.0000  79.56     1648.616     1.262     0.627      5.297     73.20998  20.0072        158
 7.86   0.0553   1150.9735     99.3088  84.90     1435.639     0.742     0.680      4.450     73.13549  20.1574        159
 6.38   0.0552   1201.2463    339.3479  21.75     1439.055     0.988     0.879      4.870     73.17689  20.1548        160
 3.50   0.0001   1151.3188    693.8892 -30.42     696761.1     2.827     2.778      5.744     73.11065  13.4423        161
 6.27   0.0144   1172.6172    758.2498 -83.05     5516.391     2.325     2.091     10.114     73.17689  18.6959        162
 3.63   0.0026   1138.0608    148.1607  53.01     30065.04     2.241     2.192      5.482     73.16861  16.8548        163
 3.70   0.0027   1094.6279    778.1694  56.19     28915.49     2.188     2.100      5.270     73.17689  16.8972        164
 4.96   0.0260   1088.9498    642.6968  15.79     3049.928     1.412     1.265      4.947     73.06921  19.3393        165
 3.50   0.0019   1039.8876    633.0624  38.89     41258.34     2.281     2.203      5.365     73.11893  16.5112        166
 4.64   0.0096   1038.2603    525.3976  43.80     8255.691     1.796     1.748      5.461     73.20998  18.2581        167
 3.50   0.0002   1022.9846     50.2039  -5.55     451717.8     2.736     2.690      5.879     73.13549  13.9128        168
 7.00   0.0710   1001.1524   1555.1804  43.91       1118.9     0.762     0.572      3.688     73.17689  20.4280        169
 3.91   0.0050   1009.4083    813.7189  68.05     16025.49     1.966     1.965      5.353     73.15205  17.5380        170
 5.94   0.0335   1010.7754    344.7836   5.43     2374.874     1.216     1.162      5.189     73.15205  19.6109        171
