#   1 KRON_RADIUS            Kron apertures in units of A or B                         
#   2 Y_IMAGE                Object position along y                                    [pixel]
#   3 MAG_BEST               Best of MAG_AUTO and MAG_ISOCOR                            [mag]
#   4 FLUX_BEST              Best of FLUX_AUTO and FLUX_ISOCOR                          [count]
#   5 X_IMAGE                Object position along x                                    [pixel]
#   6 THETA_IMAGE            Position angle (CCW/x)                                     [deg]
#   7 A_IMAGE                Profile RMS along major axis                               [pixel]
#   8 B_IMAGE                Profile RMS along minor axis                               [pixel]
#   9 MAGERR_BEST            RMS error for MAG_BEST                                     [mag]
#  10 NUMBER                 Running object number                                     
#  11 FLUXERR_BEST           RMS error for BEST flux                                    [count]
 3.87     54.0606  16.4717     42788.68     63.4906  10.24     5.079     4.642   0.0046          1     182.2014
 3.50     17.6089  18.6675     5662.472    984.8857 -88.11     4.179     1.842   0.0181          2     94.53356
 3.50     18.7909  19.1551     3613.889     91.0583 -77.68     1.665     1.590   0.0167          3     55.57718
 3.50     15.4372  18.0953     9591.371   1445.5699 -58.56     1.765     1.663   0.0066          4     58.72551
 8.71      7.7679  22.9238     112.3267   1469.4524 -68.75     0.745     0.449   0.4676          5     48.36433
 5.20      4.5160  21.6176     374.0833    145.3089  44.41     1.257     0.896   0.1483          6     51.07843
 7.14     10.4944  22.4228     178.1919   1183.4982  44.88     0.503     0.497   0.2214          7     36.32488
 3.50     60.5870  16.4110     45249.22   1078.2454  78.89     2.101     1.994   0.0017          8     69.26883
 7.81     14.3362  22.5823     153.8475    839.6812  45.80     0.572     0.336   0.2383          9     33.75745
 3.71     25.5086  20.8636     749.1346    367.0246 -44.58     1.386     1.224   0.0674         10     46.46695
 3.96     17.9751  21.8426     304.0491    384.0876  -6.21     1.065     0.750   0.1174         11     32.85709
 3.50    182.7325  13.0896     964147.5   1107.3342 -33.02     5.842     5.048   0.0002         12     184.6537
 7.95     24.5880  21.2645     517.8649    383.1618  87.82     1.000     0.715   0.1364         13     65.02606
 7.77     35.5278  21.4406     440.2927   1110.5074  83.69     1.018     0.640   0.1504         14     60.98018
 6.92     34.3293  21.1022     601.3381    326.4466 -55.26     1.064     0.824   0.1141         15     63.15441
 5.72     38.8936  22.4557     172.8734   1521.2977  57.82     1.154     0.680   0.3077         16     48.98046
 5.84     39.8461  22.0254     256.9529   1170.4801  -0.97     0.941     0.732   0.1977         17     46.78852
 5.61     45.8528  21.5064     414.4336    440.1219 -39.18     1.403     1.002   0.1686         18     64.33057
 3.50     43.2799  22.2876     201.8209    915.3459 -44.82     1.174     0.700   0.1614         19     29.99428
 3.50     80.9598  16.4502     43642.78    537.4124 -67.89     2.020     1.918   0.0017         20     67.06926
 6.79     40.5038  23.6893     55.49915   1225.9862 -32.64     0.782     0.319   0.6062         21     30.97796
 6.55     51.1657  22.6536     144.0685    265.9854  36.65     0.939     0.465   0.3224         22     42.77035
 6.43     51.0299  22.6049     150.6793   1435.2108 -33.32     0.788     0.497   0.2734         23      37.9401
 6.80     49.3377  24.1895     35.01074   1233.6754  45.58     0.575     0.334   0.8826         24     28.45508
 3.50     75.9613  20.1787     1407.712    127.6706  65.46     1.365     1.260   0.0338         25     43.80946
 5.75     82.8388  21.6582     360.3452    421.4473 -51.35     1.212     0.808   0.1667         26     55.30673
 5.12     91.5345  20.3893     1159.482    376.7948 -74.03     1.886     1.573   0.0800         27     85.36523
 3.50    122.5929  16.0185      64950.2    788.9210 -57.93     2.107     1.961   0.0012         28     68.83454
 3.64     97.3432  19.6946     2198.628     55.9943  -9.78     1.501     1.385   0.0252         29     51.07843
 6.18     92.9185  21.9555     274.0326    495.8493  75.14     1.341     0.684   0.2255         30     56.91015
 6.08     98.7693  21.0052     657.5176    452.5781 -24.86     1.703     0.981   0.1260         31     76.27439
 4.43     96.5883  22.9014     114.6635   1075.8324  21.36     0.766     0.435   0.2377         32     25.09502
 8.01    114.3489  22.5978     151.6682    270.3333 -45.61     0.584     0.329   0.2511         33     35.06467
 7.06    117.8673  22.1893     220.9429     66.8318  46.85     0.748     0.562   0.2187         34     44.48871
 6.06    118.7044  22.5278     161.7594    990.6282 -41.71     0.576     0.332   0.1724         35     25.68557
 8.28    118.5058  22.2339     212.0444    154.4909  45.33     0.502     0.498   0.2022         36     39.48931
 4.24    235.9001  16.3831      46426.9    403.1562 -56.45     6.429     5.300   0.0056         37     240.1417
 3.50    194.4204  14.4275       281178    317.8754 -62.51     2.391     2.159   0.0003         38     76.86188
 3.50    163.1395  16.6429     36547.32   1468.1359 -60.49     1.999     1.918   0.0020         39     65.94196
 5.04    132.4922  22.5219       162.65    418.0420   0.54     0.804     0.500   0.2068         40     30.97796
 3.50    171.1363  18.2854     8051.184    877.1224 -68.32     1.766     1.710   0.0079         41     58.72551
 5.36    147.2958  22.5266     161.9398    353.1507 -30.05     0.879     0.605   0.2544         42      37.9401
 6.86    152.5081  22.4439     174.7605   1279.9960  -1.46     0.803     0.500   0.2547         43     40.97999
 4.82    172.3745  20.2858     1275.493    325.0115 -64.12     1.467     1.346   0.0561         44     65.94196
 3.59    165.8674  20.9401     698.1693   1445.5350  -0.27     1.320     1.134   0.0665         45     42.77035
 4.17    167.5935  21.0890     608.7015    104.3067 -28.86     1.173     1.010   0.0769         46      43.1195
 5.09    170.4302  21.7042     345.4044   1368.2188 -47.27     1.080     0.717   0.1367         47     43.46585
 5.71    169.4399  22.6646     142.6182    651.5150 -35.83     0.503     0.493   0.2126         48     27.92316
 4.46    181.2359  21.6294     370.0364    574.8821  23.27     1.275     0.773   0.1265         49      43.1195
 4.36    193.3881  20.6782     888.6438   1350.3933 -35.33     1.357     1.132   0.0638         50     52.23945
 8.45    186.9876  21.6269     370.8766   1354.0366 -74.11     0.796     0.783   0.1891         51     64.56323
 3.72    211.5532  18.8990     4574.902    827.4822  -7.29     3.936     1.949   0.0236         52     99.32894
 3.50    207.5034  19.9973     1663.751    548.9205 -81.30     1.549     1.369   0.0316         53     48.36433
 7.58    196.0324  22.3521     190.1724    267.5382  56.83     0.765     0.324   0.2167         54      37.9401
 4.87    229.8139  19.9104      1802.37    414.8996 -19.48     1.967     1.652   0.0358         55     59.42468
 3.50    211.4506  21.3035     499.5942    684.4574 -82.33     1.680     1.042   0.1003         56     46.14313
 4.07    209.4233  20.6701     895.2582    349.7025  43.13     1.598     1.217   0.0684         57     56.38074
 3.50    204.3587  22.2923     200.9464    250.6058 -42.34     0.981     0.848   0.1700         58     31.45827
 3.50    212.9739  20.0500     1584.889   1305.9009  53.84     1.403     1.346   0.0312         59     45.48858
 4.51    231.0750  18.8729     4686.364    562.2184  -9.41     3.381     2.852   0.0314         60     135.6944
 3.50    204.4280  25.3100       12.474   1498.4841 -36.27     0.505     0.489   1.6516         61     18.97005
 7.06    205.7527  22.9299     111.6956    937.2287 -19.28     0.855     0.346   0.3611         62     37.14127
 3.57    224.5217  19.9263     1776.069   1225.8657 -53.97     1.548     1.416   0.0314         63     51.37114
 3.50    260.5782  15.3597     119161.6    997.2145 -60.88     2.174     2.033   0.0006         64     70.97943
 3.50    266.7132  15.7520     83026.27     67.3777 -78.85     2.116     1.998   0.0009         65     69.26883
 5.20    223.1785  20.7618     822.8046    345.6050 -22.38     1.579     1.463   0.1004         66     76.07755
 3.50    223.2261  21.1133     595.2114    774.7524 -19.32     1.202     1.068   0.0707         67     38.72245
 7.24    219.2476  22.1284     233.6992    740.7268 -18.84     0.845     0.353   0.1781         68     38.33327
 4.32    244.2684  20.1938     1388.327    112.8208  77.16     2.123     1.544   0.0590         69     75.48396
 4.49    256.2215  19.0605     3942.867    612.7909 -37.89     2.503     1.802   0.0256         70     92.77241
 6.09    239.9036  20.8944     728.2102    838.4949 -37.93     1.369     1.007   0.1039         71     69.70042
 5.00    240.0472  23.0406     100.8698   1478.8186 -53.93     0.940     0.464   0.3438         72     31.93135
 3.50    313.2080  14.2020     346094.6    439.2092 -58.52     2.401     2.209   0.0002         73     78.21552
 6.70    252.6677  20.9901     666.7245   1372.6152 -44.30     1.226     0.877   0.1096         74     67.29245
 6.94    251.4614  21.0175     650.1145    107.4959 -45.23     1.084     0.836   0.1075         75     64.33057
 5.43    254.3471  22.3310     193.9016   1352.5072   0.00     0.868     0.476   0.1940         76     34.63441
 3.50    288.3375  17.3356     19309.47   1486.2755 -55.67     1.869     1.782   0.0035         77     62.19747
 3.50    282.7324  19.0007     4165.945   1522.1934 -43.42     1.561     1.489   0.0136         78     52.23945
 6.94    271.2609  21.3034     499.6328   1273.5472 -11.08     1.161     0.926   0.1524         79     70.12935
 3.57    290.6129  20.0736     1550.834    514.7311 -61.03     1.859     1.552   0.0415         80     59.23397
 3.50    319.4862  16.1607     56980.61    905.2509 -61.70     2.069     1.942   0.0013         81     67.95763
 3.50    303.9936  17.6704     14185.24    201.5941 -73.78     1.829     1.708   0.0046         82      60.7338
 5.16    297.8686  20.3180     1238.266   1413.5083 -39.26     2.150     1.549   0.0801         83      91.3062
 3.56    294.7549  19.9656     1713.037   1327.3584 -23.02     1.400     1.322   0.0301         84     47.42513
 3.50    352.2489  14.3770       294567   1345.7200 -52.96     2.313     2.158   0.0003         85     75.48396
 3.50    352.2323  14.3345     306324.5    890.5778 -52.57     2.350     2.174   0.0003         86     76.86188
 6.19    294.2966  20.4777     1068.895   1475.4912 -66.12     1.171     0.977   0.0649         87     63.86271
 3.50    302.8696  21.0571     626.8713    563.5292  64.37     1.321     1.261   0.0741         88     42.77035
 3.50    322.8518  18.1180     9392.846    697.1324 -67.39     1.711     1.657   0.0065         89     56.64607
 6.40    309.7060  21.1104     596.7894     85.4069 -81.45     1.983     0.885   0.1508         90     82.86967
 5.00    322.1810  20.6504     911.6899    641.0074 -76.22     2.195     1.269   0.0961         91      80.6692
 4.49    328.1170  19.8915     1834.013    595.2689 -50.18     1.627     1.559   0.0417         92     70.34283
 5.36    317.8036  22.8022     125.6331    226.3809 -71.76     0.752     0.447   0.2549         93     29.49014
 3.66    347.0935  18.5454     6336.279    866.9109 -38.15     1.821     1.669   0.0107         94     62.43808
 5.35    332.8581  21.4745     426.7656     93.4377  -7.83     1.068     0.836   0.1270         95     49.89039
 4.20    330.3324  21.9772     268.6107   1545.6162  -6.15     0.994     0.631   0.1310         96     32.39753
 4.50    335.7877  21.9061     286.7914   1440.3218 -48.97     0.986     0.855   0.1510         97     39.86721
 3.79    356.5633  18.8180     4929.326    431.6613 -76.63     1.957     1.739   0.0149         98     67.51491
 3.50    350.8575  20.8599     751.6603     54.4747 -39.25     1.290     1.224   0.0608         99     42.06335
 5.14    348.6108  23.1518      91.0459     42.2829 -59.05     0.983     0.545   0.4430        100     37.14127
 3.50    368.9762  18.1061     9496.438    760.8817 -55.02     1.739     1.636   0.0064        101     56.38074
 7.08    351.1112  22.2097     216.8206    920.2661 -17.72     0.939     0.676   0.2729        102     54.48732
 3.50    362.0320  20.0240     1623.334   1500.1698  10.15     1.428     1.398   0.0317        103     47.42513
 3.61    368.2886  19.1967     3478.064    442.6443 -44.79     1.606     1.455   0.0168        104     53.65541
 6.16    353.6877  24.4516     27.50244    350.3493  43.36     0.575     0.334   1.0594        105      26.8277
 3.50    396.0084  16.3488     47913.94    231.2756 -59.51     2.003     1.932   0.0015        106     65.94196
 6.26    360.5867  22.2561     207.7561    533.2850  21.62     1.031     0.915   0.3110        107     59.48656
 3.53    361.4968  21.6534      361.929   1033.7421 -34.22     1.094     0.910   0.1000        108     33.31031
 5.96    363.8832  22.2202     214.7489   1415.6968 -78.20     1.038     0.416   0.1919        109      37.9401
 3.50    373.7502  21.3695     470.1215    992.1270 -58.62     1.191     1.021   0.0849        110     36.73534
 4.95    373.9765  21.4726     427.5176   1083.8434 -45.30     1.443     1.000   0.1459        111     57.43468
 6.12    369.9420  22.1690     225.1144    210.5096  87.58     0.786     0.499   0.1792        112     37.14127
 6.59    371.1455  21.7745     323.7538     71.4292 -16.36     1.204     0.716   0.2004        113     59.73809
 6.58    376.9810  20.6593     904.1945    753.9877  38.43     1.723     0.867   0.0942        114       78.407
 3.50    397.8752  18.4893     6672.149   1461.0035 -57.54     1.678     1.607   0.0090        115     55.30673
 5.17    376.6144  22.8871     116.1833     86.3840  23.01     1.364     0.457   0.3691        116     39.48931
 3.50    398.9585  18.3659     7475.688    354.4046 -56.82     1.759     1.641   0.0085        117     58.21261
 5.97    380.9103  21.6981     347.3466    125.6369 -22.70     0.902     0.682   0.1432        118     45.81702
 3.64    394.5150  20.0656     1562.233   1088.6681 -16.65     1.553     1.372   0.0357        119     51.37114
 3.50    420.3994  16.4459     43817.21    433.1460 -57.35     1.997     1.878   0.0016        120     65.71419
 3.50    416.4439  17.2453     20982.88    837.1794 -67.30     1.895     1.794   0.0033        121     62.91654
 5.36    390.0044  22.5265     161.9626   1195.2917  85.80     0.739     0.674   0.2408        122     35.90973
 6.62    390.2305  22.5184     163.1732    260.4030  71.18     0.744     0.452   0.2445        123     36.73534
 4.81    397.2771  21.9359     279.0266    977.5050 -21.24     1.103     0.780   0.1692        124     43.46585
 5.97    397.9344  21.0654     622.0503    626.5070  15.77     1.528     0.795   0.1135        125     65.02606
 3.50    440.8153  21.1553     572.6249    305.5588 -50.74     1.189     1.082   0.0734        126     38.72245
 6.01    407.6977  22.1732     224.2378    281.6329 -82.40     1.007     0.467   0.1985        127     40.97999
 7.28    415.6719  20.8173      781.804      2.5615  28.95     1.141     0.754   0.0741        128     53.37522
 7.80    404.5128  21.5453     399.8434    526.8889  -1.99     0.784     0.499   0.1288        129     47.42513
 3.50    425.0124  19.1593      3599.76    926.1458 -46.76     1.635     1.521   0.0162        130     53.65541
 3.50    461.8470  15.2040     137527.7    807.3679 -54.81     2.148     2.048   0.0006        131     71.19037
 7.26    413.7131  22.4893     167.6021   1562.2982 -60.78     1.155     0.451   0.3291        132     50.78402
 3.50    438.7642  17.5819     15390.52    251.9271 -54.88     1.813     1.728   0.0043        133       60.238
 4.91    421.8596  20.6224      935.509    158.7295  50.88     1.660     1.444   0.0855        134     73.67449
 0.00    412.6987  99.0000     -16.4707    199.3263  43.64     0.560     0.342  99.0000        135     23.87012
 9.12    415.3152  22.4757     169.7189    558.6304  42.89     0.584     0.328   0.2428        136      37.9401
 6.12    419.5396  21.8494     302.1652   1203.5216  13.28     1.222     0.608   0.1857        137      51.6622
 3.50    433.6358  20.4284     1118.508   1421.9036 -17.73     1.428     1.337   0.0457        138      47.1079
 6.05    427.7109  21.3062     498.3468   1179.3110  20.69     1.296     0.986   0.1447        139     66.39518
 5.64    420.6244  22.6241     148.0312   1579.7715  17.88     0.757     0.446   0.2343        140     31.93135
 7.11    424.8950  22.5687     155.7866   1063.8502 -46.61     0.815     0.670   0.3601        141      51.6622
 6.86    431.8513  21.4099      452.932    717.7710 -64.55     0.930     0.895   0.1468        142     61.22557
 5.00    434.9498  21.1293     586.5134    151.0015  25.47     1.154     0.980   0.0946        143     51.07843
 4.46    468.5386  18.3186     7808.144    850.1890  22.22     7.442     1.903   0.0227        144     163.0027
 3.51    451.1122  18.8101     4965.526     21.1382 -39.37     1.703     1.572   0.0122        145     55.84632
 5.35    446.1109  20.6910     878.2157    122.1262 -32.70     1.653     1.204   0.0916        146     74.08041
 7.20    434.6680  23.1767     88.98523    353.3013  46.61     0.562     0.341   0.3599        147     29.49014
 3.57    448.0235  20.8106     786.6055    884.3464  -1.26     2.252     1.419   0.0855        148     61.95592
 3.50    458.6750  18.7361     5315.536     34.3958 -60.50     1.679     1.537   0.0112        149     54.76182
 5.33    444.1706  22.6391     146.0024    654.5854 -70.39     0.757     0.448   0.2268        150     30.49009
 3.53    464.5988  19.9712     1704.203    468.4730 -73.92     1.596     1.441   0.0329        151      51.6622
 4.28    453.8176  22.1620      226.571   1533.1399  37.42     0.790     0.678   0.1485        152     30.97796
 5.10    461.9113  21.0730     617.7467   1096.1396  54.35     1.156     1.063   0.0968        153     55.03495
 3.50    472.0582  20.1760     1411.229    254.1115 -72.83     1.524     1.321   0.0370        154      48.0533
 5.22    462.3787  21.6460     364.4091    724.6503 -28.34     1.116     0.728   0.1336        155     44.82448
 7.22    457.7005  23.0541     99.62268   1223.6603 -42.96     0.565     0.339   0.3270        156     29.99428
 3.50    472.9619  19.7920      2009.97    734.7728 -38.58     1.496     1.347   0.0260        157      48.0533
 3.50    478.7596  19.4710     2701.488    922.8173 -35.41     1.544     1.447   0.0204        158     50.78402
 3.92    478.7934  20.4682     1078.221   1276.8331 -53.38     1.380     1.256   0.0503        159     49.89039
 4.44    476.5136  22.2752     204.1292   1168.0371 -89.76     0.813     0.676   0.1699        160     31.93135
 4.27    533.7934  17.2573     20753.52    518.6295  28.40     4.107     3.566   0.0083        161     158.2418
 3.50    484.9557  20.3801     1169.406   1070.4277 -66.11     1.365     1.226   0.0407        162     43.80946
 7.96    473.4778  22.3720     186.7246    781.5225  45.02     0.505     0.494   0.2297        163     39.48931
 4.94    496.9649  19.4968     2637.938     82.5904  56.28     2.338     2.068   0.0435        164     105.6208
 5.19    489.7222  20.8345     769.4761    839.5610  85.43     1.974     0.945   0.0971        165     68.83454
 4.09    496.5237  19.6817     2225.034   1186.6776 -15.91     2.961     1.842   0.0453        166     92.77241
 4.58    481.6935  22.5016     165.7124   1309.1306  71.28     0.894     0.694   0.2353        167     35.90973
 3.62    479.8593  22.4998     165.9866    682.6145  17.68     1.030     0.720   0.1962        168     29.99428
 5.99    481.6788  22.4912     167.3082   1520.4889  -0.10     0.921     0.467   0.2463        169      37.9401
 3.50    513.2880  17.9121     11354.23   1302.2382 -66.23     1.839     1.727   0.0063        170     65.46789
 3.73    505.2572  20.5232      1024.97    763.0609  35.25     1.787     1.614   0.0651        171     61.46999
 3.50    516.2645  19.3141     3121.432   1460.9927  24.44     4.349     1.624   0.0315        172     90.48138
 3.50    502.7133  21.1207     591.1968    863.5478  86.67     1.248     1.114   0.0746        173     40.61245
 3.50    498.6334  22.0482     251.6125    366.2104 -49.91     1.014     0.951   0.1438        174     33.31031
 3.93    502.3745  21.9659     271.4103   1310.0952 -19.71     1.173     0.897   0.1549        175     38.72245
 4.28    514.1793  20.2417     1328.344   1310.0308  82.91     1.494     1.427   0.0401        176     49.09971
 3.50    514.5804  20.9665     681.3912   1179.1089 -56.89     1.341     1.068   0.0629        177     39.48931
 5.57    510.5956  20.6679     897.0679    164.3583  -2.33     2.204     1.004   0.0972        178     80.29659
 4.19    520.3478  21.3214     491.4155    641.4071 -66.00     1.226     0.908   0.0945        179     42.77035
 8.37    511.4778  22.3305     194.0068    453.4842  44.04     0.503     0.496   0.2211        180     39.48931
 3.50    519.1760  22.3748     186.2378   1518.8837  43.20     0.828     0.669   0.1463        181     25.09502
 3.50    588.6913  14.2958     317457.1   1315.8531 -46.59     2.329     2.162   0.0003        182     76.66655
 8.13    521.5092  22.0365     254.3292    854.4668 -59.60     0.500     0.498   0.1686        183     39.48931
 4.34    541.0020  20.0405     1598.862    999.7307 -58.21     1.569     1.410   0.0426        184     62.67777
 4.50    536.8311  21.7264     338.4062    404.4706  47.38     1.380     0.681   0.1350        185     42.06335
 6.50    545.6520  22.0898     242.1573    933.8276  70.97     1.235     0.753   0.2757        186     61.46999
 3.50    631.9619  13.6458     577682.7    483.1478 -47.23     2.858     2.668   0.0002        187     93.73714
 3.70    559.8239  19.6791      2230.23   1041.5421 -18.76     1.577     1.488   0.0271        188     55.57718
 3.50    573.4060  18.4714     6783.132   1242.7255 -48.70     1.761     1.644   0.0093        189     57.95446
 4.47    597.4254  18.5516     6300.169    782.7070 -83.48     3.545     3.355   0.0259        190     150.1712
 4.22    571.6400  20.0154     1636.242     45.6350  59.09     1.992     1.404   0.0457        191     68.83454
 4.18    556.2180  22.7022     137.7573    778.7782  45.57     0.804     0.683   0.2365        192     29.99428
 3.50    581.4234  18.1479     9138.042    144.8262 -85.18     1.779     1.649   0.0068        193     57.43468
 3.50    572.2832  20.0829     1537.569   1448.0365  21.10     2.736     1.688   0.0517        194     73.26632
 3.95    565.5809  21.5431     400.6276    139.6900 -53.99     1.148     1.009   0.1101        195     40.61245
 3.50    582.9928  18.1558     9071.649    318.9863 -39.14     1.741     1.667   0.0068        196     57.17302
 6.38    563.6564  25.7359     8.426392    905.5596   5.49     1.049     0.627   6.4685        197     50.19004
 5.58    575.7251  20.1603     1431.849   1336.6144 -63.76     1.448     1.293   0.0559        198     73.67449
 6.82    576.9731  21.2862     507.6162   1001.5249 -66.98     1.399     1.121   0.1784        199     83.41072
 3.50    585.4980  21.1092     597.5017     75.9934  34.12     1.282     1.160   0.0758        200     41.70536
 5.61    576.2507  23.7938     50.40527    549.0676  -3.84     0.664     0.432   0.6354        201     29.49014
 7.52    579.6700  22.7699     129.4269    740.6813 -45.54     0.569     0.338   0.2679        202     31.93135
 4.02   1002.4446  20.4411      1105.53   1555.2887 -75.10     1.475     1.318   0.0535        203     54.48732
 4.61   1597.9525  20.8100     787.0604    655.1014 -32.85     1.793     1.294   0.0807        204     58.46962
 5.62   1595.9124  21.4195     448.9518    374.0342  41.13     1.272     1.258   0.1562        205     64.56323
 6.88   1594.0922  21.4106     452.6503   1384.9441 -19.49     1.473     0.518   0.1390        206     57.95446
 6.99   1592.8507  22.1454     230.0566    567.1038  41.77     0.836     0.671   0.2411        207     51.07843
 3.51   1571.3456  20.1132     1495.297     92.7359 -46.28     1.463     1.342   0.0349        208      48.0533
 3.50   1523.4841  23.4970     66.24988     14.4994  44.62     0.509     0.490   0.3110        209     18.97005
 3.50   1515.7332  18.3882     7323.696    392.7216 -44.48     1.718     1.630   0.0086        210     57.95446
 5.42   1516.1362  21.2576     521.1501   1547.0354  59.82     1.454     1.004   0.1336        211     64.09707
 0.00    952.6561  99.0000    -6.509155    886.7118 -47.95     0.561     0.340  99.0000        212     27.38091
 3.50    950.6980  22.4003     181.9132    267.9047  28.11     0.947     0.863   0.1849        213     30.97796
 3.53    948.7698  21.7763     323.2151    445.2767  -8.36     1.064     0.910   0.1104        214     32.85709
 3.50    947.9496  22.9700     107.6467    133.2829  89.95     0.730     0.666   0.2408        215     23.87012
 3.72    939.9116  20.0819      1539.06   1067.0671 -40.96     1.543     1.337   0.0365        216      51.6622
 7.61    942.2944  22.9101     113.7513    725.6536  42.39     0.565     0.339   0.3049        217     31.93135
 7.42    939.1722  21.0816     612.8645    515.9601  26.90     1.278     0.921   0.1379        218     77.83117
 3.50    930.5093  17.6689     14204.68   1178.4397 -63.94     1.809     1.764   0.0046        219       60.238
 5.70    933.8318  23.5408     63.63403   1118.5709  12.09     0.875     0.614   0.6868        220     40.24155
 7.04    933.5328  24.1415     36.59363   1027.5371  45.25     0.516     0.481   0.9751        221     32.85709
 4.76    929.1013  20.5358     1013.167   1322.4060 -85.48     1.407     1.267   0.0661        222     61.71344
 6.25    926.4553  22.9579     108.8555    665.7037 -88.92     0.928     0.456   0.4052        223     40.61245
 8.62    926.6777  22.8161     124.0369    934.3347  44.43     0.573     0.336   0.3216        224     36.73534
 5.11    926.6449  23.6637       56.823     46.6976 -47.40     0.572     0.335   0.3916        225        20.49
 0.00    919.9985  99.0000    -7.154175   1027.5399  56.68     0.762     0.323  99.0000        226     30.97796
 8.42    918.4757  22.0875     242.6542    252.9750  32.09     0.796     0.313   0.1767        227     39.48931
 4.47    913.5744  20.7970     796.4957    838.4932 -17.32     1.372     1.256   0.0783        228     57.43468
 4.51    913.3035  21.4907     420.4688   1000.9104 -11.44     1.225     0.979   0.1233        229     47.74025
 8.56    908.4130  22.4475     174.1809    658.8084 -20.19     0.749     0.447   0.2957        230     47.42513
 5.80    905.2918  21.6921     349.2601   1315.1288  40.86     1.390     0.833   0.1865        231     59.98857
 3.50    901.2191  18.6397         5809    302.8273 -74.09     1.691     1.589   0.0103        232     55.30673
 3.50    882.8359  13.2254     850813.8    183.6337 -36.29     4.129     3.698   0.0002        233      133.016
 4.11    879.3942  18.4162     7136.775    224.3853 -89.82     7.579     1.983   0.0235        234     154.6961
 5.48    886.6755  21.3168     493.4878   1304.8312  69.25     1.659     1.272   0.1709        235     77.63828
 8.04    889.4891  22.2406     210.7407    680.4579  50.42     0.503     0.495   0.2035        236     39.48931
 4.55    896.9634  20.1785     1407.954    538.7819  -3.00     2.098     1.525   0.0605        237       78.407
 4.20    886.5468  20.8419     764.2297   1500.5457   3.01     1.461     1.296   0.0786        238     55.30673
 4.40    885.8094  21.8933     290.1799    339.2329 -50.57     1.330     0.893   0.1727        239     46.14313
 5.88    879.0529  20.3733     1176.687   1177.1078  78.38     1.941     1.680   0.0954        240     103.3244
 4.58    878.3823  21.6264      371.064    960.6887  83.41     1.256     1.192   0.1587        241     54.21144
 7.22    879.8236  22.7305      134.213    673.3711   4.42     0.996     0.374   0.3375        242     41.70536
 4.95    877.6362  22.1434     230.4922    541.8445 -68.79     0.889     0.666   0.1750        243     37.14127
 4.43    870.1768  19.5703     2465.285   1103.6156 -61.56     2.074     1.779   0.0364        244     82.68854
 3.50    860.0833  14.3767     294657.8   1224.4911 -47.68     2.319     2.159   0.0003        245     75.68234
 5.29    868.6845  20.6593     904.2557    939.5432  25.12     1.995     1.411   0.1038        246      86.4127
 5.10    870.6064  22.1898     220.8339    643.5370 -54.39     1.037     0.813   0.2253        247     45.81702
 3.90    889.3626  20.7780     810.5894    325.6322  17.18     1.630     1.281   0.0734        248     54.76182
 7.64    867.6809  22.4402     175.3505    454.3147  45.23     0.563     0.341   0.1978        249     31.93135
 0.00    892.3138  99.0000    -25.63684   1453.3175 -44.80     0.562     0.341  99.0000        250     18.97005
 8.00    898.5093  22.4605     172.1132    987.5135  45.27     0.505     0.495   0.2492        251     39.48931
 3.50    881.0706  15.4417     110486.7   1592.5045 -66.40     2.127     1.980   0.0007        252     70.34283
 5.35    900.5183  25.5160     10.31848    379.4817 -45.00     0.511     0.488   2.8236        253      26.8277
 4.33    860.3961  20.8838     735.3514   1157.4747  -1.20     1.415     1.294   0.0844        254     57.17302
 6.61    861.1950  22.5509     158.3518   1554.1703  42.07     0.759     0.567   0.2933        255     42.77035
 4.62    859.2386  21.1788     560.3982   1339.8370 -46.16     1.590     1.265   0.1233        256     63.62748
 4.33    894.8569  21.5722      390.049   1425.8367 -39.54     1.211     1.023   0.1294        257     46.46695
 3.94    856.4521  22.5413     159.7695    545.3185  83.02     1.014     0.653   0.2106        258     30.97796
 6.69    845.8800  20.3761     1173.725   1206.5642  85.17     1.807     1.294   0.0919        259     99.32894
 4.64    845.9662  21.2734     513.6195   1063.6742  89.16     1.197     1.105   0.1086        260     51.37114
 8.32    847.6516  22.0209     258.0046    358.7094 -47.94     0.564     0.339   0.1494        261     35.48972
 4.01    844.1765  20.5280     1020.453   1106.0085  18.02     1.649     1.396   0.0628        262     58.98029
 5.35    838.6929  19.7369     2114.724   1247.0768 -32.77     2.123     1.570   0.0488        263     95.00821
 3.50    837.3973  20.3059     1252.082    298.6949 -26.40     1.378     1.249   0.0386        264     44.48871
 5.57    837.5710  22.4897     167.5403   1520.2875   7.21     0.957     0.484   0.2459        265      37.9401
 4.33    836.5140  22.0082     261.0479    819.0198  -0.57     1.082     0.929   0.1765        266     42.41832
 3.50    823.7377  18.5724      6180.88    654.3710 -54.11     1.702     1.624   0.0099        267     56.38074
 5.65    820.7242  23.3879     73.25586   1398.2626 -45.46     1.033     0.755   0.7170        268     48.36433
 6.21    819.5537  22.2884     201.6743    702.4227  75.71     0.930     0.814   0.2844        269     52.81039
 3.50    803.8622  18.7033     5478.977   1378.6096 -21.73     1.740     1.702   0.0115        270     57.95446
 3.50    799.2562  17.4858     16814.12    695.5490 -86.67     2.594     1.857   0.0048        271     74.08041
 3.50    801.5494  19.5410     2532.712     41.1097 -47.21     1.556     1.367   0.0214        272     49.89039
 3.50    786.3645  24.0228     40.81885   1348.2412  16.84     0.742     0.450   0.5253        273     19.74466
 4.73    774.9242  19.5205      2581.12   1427.4871 -80.02     2.969     2.204   0.0493        274     117.1954
 3.50    767.5738  20.2938     1266.135    391.7379 -67.87     1.399     1.279   0.0393        275     45.81702
 6.61    768.5201  21.6252     371.4623    140.3967 -55.99     1.096     0.753   0.1717        276     58.72551
 0.00    759.9716  99.0000    -32.55737   1020.4913  57.79     0.794     0.314  99.0000        277     39.48931
 8.05    758.7314  22.0201     258.1998   1341.6193 -19.11     0.999     0.595   0.2523        278     59.98857
 7.71    755.4391  21.4415     439.9315    195.3306  50.93     1.281     0.507   0.1499        279      60.7338
 6.87    754.6496  24.0416     40.11938    433.6602 -45.40     0.587     0.327   0.7703        280     28.45508
 8.17    753.2500  23.3287     77.36328   1080.7517 -18.40     0.867     0.354   0.6198        281     44.15039
 3.94    743.5427  20.2022     1377.608    556.2998 -21.20     1.383     1.282   0.0403        282     51.07843
 3.50    724.9424  14.0750       389038    404.7045 -46.93     2.406     2.206   0.0002        283     78.21552
 4.90    738.9064  21.2296      534.765   1157.9508   1.73     1.220     1.143   0.1140        284     56.11417
 5.69    736.8120  21.0586     625.9969    649.5158 -57.46     1.284     1.211   0.1202        285     69.26883
 3.50    727.4276  16.0100     65464.65    848.3037 -42.83     2.120     2.006   0.0012        286     69.70042
 4.33    728.2363  20.5677     983.8734   1178.2656 -71.71     1.497     1.275   0.0643        287     58.21261
 6.81    740.3104  23.6394     58.10693   1272.3551 -43.06     0.576     0.333   0.5318        288     28.45508
 6.41    722.1498  21.6793     353.4066   1394.6674  67.01     1.174     1.065   0.2155        289     70.12935
 4.03    716.7179  20.2191     1356.316    808.2800 -58.15     1.484     1.251   0.0427        290     53.37522
 5.19    709.5805  20.3346     1219.399   1163.7408  10.74     1.443     1.381   0.0638        291     71.61037
 4.50    704.9365  20.0931     1523.154   1339.0225 -35.32     1.746     1.681   0.0533        292     74.68517
 0.00    707.9461  99.0000    -41.83435    794.6355  86.27     0.715     0.646  99.0000        293     22.57888
 3.92    703.4935  19.6370     2318.482    952.2862 -18.86     1.625     1.545   0.0283        294     60.48641
 4.48    699.7203  21.1940     552.5653    582.8018   2.02     1.869     0.964   0.1149        295     58.46962
 5.28    692.6083  20.9164      713.555   1213.5952  57.54     1.506     1.276   0.0947        296     62.19054
 5.60    687.6442  21.4681     429.2981   1213.6564 -40.15     1.307     0.976   0.1263        297     49.93786
 0.00    693.6906  99.0000     -22.3833   1316.2979  45.71     0.551     0.345  99.0000        298     18.97005
 5.78    692.8769  21.8485     302.4109    316.1330  48.88     0.828     0.663   0.1536        299     42.77035
 4.67    684.0256  19.4797     2679.953    472.4936  52.83     2.910     2.718   0.0519        300       127.96
 3.57    686.2902  19.8576     1892.081    644.0512  42.53     1.531     1.435   0.0295        301     51.37114
 3.50    688.1401  22.3439     191.6229    130.8793  46.46     0.805     0.656   0.1353        302     23.87012
 4.57    682.3370  19.7821     2028.352    543.4663 -63.27     2.121     1.519   0.0428        303     79.92225
 5.25    673.8572  22.7929     126.7166    231.1585  61.85     1.162     0.421   0.3113        304     36.32488
 6.74    669.7614  21.8156     311.7173   1221.3247 -22.02     0.974     0.859   0.2099        305       60.238
 6.71    667.3170  22.3522     190.1567   1180.0011   2.17     0.731     0.668   0.2560        306     44.82448
 3.50    649.1271  16.0220     64746.73   1464.2974 -58.66     2.075     1.942   0.0011        307     68.39749
 4.97    655.4444  21.2562     521.8322    870.9727   6.69     1.205     1.054   0.1128        308     54.21144
 3.50   1551.7955  21.6337     368.5636   1221.6729 -32.21     1.026     0.978   0.0995        309     33.75745
 4.14    646.8544  21.9080     286.2913    652.7488  27.70     0.962     0.824   0.1362        310     35.90973
 3.50    640.5812  18.0646     9866.214    536.7190 -68.30     1.775     1.691   0.0065        311     58.98029
 7.03    642.0137  22.7134     136.3485    276.5096 -87.93     0.787     0.499   0.3379        312     42.41832
 5.15    631.7795  20.9988     661.4343    805.9449 -67.46     1.254     1.124   0.0964        313     58.72551
 4.72    629.6339  23.6915     55.38562    941.6058 -21.03     1.042     0.326   0.5150        314     26.26285
 5.45    624.2540  20.5393     1009.896   1581.3296 -24.63     1.442     1.261   0.0772        315     71.81945
 6.97    619.1545  21.8864     292.0469   1151.0912  43.65     1.117     0.934   0.2576        316     69.26883
 7.27    616.4916  23.4265     70.69836   1234.5254 -74.41     0.500     0.499   0.5580        317     36.32488
 7.54    610.1631  22.6640     142.6902    944.9097  41.60     0.839     0.661   0.4084        318     53.65541
 3.50    608.4720  24.1310     36.94849   1011.9153   4.20     0.785     0.497   0.6438        319     21.90473
 3.50    606.2894  20.5756     976.6722    586.0947 -31.41     1.357     1.343   0.0506        320     45.48858
 3.50   1562.1376  20.7797     809.3021    861.4935   5.33     1.262     1.158   0.0540        321     40.24155
 5.98   1529.5508  22.2486     209.1976    733.3308  32.68     1.023     0.681   0.2543        322     48.98046
 5.15    589.1851  22.8588     119.2522   1139.4061  71.47     0.742     0.454   0.2543        323     27.92316
 4.94   1566.7651  20.0619     1567.608    784.6982 -84.12     1.821     1.377   0.0531        324     76.66655
 5.83   1581.9138  22.1240     234.6329   1414.7047  68.45     1.253     0.472   0.1980        325     42.77035
 3.51   1553.5024  17.0940     24120.96    682.1384 -29.96     4.698     3.910   0.0066        326     145.5058
 3.50   1585.7356  20.5086     1038.866   1108.8071 -45.53     1.410     1.206   0.0462        327     44.15039
 3.50   1564.5630  16.1779     56085.81    304.2780 -45.84     1.966     1.875   0.0013        328     65.02606
 3.53   1542.6790  19.3083     3138.049    135.1462 -57.03     1.585     1.524   0.0184        329     53.09356
 7.41   1576.4824  22.2443       210.02   1491.4977  44.73     0.516     0.483   0.1878        330     36.32488
 3.50   1586.8705  22.7813     128.0824   1069.2076 -26.32     0.977     0.733   0.2457        331     28.97723
 3.50   1558.8706  16.1892     55504.59    487.7123 -43.24     1.943     1.876   0.0013        332     64.56323
 3.59   1562.9105  23.0882     96.54639   1566.5850 -28.67     1.434     0.440   0.3018        333      26.8277
 8.06   1565.3141  23.0974     95.72656    386.6744  64.22     0.775     0.483   0.5416        334     47.74025
 3.50   1567.4845  19.8154     1967.215     22.0536 -35.09     1.501     1.336   0.0270        335     48.98046
 3.50   1546.9426  20.7872     803.7126    863.4279  79.12     1.442     1.277   0.0623        336     46.14313
 4.21   1536.6472  21.6507     362.8341   1429.4083 -57.98     1.567     0.952   0.1502        337     50.19004
 3.80   1543.5000  19.6879     2212.376    654.6492 -44.43     1.543     1.391   0.0266        338     54.21144
 7.78   1477.6925  22.9424     110.4142    198.6753 -44.09     0.562     0.341   0.3320        339     33.75745
 4.68   1533.0137  21.8483     302.4625    415.7943 -28.03     1.657     1.117   0.2190        340     60.98018
 4.87   1519.6189  22.4839     168.4347     84.3914  80.11     1.501     0.882   0.3459        341     53.65541
 7.56   1502.3057  22.9785     106.8059   1412.6653  43.54     0.566     0.339   0.3247        342     31.93135
 5.85   1525.2084  22.0274     256.4714    378.9753  80.66     1.380     0.702   0.2376        343     56.11417
 6.91   1539.6632  23.3889     73.19006    263.3266  45.45     0.576     0.334   0.4222        344     28.45508
 7.05   1527.5273  23.6235     58.96594    878.5313  49.71     0.500     0.498   0.6135        345     33.31031
 5.74    951.5252  20.8737     742.2185    654.1403  78.51     2.123     1.347   0.1376        346     94.05651
 6.67   1504.6394  23.9333     44.32703   1312.1968 -60.46     1.233     0.361   1.0649        347     43.46585
 3.50   1508.0370  16.8645     29799.71    269.3830 -51.48     1.875     1.773   0.0023        348     61.95592
 6.75   1521.7552  21.8678     297.0959   1100.5942 -83.82     0.997     0.482   0.1639        349     44.82448
 4.14   1515.3909  21.7437     333.0459    483.6699 -45.90     1.145     1.021   0.1395        350     42.77035
 5.57   1499.2957  22.3236     195.2297    844.5074  14.72     1.147     0.828   0.2953        351     53.09356
 7.80   1497.3391  23.7216     53.87085    930.6786  45.79     0.575     0.335   0.6624        352     32.85709
 5.15   1504.9111  20.7752     812.6569    723.3754 -14.58     1.267     1.119   0.0795        353     59.48656
 5.01   1483.2747  21.2514      524.145    575.1030 -33.51     1.906     1.010   0.1399        354     67.51491
 5.75    977.4967  23.4048     72.12097   1280.5354  84.64     0.500     0.499   0.4040        355      26.8277
 4.78    953.0150  23.1443      91.6803     61.2813 -34.44     1.174     0.434   0.3892        356     32.85709
 5.50    979.2097  21.6450     364.7418    452.6703  73.39     1.079     0.952   0.1598        357     53.65541
 5.78    982.8316  22.7672     129.7535   1487.1891 -47.73     0.766     0.557   0.3040        358     36.32488
 7.72    972.4925  25.8636     7.491333   1499.4553 -53.16     0.502     0.495   5.6694        359     39.10776
 6.56   1489.0807  21.9314     280.1875     77.8819 -75.41     0.962     0.688   0.2036        360     52.52569
 5.46   1476.3274  21.3384     483.7606    998.5892  -9.60     1.603     0.944   0.1460        361     65.02606
 4.69    987.5121  20.1291     1473.534    453.9747  88.37     1.715     1.484   0.0534        362     72.44308
 3.50    965.8497  21.8233     309.5132    416.2971 -35.18     1.233     0.947   0.1289        363     36.73534
 0.00   1479.4890  99.0000    -2.878296    638.4839  46.79     0.501     0.499  99.0000        364     18.97005
 5.38   1439.3828  21.5563     395.8071   1271.1970  84.54     1.095     0.914   0.1441        365     52.52569
 3.50    985.6581  16.9412     27766.97    558.4474 -60.54     1.860     1.774   0.0024        366     61.22557
 3.50    998.9910  22.2101     216.7587    233.2787 -18.29     1.047     0.720   0.1478        367     29.49014
 5.84    981.6761  20.6213     936.4602    797.9857 -22.91     1.536     1.395   0.0955        368     82.32507
 4.79   1407.2278  21.6503     362.9926    329.8878  77.17     1.283     1.109   0.1679        369     56.11417
 5.76   1453.8417  23.6925     55.33411    391.7621  21.98     1.190     0.813   1.0801        370     55.03495
 4.31   1060.6309  20.5614      989.521    726.9678  18.85     1.586     1.368   0.0672        371     61.22557
 5.67    993.0269  23.7098     54.46252    500.0000  90.00     0.838     0.289   0.5237        372     26.26285
 5.19   1065.3551  22.3581     189.1326    292.5060  -0.67     0.931     0.478   0.1964        373     34.19875
 6.48    992.5980  22.9929      105.403      9.8381  20.92     0.779     0.432   0.3700        374     35.90973
 3.50   1063.8134  21.8413     304.4192      7.4519 -49.92     1.309     0.988   0.1381        375     38.72245
 5.81   1439.4318  22.6409     145.7668    646.8270  47.40     1.087     0.718   0.3717        376     49.89039
 3.50   1436.1301  19.3269      3085.03    224.7948 -34.44     1.604     1.459   0.0185        377     52.52569
 3.50   1440.6519  19.6631     2263.445    619.1653   9.05     1.445     1.337   0.0229        378     47.74025
 3.50   1084.5770  21.7104     343.4335     43.0163  33.22     1.129     1.014   0.1149        379     36.32488
 8.23   1450.7783  23.4441     69.56079     88.3631 -73.90     0.748     0.452   0.7305        380     46.78852
 3.50   1386.5995  22.3311     193.8994   1274.1162 -79.55     1.184     0.678   0.1735        381     30.97796
 3.50   1073.9574  21.4560      434.125      6.6659 -10.48     1.253     1.042   0.0969        382     38.72245
 3.50   1435.2332  15.2044     137480.1   1090.4421 -47.26     2.094     1.972   0.0005        383     69.48496
 7.30   1432.6862  21.8331      306.736    341.5507  -7.52     1.510     1.030   0.3126        384     88.30078
 0.00   1069.3281  99.0000       -35.75   1182.6630  44.61     0.577     0.334  99.0000        385     28.45508
 3.89   1416.2998  20.0963     1518.733   1386.6493  19.76     1.425     1.377   0.0374        386     52.23945
 3.50   1389.6022  18.4629     6836.489   1428.5128 -35.92     1.644     1.588   0.0087        387     54.76182
 4.22   1437.3093  22.8396     121.3859   1347.0366  73.00     1.028     0.724   0.3137        388     35.06467
 3.50   1067.5095  22.4275     177.4257    568.8696 -74.17     1.051     0.731   0.1866        389     30.49009
 4.53   1079.9409  21.8016     315.7673    330.0615 -62.65     1.125     0.943   0.1553        390     45.15775
 3.52   1393.0532  20.2548     1312.446   1038.7660  36.71     1.381     1.366   0.0384        391     46.46695
 4.20   1066.6592  22.1726     224.3717   1597.1162  36.70     1.159     0.981   0.2019        392     41.70536
 5.29   1072.8472  19.8961      1826.28   1219.1344 -71.81     2.172     1.586   0.0564        393     94.85026
 6.74   1414.8446  21.9428      277.246      1.3369  76.87     1.069     0.416   0.1374        394     35.06467
 3.50   1420.1652  17.4691     17075.43   1126.3615 -58.87     1.926     1.752   0.0040        395     62.67777
 4.51   1360.4252  17.6370     14629.01   1135.0798  85.51     6.676     5.131   0.0142        396     191.9274
 7.40   1079.6525  23.1129     94.36755    921.6893 -46.67     0.573     0.335   0.3565        397     30.97796
 5.62   1412.1393  21.0784     614.6646    350.1120  23.37     1.424     1.101   0.1208        398     68.39749
 3.50   1409.1057  19.6876     2212.979    308.4276  -7.76     1.523     1.467   0.0249        399     50.78402
 3.50   1367.0492  13.2968     796640.6   1159.7756 -48.42     3.323     3.056   0.0001        400     108.5611
 3.50   1162.6458  21.6378     367.1798    887.7574 -42.33     1.404     1.128   0.1244        401     42.06335
 4.68   1096.1305  20.7899     801.7837   1526.4138 -79.64     1.384     1.254   0.0823        402      60.7338
 5.79   1401.4601  20.6643     900.0881   1031.5901  46.87     1.406     1.196   0.0877        403     72.64977
 3.50   1394.2668  15.8408     76502.05    114.4738 -48.42     2.040     1.936   0.0010        404     67.73663
 6.46   1389.5433  21.4949     418.8175    806.6446   0.13     0.949     0.941   0.1536        405     59.23397
 4.13   1391.2551  19.5785      2446.89    713.2373  26.66     1.497     1.456   0.0264        406     59.48656
 6.13   1388.2180  23.0059     104.1486   1384.9540   1.83     0.696     0.413   0.3378        407     32.39753
 5.41   1388.9937  24.5011     26.27649   1584.7758 -89.72     0.686     0.417   1.1760        408     28.45508
 5.53   1380.3506  23.0545     99.58875    318.5949  -4.36     1.034     0.628   0.4777        409     43.80946
 8.31   1094.4969  21.6972     347.6389    429.0226  -2.01     0.796     0.500   0.1605        410     51.37114
 0.00   1371.3206  99.0000    -11.69165    705.8511 -32.13     1.214     0.408  99.0000        411     40.24155
 3.74   1371.5497  23.6572     57.16418   1215.7539  21.02     0.718     0.456   0.4029        412     21.20916
 7.57   1353.2751  21.2890     506.3021    152.0077  17.83     1.231     1.094   0.1839        413     85.71581
 9.28   1157.6599  22.4890     167.6534    568.3308  45.39     0.579     0.332   0.2533        414     39.10776
 3.50   1105.3257  18.0605     9903.342    751.8358 -44.66     1.770     1.620   0.0064        415     57.95446
 3.50   1373.4700  18.2734     8140.572   1018.9562 -23.41     1.815     1.707   0.0080        416       60.238
 7.83   1260.4321  20.3022     1256.393   1015.6125  58.28     1.971     1.064   0.0527        417     60.94014
 5.52   1294.2798  20.0692     1557.169    742.2533  72.75     1.481     1.308   0.0518        418     74.28255
 3.50   1292.2153  18.5168     6505.414    762.1052 -25.95     2.162     1.723   0.0110        419     65.94196
 7.56   1369.4689  22.6816     140.3934    149.4737  17.40     0.499     0.499   0.2873        420     37.14127
 6.99   1131.8344  21.6945     348.4858    359.0297  34.13     1.138     1.043   0.2296        421     73.67449
 3.50   1130.7366  17.5867     15322.13    183.5802 -57.92     1.787     1.711   0.0042        422     59.48656
 5.31   1331.2352  21.8351     306.1653    386.9082   1.03     1.306     0.996   0.2074        423     58.46962
 3.50   1139.3163  16.8751     29510.17    148.0981 -46.09     1.899     1.811   0.0023        424     63.15441
 4.94   1346.4969  22.1892     220.9595    605.5798 -50.92     1.185     0.774   0.2300        425     46.78852
 4.18   1308.3901  19.4473     2761.132    669.6346 -12.17     1.506     1.500   0.0237        426       60.238
 5.12   1333.5925  20.8161     782.6219    107.4225 -28.91     1.327     1.156   0.0856        427     61.71344
 3.50   1090.0750  19.4154     2843.497    642.4633 -46.35     1.578     1.413   0.0196        428     51.37114
 3.50   1320.9133  16.9165     28405.49    659.9951 -43.03     1.941     1.824   0.0025        429     64.33057
 5.13   1331.2213  20.4235     1123.519   1139.4135 -89.82     1.767     1.445   0.0763        430     78.97862
 5.43   1320.0242  21.3828     464.3823    264.0417 -45.50     1.309     1.038   0.1438        431     61.46999
 3.93   1330.7634  19.2608     3278.529    655.8417   4.85     1.684     1.650   0.0188        432     56.75235
 3.78   1278.8961  19.0668     3920.053   1331.4630 -56.91     1.622     1.533   0.0161        433     58.21261
 3.83   1305.5667  20.9864     669.0121    892.8640  77.78     1.231     1.139   0.0722        434     44.48871
 5.45   1245.3409  22.4248     177.8617    614.2117  55.72     1.066     0.800   0.2972        435     48.67337
 3.50   1299.2703  14.9009     181827.5    724.8672 -47.60     2.192     2.053   0.0004        436     72.64977
 4.36   1308.5709  19.5190     2584.719   1036.2755 -36.97     2.662     1.897   0.0400        437     95.16589
 8.09   1307.6787  23.3402     76.54602    574.6574 -44.07     0.576     0.334   0.5035        438     35.48972
 3.90   1273.5858  17.7235      13508.7    610.0049 -58.39     4.226     2.471   0.0098        439     121.8374
 4.25   1300.2339  22.0144     259.5516     54.0051 -29.97     1.122     0.858   0.1715        440     40.97999
 3.85   1263.1622  22.6028     150.9652    215.8559 -41.55     0.728     0.565   0.1762        441     24.49023
 5.39   1292.0193  22.5884     152.9872    545.9752 -45.38     0.899     0.525   0.2428        442     34.19875
 3.50   1293.9078  20.9672     680.9277    412.7370  23.44     1.287     1.129   0.0642        443     40.24155
 4.35   1260.2809  20.3126     1244.448    432.4522 -61.87     1.924     1.810   0.0683        444     78.21552
 6.02   1278.3990  22.8302     122.4397    343.4074  -1.19     0.918     0.658   0.4005        445     45.15775
 5.31   1274.1146  21.9297     280.6271    698.3151 -74.17     1.243     0.866   0.2076        446     53.65541
 8.40   1158.6622  22.6787     140.7708    186.2973  47.11     0.563     0.340   0.2770        447     35.90973
 3.50   1266.2653  19.3435     3038.123    807.8691 -34.50     1.553     1.437   0.0183        448     51.07843
 5.63   1213.6493  19.9630     1717.145   1429.3060  77.16     2.725     2.083   0.0825        449     130.3975
 5.86   1238.9690  22.3465     191.1698    857.0435 -50.04     0.811     0.782   0.2584        450     45.48858
 5.05   1131.0317  21.1257      588.462    219.3827 -20.53     1.568     1.132   0.1200        451     65.02606
 3.76   1235.1206  19.5611     2486.291    304.8844 -70.00     1.601     1.472   0.0244        452     55.84632
 6.60   1230.6104  20.6463     915.0992    599.0931  13.10     1.561     1.462   0.1152        453     97.03819
 5.15   1203.8763  20.1522     1442.567   1075.5712  37.43     2.022     1.572   0.0670        454     88.97742
 3.50   1238.0283  20.1358     1464.421   1553.5206 -12.61     1.431     1.370   0.0356        455      48.0533
 3.66   1243.3585  20.8463     761.1852    672.6531 -75.48     1.362     1.197   0.0649        456     45.48858
 3.50   1222.2170  12.8341      1220040    995.1972 -29.50     6.401     5.215   0.0002        457     196.5331
 5.50   1211.9683  23.0769     97.55493    829.0000  90.00     0.845     0.289   0.2924        458     26.26285
 3.50   1215.4215  17.7176     13582.23    513.0118 -59.01     1.744     1.692   0.0046        459     57.69516
 4.69   1154.6307  20.7371     841.7087   1353.0853 -56.52     1.612     1.412   0.0874        460     67.73663
 3.50   1219.7524  18.1616     9023.505   1195.0623  47.81     1.918     1.903   0.0078        461     65.02606
 5.03   1229.3567  21.5779      387.993   1153.9326 -13.34     1.229     0.989   0.1510        462     53.93414
 3.50   1208.4735  20.1791     1407.148    838.8270 -35.35     1.394     1.273   0.0349        463     45.15775
 5.23   1195.7808  20.0103     1643.856    124.2719  85.27     1.875     1.703   0.0601        464     90.97717
 4.55   1205.1183  22.5825     153.8085   1217.1880 -44.51     0.858     0.657   0.2384        465     33.75745
 4.93   1262.9902  21.7923     318.4711    855.3846   0.11     1.019     0.768   0.1422        466     41.70536
 4.38   1202.6338  20.1635     1427.562    339.0765 -83.95     1.516     1.396   0.0473        467     62.19747
 4.00   1238.4276  21.7387     334.5907     48.1247 -11.79     1.158     0.950   0.1330        468     40.97999
 5.56   1028.6923  24.0364     40.31201    463.6869 -44.70     0.557     0.343   0.6431        469     23.87012
 3.50   1211.5623  17.6458     14510.91   1279.0439  81.01     5.652     3.475   0.0113        470     150.8686
 5.62   1182.5493  22.0734     245.8339    176.5511   8.16     1.425     0.969   0.2832        471     64.09707
 5.57   1159.2971  23.2069     86.54504    970.3315 -43.15     0.560     0.341   0.2995        472     23.87012
 4.80   1183.5492  22.0102     260.5634    673.2097 -21.31     1.027     0.930   0.1910        473     45.81702
 4.30   1130.0508  21.1240     589.4027    547.4385 -65.12     1.184     1.024   0.0826        474     44.82448
 3.52   1152.1665  20.2918     1268.502     99.4363  -5.07     1.309     1.208   0.0369        475      43.1195
 7.58   1167.6770  22.4833     168.5361   1599.3630  46.34     0.885     0.518   0.2495        476     38.72245
 3.50   1165.9740  16.3504     47845.11   1299.8141 -73.19     1.994     1.896   0.0015        477     65.25624
 4.29   1134.6660  21.9405     277.8519    607.3837 -45.52     0.986     0.862   0.1529        478     39.10776
 3.70   1173.1541  18.3912     7303.443    757.8781 -78.56     3.576     3.345   0.0184        479     124.0328
 3.50   1152.4623  13.3868     733300.4    693.8153 -37.57     3.504     3.217   0.0002        480      113.952
 0.00   1169.6912  99.0000     -4.46106    385.3456  43.30     0.572     0.336  99.0000        481     28.45508
 3.50   1181.6404  21.4803     424.4879    549.2858 -17.70     1.166     0.942   0.0897        482     35.06467
 3.62   1158.6710  18.7331     5330.335    236.4378 -45.47     1.660     1.640   0.0120        483     58.72551
 6.85   1197.1642  21.5437      400.439   1053.6813  19.67     0.936     0.685   0.1432        484     52.81039
 4.87   1201.8149  20.5020     1045.224   1442.1520 -87.53     1.659     1.491   0.0776        485     74.68517
 6.43   1178.4944  24.1239     37.19043   1597.7561  72.38     1.154     0.262   0.9986        486     34.19875
 7.15   1142.0636  21.3252      489.702    661.8563 -73.51     0.961     0.718   0.1268        487     57.17302
 3.50   1080.7614  16.8174     31120.33    512.1377 -66.90     1.874     1.779   0.0022        488     61.71344
 5.41   1121.0293  19.5191     2584.289    329.8812  58.47     2.566     1.726   0.0463        489      110.206
 3.50   1108.1862  18.5546     6283.107    427.9433 -54.08     1.692     1.627   0.0097        490     55.84632
 5.36   1111.4923  19.9843       1683.8    479.1404  -7.99     2.159     1.548   0.0613        491     95.00821
 5.31   1115.1155  20.9389     698.9608    674.4976 -60.84     1.343     1.079   0.0959        492     61.71344
 3.50   1095.7281  16.9125     28511.33    778.1761 -41.61     1.938     1.855   0.0025        493     64.56323
 5.17   1091.6051  20.8412     764.7344    468.4292 -68.10     1.906     0.987   0.0974        494     68.61636
 4.46   1105.9491  21.0332     640.7731    679.0923  38.97     1.516     1.082   0.0933        495     55.03495
 5.41   1095.1104  22.4404     175.3228   1136.4398 -85.66     1.091     0.933   0.3289        496     53.09356
 3.50   1082.6000  18.1903     8787.879   1148.1749 -75.07     1.756     1.711   0.0073        497     58.72551
 5.58   1040.7959  22.3760     186.0441    467.1765  60.45     1.002     0.638   0.2497        498     42.77035
 6.46   1085.8284  21.6705     356.2881   1452.5986  76.35     0.929     0.621   0.1455        499     47.74025
 6.13   1066.0032  20.4503       1096.2   1562.7290 -64.61     2.578     1.374   0.1111        500     112.0947
 7.78   1020.1995  22.3239     195.1888   1267.6206  25.73     0.733     0.656   0.2907        501     52.23945
 5.27   1004.8460  24.3178     31.10828   1237.8386  49.76     0.764     0.567   1.1785        502     33.75745
 7.53   1052.5183  22.6334     146.7727    238.0324  26.05     1.259     0.570   0.4602        503     62.19747
 3.50   1030.9935  19.9510     1736.188    302.5808  71.36     2.461     1.757   0.0441        504     70.55567
 0.00   1001.6425  99.0000    -31.38745   1025.6887 -46.97     0.578     0.332  99.0000        505     24.49023
 7.86   1044.5297  23.5078     65.59888    809.4821 -44.15     0.509     0.490   0.6538        506     39.48931
 3.50   1039.5049  18.3069     7892.908    525.3945 -59.24     1.681     1.610   0.0078        507     56.91015
 8.77   1042.6610  22.4830     168.5778   1095.3132  46.21     0.571     0.337   0.2444        508      37.9401
 3.50   1024.3846  13.8952       459118     50.1910 -43.62     2.321     2.148   0.0002        509     76.27439
 3.50   1041.0366  16.5309     40517.68    633.0386 -49.21     1.900     1.824   0.0017        510     63.62748
 3.50   1026.5739  17.3957     18269.65   1379.9857 -68.53     1.930     1.815   0.0038        511     63.62748
 5.52   1038.8489  21.4068     454.2261    121.9955 -35.31     2.009     0.803   0.1641        512     68.61636
 3.50   1010.6155  17.5662     15613.52    813.6567 -57.65     1.843     1.780   0.0042        513      60.7338
 0.00   1026.6541  99.0000    -51.66724   1028.6674 -45.54     0.582     0.330  99.0000        514     25.09502
 7.37   1038.3229  23.8853     46.33398    242.3527 -43.78     0.581     0.331   0.7030        515     29.99428
 5.53   1014.3884  22.4940     166.8754    453.2856 -71.18     0.977     0.589   0.2619        516     40.24155
 3.50   1012.0173  19.7111     2165.606    344.6626 -58.15     1.552     1.358   0.0252        517     50.19004
 4.00   1000.6549  20.9032     722.2888   1273.9332 -43.42     1.549     1.290   0.0819        518     54.48732
 3.68   1002.4809  19.5827     2437.299    542.4350  72.62     1.531     1.462   0.0234        519     52.52569
 5.95   1020.8218  22.9615     108.4911   1154.6001  71.58     0.761     0.450   0.3510        520     35.06467
 4.18   1011.5944  22.1897      220.865    268.0587 -42.84     1.170     0.663   0.1786        521     36.32488
