#   1 NUMBER                 Running object number                                     
#   2 EXT_NUMBER             FITS extension number                                     
#   3 FLUX_BEST              Best of FLUX_AUTO and FLUX_ISOCOR                          [count]
#   4 FLUXERR_BEST           RMS error for BEST flux                                    [count]
#   5 MAG_BEST               Best of MAG_AUTO and MAG_ISOCOR                            [mag]
#   6 MAGERR_BEST            RMS error for MAG_BEST                                     [mag]
#   7 X_IMAGE                Object position along x                                    [pixel]
#   8 Y_IMAGE                Object position along y                                    [pixel]
#   9 A_IMAGE                Profile RMS along major axis                               [pixel]
#  10 B_IMAGE                Profile RMS along minor axis                               [pixel]
#  11 THETA_IMAGE            Position angle (CCW/x)                                     [deg]
         1   1     40265.38     158.6233  16.5425   0.0043     63.7997     53.5252     4.685     4.247  -3.90
         2   1     5977.595     99.64371  18.6135   0.0181    985.1923     17.1269     4.346     1.817 -87.68
         3   1     3652.279      49.3555  19.1484   0.0147     91.5192     18.1446     1.481     1.375 -68.12
         4   1     10146.07     55.52927  18.0390   0.0059   1445.8591     15.3536     1.634     1.584 -71.14
         5   1     404.4124     57.43993  21.5377   0.1542    841.9979     13.6931     1.135     0.458 -72.76
         6   1     464.9615     64.03948  21.3862   0.1496    145.5426      4.0879     1.217     0.921  70.74
         7   1     587293.1     188.3089  13.6326   0.0003   1107.5367    182.5938     5.950     5.006 -37.44
         8   1     203.7904     35.11979  22.2818   0.1872   1183.7943     10.5726     0.958     0.485  -6.90
         9   1     47551.46      66.8661  16.3619   0.0015   1078.6909     60.3875     2.045     1.844  79.25
        10   1     450.7367     56.62897  21.4200   0.1364    385.0799     17.6537     1.203     0.929 -14.05
        11   1     910.3619     59.80685  20.6567   0.0713    367.3887     24.8541     1.250     1.183 -86.69
        12   1     404.4188     45.11219  21.5377   0.1211    383.1667     24.3010     1.084     0.951 -40.04
        13   1      105.262     30.41463  22.9991   0.3138    699.3123     24.3144     0.560     0.342 -45.11
        14   1     488.0728     68.23551  21.3336   0.1518   1110.7292     35.9995     1.298     0.963 -83.70
        15   1      120.517     33.77714  22.8522   0.3044    703.2515     26.7504     0.856     0.351 -18.89
        16   1     80.44238     28.85386  23.2911   0.3895    531.3240     26.6736     0.570     0.337  45.12
        17   1     252.4594     39.29971  22.0493   0.1691   1109.5005     32.4863     1.065     0.802 -23.32
        18   1     297.4628     48.08976  21.8712   0.1756    327.2390     33.6167     1.084     0.801 -61.74
        19   1     389.3678     50.58957  21.5789   0.1411   1170.9567     39.6455     1.099     0.966 -85.60
        20   1     264.9186     50.89342  21.9970   0.2086   1521.8109     38.0633     0.915     0.741  -9.34
        21   1     338.4695     58.76665  21.7310   0.1886    440.4556     44.6940     1.104     0.815 -55.17
        22   1      45057.5     63.31311  16.4204   0.0015    537.8243     80.4046     1.911     1.773 -86.01
        23   1      300.666     52.67969  21.8596   0.1903    915.6876     42.8763     0.989     0.752   9.79
        24   1     214.3445     47.44423  22.2270   0.2404   1435.1534     51.1983     0.751     0.565  46.45
        25   1     226.6852     45.45267  22.1662   0.2178    265.1693     51.2205     1.187     0.344 -11.77
        26   1     1554.847     44.76913  20.0756   0.0313    128.3723     75.3237     1.370     1.250 -79.51
        27   1     273.0931     47.11815  21.9640   0.1874   1147.4990     65.4919     0.503     0.497 -44.71
        28   1     512.3506     56.62897  21.2809   0.1200    421.9448     82.5204     1.433     1.080 -60.87
        29   1     139.2156     36.83395  22.6956   0.2873   1322.9462     72.5246     0.791     0.315 -32.29
        30   1     1002.882     80.08546  20.5517   0.0867    377.1675     90.8113     1.789     1.450 -11.16
        31   1     67880.02     66.40335  15.9754   0.0011    789.3429    122.2698     1.978     1.874 -84.85
        32   1     46701.84     221.2826  16.3814   0.0051    403.5172    235.4554     6.084     5.378 -57.68
        33   1     2405.411     50.28389  19.6018   0.0227     56.3872     96.7895     1.500     1.435 -57.13
        34   1     310.9749     52.67969  21.8230   0.1840    496.0466     92.0598     0.813     0.749  41.74
        35   1     501.4523     52.38621  21.3042   0.1135    453.0963     98.5079     1.273     0.993 -13.59
        36   1     283.4167     53.26181  21.9237   0.2041   1076.6273     96.0782     0.958     0.687  21.71
        37   1     202.0819      41.5543  22.2910   0.2233    518.0137    103.0046     0.901     0.528 -42.61
        38   1     110.4091      31.4121  22.9473   0.3090   1099.5221    107.5073     0.512     0.487  45.50
        39   1     203.6493     41.18161  22.2826   0.2196     68.1370    117.3928     1.221     0.695 -13.99
        40   1     251.2405     48.72674  22.0546   0.2106    415.9847    115.2657     0.810     0.494 -55.24
        41   1     216.8356     50.28389  22.2145   0.2518    990.6464    117.2545     0.905     0.753  -7.63
        42   1     156.1562     35.55608  22.5709   0.2473    153.5004    118.0163     0.784     0.499 -87.61
        43   1     294142.8     74.50034  14.3834   0.0003    318.2505    193.9391     2.285     2.063 -63.89
        44   1       321.74     53.26181  21.7860   0.1798    494.9810    126.5118     0.807     0.500  -0.47
        45   1     189.5822      41.5543  22.3603   0.2380    418.1985    131.3040     0.847     0.599 -28.57
        46   1     38376.02     61.83478  16.5946   0.0017   1468.4854    163.0547     1.817     1.736 -77.89
        47   1     296.3191     48.40929  21.8754   0.1774    354.2550    147.4694     0.993     0.939 -83.24
        48   1     152.3268     33.31756  22.5978   0.2375    886.6586    142.6608     0.583     0.330 -44.91
        49   1     8558.202     56.62897  18.2238   0.0072    877.4740    170.6976     1.685     1.611 -82.76
        50   1     164.5687     40.04273  22.5139   0.2642   1280.4971    152.4654     0.502     0.496 -39.37
        51   1      117.637     35.55608  22.8784   0.3282     82.7033    156.3305     0.560     0.342  46.84
        52   1       755.01     57.70771  20.8599   0.0830   1445.8843    165.8473     1.240     1.109 -42.75
        53   1     1210.079     63.55616  20.3477   0.0570    325.7209    171.8127     1.329     1.208 -60.90
        54   1     579.9175     50.28389  21.1464   0.0942    104.6249    167.1095     1.177     1.086 -16.53
        55   1      308.395     46.12608  21.8320   0.1624   1369.2546    170.3085     0.933     0.849  11.39
        56   1     201.0074     49.97635  22.2968   0.2700    649.7439    169.5062     1.395     0.489  -4.65
        57   1     401.8767      61.0822  21.5445   0.1651   1355.0319    187.0440     1.219     0.995  10.77
        58   1     299.0172     55.25093  21.8655   0.2007    575.6987    180.5658     1.000     0.479  -8.34
        59   1      925.281     48.08976  20.6391   0.0564   1350.8151    193.3761     1.280     1.103  77.63
        60   1     5071.588     127.7173  18.7919   0.0273    828.1095    211.1837     4.024     2.098  -6.37
        61   1     1712.911     52.51613  19.9704   0.0333    415.5566    229.2693     1.791     1.563 -12.72
        62   1     228.6571     45.79061  22.1568   0.2175    268.1735    195.2809     1.080     0.517  54.63
        63   1     154.4982     34.67802  22.5825   0.2438   1028.2732    192.6325     0.563     0.337  49.79
        64   1     1787.908     47.76809  19.9239   0.0290    549.4011    207.1272     1.443     1.315 -85.19
        65   1     4810.656     164.6328  18.8493   0.0372    562.4095    230.4931     3.467     3.264 -38.65
        66   1     985.9495     63.06913  20.5701   0.0695    350.0247    209.0113     1.813     1.239  44.45
        67   1     354.3955     47.76809  21.6811   0.1464    251.0272    203.8939     0.916     0.839  -0.79
        68   1     1671.563     46.12608  19.9970   0.0300   1306.2999    212.8764     1.376     1.279 -66.83
        69   1     547.5409     63.06913  21.2087   0.1251    684.8726    211.2034     1.239     1.146 -50.29
        70   1     146.8385     34.23054  22.6377   0.2532    936.9929    205.6722     0.908     0.212  28.33
        71   1     104101.8     68.00919  15.5111   0.0007    997.5744    260.3650     2.022     1.934 -89.34
        72   1     2090.888     47.76809  19.7540   0.0248   1226.3085    224.7346     1.413     1.348  86.64
        73   1     689.1849     74.91308  20.9589   0.1180    346.1969    223.0306     1.492     1.352  57.86
        74   1     145.5715     32.85156  22.6471   0.2451   1225.3633    210.2872     0.568     0.336 -41.37
        75   1     772.1014     52.09107  20.8356   0.0733    775.2977    222.8820     1.280     1.148 -78.87
        76   1     288.2296     50.58957  21.9054   0.1906    741.8887    217.8561     0.846     0.652 -45.39
        77   1      87100.3     67.55428  15.7047   0.0008     67.8013    266.1625     2.007     1.911 -78.87
        78   1      293.449     51.79425  21.8860   0.1917    548.0768    230.7153     1.026     0.744 -73.40
        79   1     1433.013     83.29391  20.1642   0.0631    113.0351    244.2989     1.867     1.582 -89.52
        80   1     90.59973     28.85386  23.1620   0.3459    325.3205    228.3499     0.579     0.332 -46.24
        81   1     615.4634     58.23959  21.0818   0.1028    838.7070    239.7767     1.390     1.053 -46.60
        82   1     3934.325     98.55468  19.0676   0.0272    613.0906    255.8108     2.447     2.040 -16.68
        83   1     774.4404     82.36322  20.8323   0.1155   1372.7426    252.4413     1.567     1.194  66.47
        84   1     359723.1     74.70699  14.1649   0.0002    439.6983    312.5552     2.221     2.106 -66.16
        85   1     541.2048      61.0822  21.2214   0.1226    107.6803    250.5133     1.169     0.968  -1.66
        86   1     252.7374     35.11979  22.0481   0.1509   1352.6882    254.3401     0.991     0.851 -48.20
        87   1     20406.22     59.80685  17.2804   0.0032   1486.6270    288.3568     1.750     1.711  88.49
        88   1       137.24     29.38333  22.7111   0.2325   1017.6207    261.7161     0.573     0.332 -40.76
        89   1     4465.994     51.19546  18.9300   0.0124   1522.5603    282.6521     1.536     1.456 -45.72
        90   1     171.8296     35.11979  22.4670   0.2220    124.3059    265.6608     0.568     0.338  46.63
        91   1     403.0232     56.35606  21.5415   0.1519   1274.2327    271.4204     1.178     0.848  29.10
        92   1       1795.1     61.83478  19.9196   0.0374    515.3969    290.2191     1.844     1.582  85.02
        93   1     14835.02     57.97426  17.6266   0.0042    202.0118    303.3994     1.763     1.645  82.60
        94   1     59668.66     65.93736  16.1154   0.0012    905.5974    319.2488     1.946     1.866  80.63
        95   1     1178.461     87.62371  20.3765   0.0807   1414.2720    297.8040     2.633     1.331 -43.77
        96   1     306532.5      73.6679  14.3386   0.0003   1346.0428    352.0961     2.170     2.083 -62.22
        97   1     1859.793     47.11815  19.8811   0.0275   1327.7196    294.7164     1.404     1.318 -86.02
        98   1     1051.143     62.33145  20.5006   0.0644   1475.7775    294.3491     1.406     1.221 -26.98
        99   1     317590.4     74.50034  14.3001   0.0003    890.9661    351.8862     2.210     2.098 -48.11
       100   1      745.819     53.26181  20.8732   0.0776    563.8398    302.8273     1.489     1.289  35.57
       101   1     226.2288     52.09107  22.1684   0.2501    249.2462    292.9918     0.734     0.686 -84.22
       102   1     207.5863     45.79061  22.2618   0.2396    886.8599    296.7082     1.060     0.510 -66.54
       103   1     608.4763     60.32023  21.0942   0.1077     85.4247    308.9450     1.830     0.952  81.50
       104   1     9821.449     55.80622  18.0743   0.0062    697.4584    322.5602     1.679     1.574 -78.02
       105   1     825.8406     65.70312  20.7625   0.0864    641.5955    322.5329     2.010     1.387 -74.02
       106   1     2092.576     84.21431  19.7531   0.0437    595.6755    328.0034     1.719     1.644  -7.63
       107   1     325.7097     64.27978  21.7727   0.2143    956.5848    324.7242     1.433     0.635  54.09
       108   1     122.9962      31.4121  22.8301   0.2774   1017.3156    323.7076     0.551     0.345  43.59
       109   1     6582.254     60.06409  18.5088   0.0099    867.3059    346.8928     1.647     1.638 -40.48
       110   1     314.1427     40.80552  21.8120   0.1411   1546.3762    330.2252     0.998     0.891 -51.83
       111   1     354.0173     37.25017  21.6822   0.1143     93.4353    332.4190     1.047     0.837  42.24
       112   1     322.0078     31.89914  21.7851   0.1076   1440.7502    335.8508     1.151     0.758  24.85
       113   1     5328.272     60.57528  18.7383   0.0123    432.0551    356.1431     1.888     1.652 -89.14
       114   1       792.63     38.87049  20.8071   0.0533     55.0058    350.3318     1.201     1.105  86.07
       115   1     185.5558     39.26513  22.3836   0.2298    806.0276    339.7777     0.693     0.416   1.14
       116   1     10154.03     56.35606  18.0382   0.0060    761.3643    368.6249     1.702     1.579  82.59
       117   1     329.9774     52.09107  21.7586   0.1714    920.3484    350.2334     1.033     0.933 -54.39
       118   1     1794.202     50.89342  19.9201   0.0308   1500.6205    361.9805     1.407     1.364  73.48
       119   1     3654.215      49.3555  19.1478   0.0147    443.0886    367.8328     1.473     1.415  66.09
       120   1      311.286     35.55608  21.8219   0.1240    533.1404    360.0383     1.212     0.893  53.71
       121   1      50565.8     65.70312  16.2951   0.0014    231.6743    395.4884     1.949     1.840  77.54
       122   1     424.8612     35.55608  21.4842   0.0909   1034.1250    361.4562     1.190     0.929  21.17
       123   1     102.1082     29.90343  23.0321   0.3180   1399.0023    357.0000     0.842     0.289   0.00
       124   1     354.1499     56.08181  21.6818   0.1720   1415.6382    364.3918     1.026     0.877 -43.63
       125   1     995.3855      91.9173  20.5598   0.1003    753.5044    375.4305     2.366     1.003  47.83
       126   1     729.1144     56.35606  20.8978   0.0839    992.6573    373.2975     1.311     1.220   6.59
       127   1      185.067     38.06895  22.3865   0.2234    210.6798    369.6660     0.990     0.578 -69.78
       128   1     312.5117     45.45267  21.8176   0.1580     71.8415    370.6648     1.017     0.737  76.54
       129   1     265.9463      41.5543  21.9928   0.1697   1083.9834    374.4050     1.044     0.771 -89.05
       130   1     7329.117     54.68999  18.3922   0.0081   1461.4524    397.8773     1.683     1.551 -73.83
       131   1     150.0951     33.77714  22.6139   0.2444    141.2270    375.0100     0.680     0.419 -89.55
       132   1     8088.249     56.62897  18.2851   0.0076    354.8107    398.5048     1.686     1.552  89.99
       133   1     170.0165     40.42592  22.4786   0.2582     87.8118    376.0063     0.954     0.458 -52.47
       134   1     311.8577     46.45912  21.8199   0.1618    125.9786    380.5817     0.942     0.867 -78.94
       135   1      312.658     45.45267  21.8171   0.1579     67.5940    383.4047     1.166     0.773  51.58
       136   1     113.8815     24.83344  22.9136   0.2368      1.0000    380.9717     0.847     0.289  90.00
       137   1     1610.813     46.45912  20.0372   0.0313   1089.0247    394.2598     1.420     1.253  67.79
       138   1     45864.02     62.57831  16.4011   0.0015    433.5898    420.0205     1.848     1.767  79.89
       139   1     22134.43     60.82927  17.1921   0.0030    837.6166    416.0988     1.792     1.690 -86.61
       140   1     737.9701     78.33368  20.8847   0.1153    627.2267    396.8589     1.608     1.284 -12.08
       141   1      165.439     33.77714  22.5082   0.2217   1195.7992    389.8943     0.822     0.669 -50.03
       142   1     187.3942     43.01279  22.3729   0.2493    261.4804    390.0220     0.807     0.309 -58.26
       143   1     386.4556     60.82927  21.5870   0.1709    978.6519    396.7586     1.383     0.713 -25.08
       144   1     96.41772     28.85386  23.0944   0.3250     97.3347    391.6644     0.579     0.332  45.04
       145   1     506.3088     70.45875  21.2937   0.1511    526.9224    404.1374     1.603     1.010  49.64
       146   1     352.7761     47.11815  21.6860   0.1451      1.4600    411.6898     1.550     0.492  86.90
       147   1     3960.707     52.09107  19.0603   0.0143    926.6381    424.7323     1.552     1.505 -83.30
       148   1      1302.42     99.02287  20.2679   0.0826    159.7319    421.6084     1.934     1.613  45.81
       149   1      221.661     45.79061  22.1906   0.2243    282.1894    407.8483     0.805     0.666  43.70
       150   1     143787.6     70.23959  15.1605   0.0005    807.8332    461.6982     2.072     2.019 -72.06
       151   1     16493.55     60.82927  17.5115   0.0040    252.2797    438.2123     1.794     1.732  71.34
       152   1     280.4324     56.35606  21.9352   0.2182    561.2371    416.1235     1.063     0.655  81.87
       153   1      152.005     38.87049  22.6001   0.2777    189.2176    412.3987     0.761     0.447  18.91
       154   1     410.5093     64.51918  21.5215   0.1707   1204.7341    419.3941     1.037     0.771 -18.47
       155   1     209.5378     40.04273  22.2516   0.2075   1562.4846    415.4966     0.506     0.494 -45.54
       156   1     748.8981     80.08546  20.8687   0.1161    138.2387    422.0081     1.617     0.766  -1.36
       157   1     1209.886     86.20461  20.3479   0.0774    122.5160    445.3532     1.522     1.288 -51.84
       158   1     609.1497     72.40131  21.0930   0.1291   1180.0702    427.3903     1.461     1.192  59.62
       159   1     287.0488     48.72674  21.9099   0.1843    774.3480    419.7381     0.879     0.745  -8.83
       160   1     196.5784     40.80552  22.3209   0.2254   1580.9352    420.9765     0.780     0.777 -64.56
       161   1     248.4485      41.5543  22.0667   0.1816   1064.2546    424.7009     0.920     0.761 -84.34
       162   1      1216.25     48.72674  20.3422   0.0435   1422.1829    433.7247     1.403     1.231 -15.53
       163   1      534.833     43.72379  21.2342   0.0888    151.1989    434.2644     1.227     1.041 -81.63
       164   1     233.0707     33.31756  22.1361   0.1552   1009.4892    426.8933     0.884     0.670 -40.48
       165   1      246.426     42.65284  22.0756   0.1880    300.2596    427.1862     0.765     0.551  41.78
       166   1     94.31982     26.04554  23.1183   0.2999   1086.0087    424.7631     0.692     0.425   0.40
       167   1     769.1937     84.39719  20.8397   0.1192    718.6637    430.6999     1.415     0.741 -23.16
       168   1     8737.614     191.5559  18.2013   0.0238    850.8901    468.3481     7.879     2.083  23.15
       169   1     4954.992     52.38621  18.8172   0.0115     21.6386    450.5656     1.584     1.465 -76.96
       170   1      696.051     53.83762  20.9482   0.0840    306.0426    440.3376     1.239     1.111 -82.44
       171   1     207.8093     45.79061  22.2606   0.2393    354.1263    433.8568     0.764     0.566 -40.12
       172   1     936.4978     80.85184  20.6260   0.0938    883.8214    448.3131     2.074     1.499   9.73
       173   1     5662.713     52.97155  18.6722   0.0102     34.8395    458.0081     1.558     1.477  57.96
       174   1      3446.86     105.5056  19.2112   0.0332   1461.4441    516.1333     4.066     1.610  24.91
       175   1     210.1437     34.23054  22.2485   0.1769   1505.3628    446.1967     0.962     0.644  74.93
       176   1     202.0659     39.26513  22.2910   0.2110    174.9850    444.2901     0.755     0.652  -8.89
       177   1     169.1724     45.45267  22.4840   0.2918    655.0042    444.2291     0.730     0.679  -9.14
       178   1     112.4971     30.41463  22.9269   0.2936    959.6943    442.6607     0.568     0.338 -46.65
       179   1     1808.628     57.97426  19.9114   0.0348    468.8570    464.1307     1.441     1.353  87.00
       180   1     291.9004     49.97635  21.8917   0.1859   1533.4567    453.8233     0.994     0.852  13.64
       181   1     650.6559     52.97155  21.0214   0.0884   1096.4821    461.5118     1.466     1.053  49.38
       182   1     147.8337     35.55608  22.6303   0.2612   1224.6188    455.1829     0.756     0.453 -73.22
       183   1     1867.884     68.00919  19.8764   0.0395    254.6381    471.7498     1.518     1.312  85.78
       184   1     491.3772     68.46108  21.3262   0.1513    725.3745    461.9506     1.322     0.961 -23.93
       185   1     2217.229     48.08976  19.6903   0.0236    735.0262    472.5071     1.420     1.350 -43.21
       186   1     2931.435     50.58957  19.3871   0.0187    923.3298    478.3885     1.547     1.392 -48.49
       187   1     271.8864     49.66689  21.9688   0.1984    128.8482    467.0966     0.983     0.576  75.58
       188   1     146.1322     30.41463  22.6429   0.2260    561.4875    466.0777     0.765     0.500 -89.78
       189   1     1148.851     53.26181  20.4041   0.0503   1277.1476    478.7573     1.347     1.227  80.96
       190   1     2969.648      130.346  19.3730   0.0477     83.0549    496.8679     2.751     2.329  83.29
       191   1     635.1039     74.08529  21.0477   0.1267    839.9213    489.0433     2.405     0.964  87.43
       192   1     21701.02     167.0499  17.2136   0.0084    518.9887    533.5775     4.467     3.718  39.26
       193   1     450.1229     54.12324  21.4215   0.1306    683.0723    479.1956     1.221     0.999 -39.59
       194   1     1281.915     51.19546  20.2851   0.0434   1070.9589    484.7017     1.397     1.274  48.54
       195   1     2614.886     124.7865  19.5111   0.0518   1187.0693    496.4284     3.123     1.932 -11.92
       196   1     217.4291     40.42592  22.2115   0.2019   1168.5813    476.7478     0.974     0.583 -19.13
       197   1     261.7756     50.58957  22.0100   0.2099   1309.7306    481.7800     0.911     0.741   6.35
       198   1     159.4464     35.98708  22.5482   0.2451   1519.6483    481.6781     0.580     0.331 -43.77
       199   1      11731.2     58.23959  17.8814   0.0054   1302.5386    513.1718     1.760     1.613  59.54
       200   1     1377.077     85.30569  20.2074   0.0673    763.2423    504.5661     1.865     1.729 -13.45
       201   1     737.8357     40.42592  20.8849   0.0595    864.0017    502.5710     1.288     1.131  88.02
       202   1     337.5588     48.08976  21.7339   0.1547    366.7521    498.4589     0.989     0.929 -51.03
       203   1     139.0653     28.85386  22.6967   0.2253    574.6613    493.3040     0.567     0.339  43.27
       204   1     596.3744     63.06913  21.1160   0.1148   1310.5753    502.2199     1.068     0.929  55.14
       205   1      1313.83     43.25659  20.2584   0.0358   1310.5697    513.9177     1.369     1.322 -46.61
       206   1     683.9034     68.91001  20.9673   0.1094    166.0238    510.0532     1.327     1.185  32.13
       207   1     373.0548     55.80622  21.6253   0.1625    453.3414    511.3528     1.307     0.896  82.30
       208   1     169.1394     30.41463  22.4842   0.1953   1569.5204    506.0170     0.779     0.499 -89.06
       209   1     687.2955     42.28983  20.9619   0.0668   1179.6952    514.5375     1.253     1.074  67.59
       210   1     226.6524     35.12082  22.1664   0.1683    161.4351    510.2763     1.014     0.715 -82.32
       211   1     273.9254     43.36975  21.9607   0.1719   1519.6564    518.6337     1.261     0.755 -58.68
       212   1     622.1357     72.40131  21.0701   0.1264    642.2645    519.9667     1.383     1.199  18.50
       213   1     329957.7     75.11861  14.2586   0.0002   1316.2118    588.5076     2.214     2.119 -61.38
       214   1     303.2642     52.97155  21.8502   0.1897    854.0023    521.1948     0.924     0.757  87.71
       215   1     143.5427     37.25017  22.6623   0.2818    583.6489    521.3221     0.580     0.331  43.80
       216   1     1744.259     53.26181  19.9508   0.0332   1000.1738    540.9582     1.498     1.311 -72.72
       217   1     444.3203     57.17088  21.4355   0.1397    404.7491    536.8519     1.441     0.908  36.37
       218   1     283.6918     51.79425  21.9227   0.1983    934.6223    545.0871     1.525     0.437 -81.71
       219   1     2368.095     55.80622  19.6188   0.0256   1042.0389    559.5822     1.451     1.374  68.52
       220   1     1923.855     84.57967  19.8444   0.0477     46.4427    571.5656     2.209     1.437  52.96
       221   1     7139.382     55.52927  18.4206   0.0084   1243.1414    573.2256     1.642     1.567  58.05
       222   1     297143.3      103.141  14.3724   0.0004    483.4176    631.3912     3.080     2.899 -44.91
       223   1     327.2106     54.68999  21.7677   0.1815    779.1495    556.4856     0.943     0.722  87.91
       224   1     9683.703     55.52927  18.0897   0.0062    145.2619    580.9352     1.693     1.582 -88.12
       225   1     1805.624     89.19321  19.9132   0.0536   1337.2476    575.4089     1.483     1.418  61.37
       226   1     6384.301     128.7992  18.5420   0.0219    782.8056    597.0600     3.620     3.224 -63.52
       227   1      9614.78     55.52927  18.0974   0.0063    319.4495    582.5157     1.682     1.562  80.01
       228   1     1753.304     84.21431  19.9451   0.0522   1448.7604    572.3694     2.862     1.592  17.11
       229   1     459.1599     53.55049  21.3999   0.1267    139.7018    565.2906     1.105     0.928  14.37
       230   1     258.0275     43.36975  22.0256   0.1825   1404.5007    560.2471     1.164     0.262  17.57
       231   1     168.9501     41.18161  22.4854   0.2647    905.9805    563.5264     0.758     0.499  -0.64
       232   1     661.0118     63.79827  21.0043   0.1048   1002.2324    577.0416     1.518     1.218   0.65
       233   1     689.4698     52.09107  20.9585   0.0820     76.3490    584.8993     1.333     1.164  69.61
       234   1     332.8475     64.27978  21.7492   0.2097    677.8788    578.7524     1.262     0.650   5.14
       235   1     2732.419     55.25093  19.4634   0.0220    543.0606   1002.1662     1.462     1.373 -66.01
       236   1     85.66846     16.65878  23.2227   0.2112    710.6805   1599.6752     0.568     0.338 -45.26
       237   1     938.3528     60.32023  20.6239   0.0698    655.0994   1597.5110     1.749     1.588 -24.95
       238   1     542.1696     56.35606  21.2194   0.1129    374.6772   1595.1276     1.194     1.105  34.65
       239   1     182.8088     37.25017  22.3998   0.2213   1385.7310   1593.8809     0.942     0.657 -21.56
       240   1      199.826     43.01279  22.3032   0.2338    566.9291   1591.3741     1.018     0.726 -72.29
       241   1     1426.459     60.57528  20.1691   0.0461   1109.2620   1585.5339     1.333     1.267  75.35
       242   1     70.74072     13.60184  23.4306   0.2088    141.3112   1583.6602     0.570     0.337  46.35
       243   1     1627.685     79.31166  20.0259   0.0529    784.9980   1566.4408     2.129     1.458 -80.35
       244   1     2204.185     55.52927  19.6967   0.0274     22.3410   1566.7911     1.433     1.403  51.45
       245   1     226.8434     44.76913  22.1655   0.2143    388.2399   1563.2164     0.862     0.345  71.45
       246   1     159.0208      30.2073  22.5511   0.2063   1430.6649   1535.6666     0.996     0.538 -59.84
       247   1      154.278     36.41298  22.5840   0.2563    919.6689   1535.6963     0.563     0.340 -43.58
       248   1     441.5134     43.36975  21.4424   0.1067    416.0926   1533.4929     1.442     1.102   7.06
       249   1     430.7234     41.92368  21.4693   0.1057   1547.9348   1516.2104     1.362     0.841 -87.38
       250   1     327946.2     134.0776  14.2653   0.0004    183.8633    882.2990     4.107     3.697 -39.94
       251   1     7250.311     158.9146  18.4039   0.0238    224.7090    879.6061     6.773     1.884  89.83
       252   1     937.5404     82.55019  20.6248   0.0956    326.4410    889.1280     1.939     1.167  13.25
       253   1     115225.7     67.78211  15.4009   0.0006   1592.8473    881.0885     2.027     1.938  88.55
       254   1     264.0597     56.08181  22.0005   0.2306    681.0250    889.4908     1.043     0.660 -61.93
       255   1     890.0916     53.55049  20.6812   0.0653   1500.4688    886.7296     1.220     1.145  44.12
       256   1     984.2594     82.55019  20.5720   0.0911   1304.7677    886.0688     1.922     1.294  69.94
       257   1     544.1621     71.11217  21.2155   0.1419    339.9535    885.3679     1.309     1.030  34.29
       258   1     1746.579     94.72584  19.9493   0.0589    538.9833    896.3235     1.883     1.725   1.40
       259   1     1186.399     73.24814  20.3692   0.0670   1177.5465    878.6826     1.901     1.446 -29.58
       260   1     191.0931     35.11979  22.3517   0.1996    673.6566    880.6912     0.571     0.337 -43.38
       261   1     261.7057      41.5543  22.0102   0.1724    542.3553    876.7939     1.039     0.798 -66.28
       262   1     2723.841     63.55616  19.4668   0.0253   1103.9384    869.9144     1.938     1.672 -68.39
       263   1     295234.1     74.70699  14.3794   0.0003   1224.8413    860.0044     2.200     2.134 -58.56
       264   1     1082.119     63.79827  20.4691   0.0640    939.5734    867.9803     2.660     1.296  46.33
       265   1     265.7371     42.28983  21.9937   0.1728    644.4385    870.0572     1.052     0.944  63.32
       266   1     103.5741     28.85386  23.0167   0.3025   1436.6788    870.3463     0.577     0.333  46.08
       267   1     122.2617     31.89914  22.8366   0.2833    454.7578    866.9673     0.691     0.428 -88.45
       268   1     534.8268     43.01279  21.2342   0.0873    961.5995    878.4084     1.344     1.137  76.88
       269   1     182.4764     43.36975  22.4018   0.2581    354.9894    865.0276     0.897     0.532 -47.73
       270   1     193.7933     44.76913  22.3364   0.2509    987.5909    897.7584     0.756     0.451  71.08
       271   1     439.3722     49.04213  21.4477   0.1212   1426.7323    894.7693     1.127     1.110 -76.59
       272   1     938.2017     54.40735  20.6240   0.0630   1157.8055    860.4547     1.324     1.228  86.28
       273   1     138.4811     22.21171  22.7013   0.1742   1554.5013    861.0923     0.775     0.500 -88.06
       274   1      622.921     42.28983  21.0687   0.0737   1340.0120    859.2220     1.452     1.086  76.38
       275   1     222.8254     44.42342  22.1849   0.2165    575.4818    858.4717     0.503     0.496 -43.26
       276   1       285.36     50.58957  21.9163   0.1925    544.9490    856.3663     1.113     0.914   5.01
       277   1     958.4948      76.1379  20.6008   0.0863   1207.0240    845.4324     1.544     1.222 -40.46
       278   1     576.1873     40.04273  21.1534   0.0755   1064.3943    845.5005     1.194     1.165  56.31
       279   1       192.66     35.98708  22.3428   0.2029    363.3137    847.3398     0.571     0.336 -46.22
       280   1     246.4451     45.11219  22.0755   0.1988    359.6028    847.1895     0.773     0.443 -70.93
       281   1     1124.708     52.67969  20.4272   0.0509   1106.5563    844.0712     1.639     1.293  35.66
       282   1     2186.202     90.73557  19.7056   0.0451   1247.7375    838.4830     1.906     1.624 -30.60
       283   1     1430.973     46.12608  20.1657   0.0350    299.0605    836.9655     1.370     1.355  79.35
       284   1       177.22      31.4121  22.4335   0.1925   1520.8816    837.1896     0.806     0.666  40.29
       285   1     362.6296     37.66179  21.6561   0.1128    819.5311    836.2231     0.955     0.927 -25.50
       286   1      6422.89     52.09107  18.5355   0.0088    654.6779    823.5064     1.569     1.513 -76.50
       287   1     227.3251     30.91739  22.1632   0.1477   1399.0044    820.4720     1.011     0.668 -62.94
       288   1     182.7404     27.20368  22.4002   0.1617    702.9738    819.4908     0.777     0.500  -0.21
       289   1     216.1527     35.55608  22.2179   0.1786    878.5024    816.5863     0.965     0.827 -25.88
       290   1     120.2754     35.55608  22.8543   0.3210    433.6773    817.6853     0.565     0.340 -44.59
       291   1     66.63721     13.60184  23.4955   0.2217     91.6578    809.6724     0.579     0.332 -44.38
       292   1     5998.247     53.83762  18.6097   0.0097   1379.0477    803.8173     1.592     1.534 -59.66
       293   1     17617.32     70.45875  17.4399   0.0043    695.9031    799.0421     2.436     1.710 -89.36
       294   1     2898.655     53.26181  19.3993   0.0200     41.4643    800.9717     1.701     1.445 -47.22
       295   1     252.6566     52.97155  22.0485   0.2277    296.3318    794.2216     0.885     0.756  10.26
       296   1     272.4541     35.98708  21.9665   0.1434   1483.7244    787.6122     1.014     0.842  10.33
       297   1     78.03894     13.60184  23.3240   0.1893    136.3167    785.6810     0.564     0.340  45.12
       298   1     3037.805      96.9777  19.3484   0.0347   1427.5459    775.1156     2.904     2.080  84.54
       299   1     1419.806     56.08181  20.1742   0.0429    392.2765    767.0762     1.392     1.238  64.78
       300   1     466.1362     66.40335  21.3835   0.1547    140.3694    767.8954     1.088     1.000   3.33
       301   1     191.1008     37.25017  22.3516   0.2117    567.3879    764.7534     0.972     0.589  18.97
       302   1     137.7212      31.4121  22.7073   0.2477   1342.4969    757.5106     0.515     0.484 -44.91
       303   1     600.7908     76.54182  21.1080   0.1384    195.3511    755.7390     1.569     0.689 -64.66
       304   1     1494.765     47.11815  20.1183   0.0342    556.7055    743.3473     1.378     1.293  77.70
       305   1     403948.7     78.92192  14.0390   0.0002    405.1638    724.5327     2.428     2.171 -46.30
       306   1     1036.207     49.04213  20.5162   0.0514   1178.6418    728.2081     1.266     1.140  29.19
       307   1      98.5575     33.31756  23.0706   0.3671   1544.6659    729.3223     0.573     0.336  44.46
       308   1     578.4663     45.79061  21.1491   0.0860   1158.5879    738.7025     1.118     0.997 -23.34
       309   1     424.4873     48.08976  21.4851   0.1230   1395.4935    722.2570     1.414     0.948  27.03
       310   1     1272.127     46.45912  20.2935   0.0397    808.6302    716.4122     1.328     1.238  60.69
       311   1     1409.842     48.40929  20.1819   0.0373   1164.1588    709.5981     1.439     1.361  86.11
       312   1     570.6714     39.26513  21.1638   0.0747    649.9605    736.5903     1.226     1.108  76.30
       313   1     68244.93     65.70312  15.9696   0.0010    848.6786    727.1608     1.963     1.871  76.78
       314   1     149.7118     24.20465  22.6166   0.1756    538.9688    708.0294     0.889     0.531  44.04
       315   1     1625.733     74.91308  20.0272   0.0500   1339.4032    704.7802     1.821     1.467 -58.88
       316   1     2520.993     51.79425  19.5509   0.0223    952.7863    703.4919     1.598     1.390 -56.63
       317   1     702.9988     77.74098  20.9374   0.1201    582.9042    699.5565     2.023     1.118   3.49
       318   1     126.0519     44.07499  22.8034   0.3797   1277.1443    700.1694     0.747     0.569  46.84
       319   1     698.1628     48.52639  20.9449   0.0755   1214.0188    692.5303     1.415     1.272  17.59
       320   1     561.6097     44.97293  21.1812   0.0870   1214.1903    687.4340     1.387     1.032 -69.69
       321   1      431.729      64.7577  21.4668   0.1629    316.3090    692.2563     1.182     0.959 -81.88
       322   1     2701.693     147.9623  19.4757   0.0595    472.7822    683.6010     3.086     2.396 -66.62
       323   1     384.6791     55.52927  21.5920   0.1568    131.4112    687.9856     1.184     0.921  76.18
       324   1     2021.108     53.26181  19.7908   0.0286    644.6427    686.0824     1.407     1.344 -80.88
       325   1     2166.041     98.08425  19.7156   0.0492    543.8396    681.5072     2.312     1.563 -79.91
       326   1     174.4155     38.47181  22.4508   0.2395    401.3565    685.3240     0.583     0.330 -43.71
       327   1     143.4191     39.65583  22.6633   0.3003    231.5377    672.9717     0.792     0.315 -57.83
       328   1     531.3013     70.45875  21.2414   0.1440   1221.8636    669.9019     1.215     0.968 -63.08
       329   1     216.6838     40.80552  22.2152   0.2045   1180.8993    667.5148     0.779     0.500  -1.22
       330   1     69145.35     65.23212  15.9554   0.0010   1464.5920    649.1013     1.963     1.881 -86.05
       331   1     629.6857     47.11815  21.0570   0.0813    871.1076    655.2362     1.234     1.063  81.69
       332   1     320.0221     45.45267  21.7918   0.1542    653.4371    646.2665     0.977     0.865  29.70
       333   1     3518.339      49.3555  19.1889   0.0152    135.5982   1542.0973     1.544     1.383   8.96
       334   1     10278.06     56.62897  18.0250   0.0060    537.0754    640.2773     1.669     1.590  70.69
       335   1     341.2023     49.66689  21.7223   0.1581    277.0663    642.1149     1.086     0.734  79.50
       336   1     620.4568     43.72379  21.0730   0.0765    806.4702    631.2603     1.234     1.050   8.50
       337   1     1148.186     44.07499  20.4048   0.0417   1581.8943    624.3685     1.377     1.237 -14.87
       338   1     555.5723     74.50034  21.1929   0.1456   1151.8536    619.0382     1.248     1.003 -41.13
       339   1     200.3165     48.72674  22.3005   0.2642     96.2095    618.8722     1.130     0.435  60.64
       340   1     91.10657      19.2359  23.1559   0.2293   1235.4902    616.4610     0.502     0.496  38.02
       341   1     222.8091     48.72674  22.1849   0.2375   1367.6843    614.6583     0.907     0.525 -44.23
       342   1     117.2094     30.41463  22.8824   0.2818    996.6681    612.7003     0.562     0.341 -43.29
       343   1     287.5627     42.65284  21.9079   0.1611    946.0920    610.0890     0.994     0.845  88.09
       344   1     1121.365     54.40735  20.4304   0.0527    586.7002    606.0616     1.345     1.261 -54.10
       345   1      58663.8     64.03948  16.1339   0.0012    488.0694   1558.4323     1.896     1.842 -77.54
       346   1     471.5522      64.7577  21.3710   0.1491   1101.0448   1520.3511     1.525     0.761  85.24
       347   1     115.1046     34.23054  22.9021   0.3230   1139.4917    589.0217     0.783     0.500  88.42
       348   1     136.9623     30.41463  22.7133   0.2412   1058.3408   1565.3229     0.576     0.334 -44.22
       349   1     201.9175     38.06895  22.2918   0.2048   1414.9049   1582.7250     1.081     0.504  53.70
       350   1     155.4724     35.11979  22.5756   0.2453   1173.6711    585.6938     0.563     0.340 -43.83
       351   1     119.7083     27.20368  22.8595   0.2468   1566.4948   1563.5049     0.508     0.491 -45.00
       352   1     518.4082     61.83478  21.2681   0.1295   1069.7926   1586.3579     1.172     0.838  29.30
       353   1     170.5327     27.20368  22.4753   0.1732   1491.8369   1576.3046     0.912     0.665  66.57
       354   1      25212.5     150.2372  17.0507   0.0065    682.5764   1553.0736     4.579     3.897 -22.93
       355   1     981.0762     45.79061  20.5755   0.0507    861.8610   1561.7875     1.292     1.097  79.01
       356   1     787.2269     71.97416  20.8145   0.0993   1222.3224   1551.7314     1.331     1.081   0.18
       357   1     1024.284     71.54446  20.5287   0.0759    863.8886   1546.7560     1.553     1.328  88.73
       358   1     59542.07      62.8242  16.1177   0.0011    304.6801   1563.9949     1.869     1.774 -88.03
       359   1     1780.799     59.28904  19.9282   0.0362     93.1671   1570.7731     1.474     1.274 -85.66
       360   1     105.4973     30.41463  22.9967   0.3131   1513.6652   1553.3304     0.577     0.334  44.81
       361   1     193.9702     40.04273  22.3354   0.2242   1038.4604   1570.5034     0.506     0.492 -48.05
       362   1     176.6571     46.12608  22.4370   0.2836   1428.0096   1538.0000     1.240     0.676   3.75
       363   1     2406.488     53.26181  19.6013   0.0240    655.1299   1542.9838     1.502     1.336 -56.86
       364   1     256.9229     48.40929  22.0303   0.2046    253.1742    916.4685     1.121     0.592  62.51
       365   1     103.0784     24.83344  23.0219   0.2616    263.6456   1539.6965     0.573     0.335 -42.68
       366   1       144104     68.23551  15.1581   0.0005   1090.9639   1435.0229     2.036     1.965 -82.98
       367   1     282.5131     44.07499  21.9272   0.1694    976.0000   1534.9935     0.855     0.289  90.00
       368   1     341.2026     52.67969  21.7222   0.1677     14.8185   1523.0468     0.825     0.670  49.97
       369   1     368.3522      61.0822  21.6391   0.1801    733.7032   1529.0250     1.108     0.977 -21.70
       370   1     255.8195     39.65583  22.0349   0.1683     85.6172   1519.8167     1.161     0.557 -72.50
       371   1     228.7791     35.55608  22.1562   0.1688    660.1080    908.2434     1.010     0.640  27.98
       372   1      817.483     46.78979  20.7736   0.0622    723.8884   1504.5485     1.231     1.153 -70.01
       373   1     79.38184     25.44671  23.3055   0.3481    122.6568    904.3236     0.577     0.333  44.16
       374   1     6436.815     55.80622  18.5331   0.0094    303.1232    900.7195     1.661     1.533 -89.85
       375   1     157.9833     38.47181  22.5583   0.2645    735.3026    904.3443     0.568     0.338 -47.02
       376   1     430.2627      49.3555  21.4704   0.1246    484.3164   1515.3344     1.045     0.907 -48.99
       377   1     209.5443     43.36975  22.2516   0.2248      6.1786    908.3167     1.042     0.410 -13.29
       378   1     32049.65     61.33408  16.7902   0.0021    269.8372   1507.4878     1.835     1.752 -84.60
       379   1     164.8229     35.55608  22.5122   0.2343   1155.7589   1501.0106     0.691     0.646 -74.06
       380   1     205.9681     36.41298  22.2703   0.1920   1097.0710   1504.9242     0.849     0.645  46.91
       381   1     1078.143     106.6682  20.4731   0.1074    999.2379   1475.6508     2.125     1.026 -18.64
       382   1      496.379     71.11217  21.3152   0.1556    575.4171   1484.2095     1.401     0.843  72.97
       383   1     296.3713     48.08976  21.8752   0.1762    845.0463   1498.9062     1.028     0.802 -19.13
       384   1      7885.46     56.90057  18.3127   0.0078    393.0519   1515.2715     1.679     1.612 -88.23
       385   1     116.5059      31.4121  22.8889   0.2928    199.4784   1477.4834     0.509     0.490  45.28
       386   1     423.2448     48.08976  21.4883   0.1234   1315.4171    905.4216     1.322     0.951  87.18
       387   1     524.3411     39.26513  21.2557   0.0813   1001.3064    912.7817     1.246     1.072  25.27
       388   1     309.9598     42.65284  21.8265   0.1494     78.6735   1488.4760     1.153     0.831  76.10
       389   1     142.3076     35.55608  22.6717   0.2713   1576.0115    911.4659     0.788     0.499  -1.50
       390   1      126.196      31.4121  22.8022   0.2703   1570.5151   1476.9583     0.807     0.309 -58.20
       391   1     956.0093      41.5543  20.6036   0.0472   1322.8579    929.0776     1.305     1.111 -72.59
       392   1     749.9666     40.42592  20.8672   0.0585    838.8076    913.4169     1.247     1.148 -71.85
       393   1     250.3767     38.25126  22.0583   0.1659    577.3334   1481.3245     1.098     0.724 -43.29
       394   1      218.606     46.45912  22.2056   0.2308    648.0193   1439.2085     0.809     0.506 -56.57
       395   1     135.5945     34.67802  22.7242   0.2777   1129.0027   1468.5515     0.787     0.497  -1.09
       396   1     813.7228     87.44759  20.7786   0.1167    516.9307    938.6674     1.506     1.310 -49.29
       397   1     195.2954     41.18161  22.3281   0.2290   1363.9774   1404.4819     1.050     0.658  62.74
       398   1     138.4911     36.83395  22.7012   0.2888     47.4710    926.0289     0.810     0.308 -58.39
       399   1      193.116     38.47181  22.3402   0.2163    391.6273   1454.2170     0.731     0.458 -74.31
       400   1     230.3604     44.42342  22.1488   0.2094   1198.9100    923.8541     0.856     0.665 -45.85
       401   1     1824.887     45.45267  19.9017   0.0270   1067.4658    939.8583     1.432     1.255 -89.17
       402   1     14974.34     57.17088  17.6164   0.0041   1178.7606    930.3751     1.699     1.624  84.79
       403   1     148.3219     36.83395  22.6268   0.2697     88.5105   1449.4948     0.500     0.500  63.31
       404   1     182.3357     45.11219  22.4026   0.2687    725.5385    942.5068     0.502     0.496  51.55
       405   1     329.1167     50.28389  21.7614   0.1659    133.7883    947.8478     0.903     0.840 -37.05
       406   1     663.1132     67.32566  21.0008   0.1103   1271.3823   1439.4867     1.186     1.023 -20.49
       407   1     2605.416     48.72674  19.5151   0.0203    619.5464   1440.2611     1.421     1.386 -27.38
       408   1      770.741     68.68591  20.8375   0.0968    654.3840    951.1777     1.685     1.317  85.02
       409   1     1159.869     76.54182  20.3938   0.0717    727.3629   1060.3149     1.774     1.428  35.75
       410   1     393.9181     58.23959  21.5663   0.1606     61.8944    952.1282     0.836     0.674  46.53
       411   1      1781.52     57.17088  19.9278   0.0349   1387.0178   1416.1224     1.374     1.311  45.83
       412   1     404.8243     38.87049  21.5366   0.1043    445.7632    948.1127     1.175     1.010  40.35
       413   1     512.0031     67.78211  21.2816   0.1438   1347.7289   1437.2300     1.097     1.026 -88.87
       414   1     233.4777     33.77714  22.1342   0.1571    267.9930    949.9877     0.786     0.760  74.27
       415   1     451.5604     42.30257  21.4180   0.1017    452.9855    978.9025     1.217     1.010  65.28
       416   1     503.3768     57.17088  21.3000   0.1233    341.3375   1432.6814     1.621     1.015  17.24
       417   1     3472.926     51.49573  19.2030   0.0161    225.2377   1435.5524     1.487     1.431 -44.02
       418   1     128.3298     34.67802  22.7840   0.2935   1504.4949    954.4677     0.503     0.496 -40.94
       419   1     129.7992     38.47181  22.7716   0.3219      9.3209    991.3489     0.578     0.332 -46.18
       420   1     286.9814     43.72379  21.9101   0.1655      1.6464   1412.2885     1.410     0.471  86.57
       421   1     418.1759     52.67969  21.5014   0.1368    416.6206    965.2357     0.996     0.888 -84.16
       422   1     2479.593      49.3555  19.5688   0.0216    713.7354   1390.8578     1.473     1.393  70.83
       423   1     148.8243     38.87049  22.6231   0.2836   1116.2183    961.5727     0.766     0.443 -20.65
       424   1      970.196     62.33145  20.5876   0.0698    798.2967    981.2570     1.508     1.294 -66.04
       425   1     705.6592     52.67969  20.9333   0.0811    350.2475   1411.4556     1.675     1.133  35.66
       426   1     138.0266     34.67802  22.7049   0.2728    894.2833    960.3209     0.549     0.345 -47.33
       427   1     7514.839     55.25093  18.3650   0.0080   1428.9622   1389.5865     1.626     1.543 -80.50
       428   1      457.139     35.98708  21.4047   0.0855      7.5492   1063.2626     1.193     0.950 -89.19
       429   1     226.8186     45.11219  22.1656   0.2160   1487.6421    982.8866     0.896     0.690 -21.87
       430   1     199.7909     40.80552  22.3033   0.2218    292.2371   1064.4169     0.769     0.450  18.86
       431   1     1874.447      103.141  19.8726   0.0598    454.5872    987.0939     1.863     1.565  53.27
       432   1     102.0322     27.20368  23.0329   0.2895    429.5072   1421.5281     0.510     0.489 -43.97
       433   1     18149.74     61.83478  17.4076   0.0037   1126.7795   1419.9911     1.956     1.654 -76.46
       434   1      2436.26     47.44423  19.5880   0.0211    308.8492   1408.4337     1.452     1.299 -56.97
       435   1     330.5861     42.65284  21.7566   0.1401    569.3190   1067.2041     1.186     0.869 -50.54
       436   1     568.1669     57.43993  21.1686   0.1098    330.3572   1406.5454     1.225     1.076 -89.53
       437   1     863.9752     46.78979  20.7135   0.0588   1032.0123   1401.1348     1.495     1.240 -89.17
       438   1      173.358     36.41298  22.4574   0.2281     43.2902   1303.6624     0.560     0.341  47.58
       439   1     8649.912     57.43993  18.2123   0.0072   1019.3414   1373.2327     1.771     1.571 -66.45
       440   1     421.1753     39.26513  21.4936   0.1012     43.3561   1083.8461     1.367     0.919 -56.69
       441   1     225.9862     38.87049  22.1696   0.1868   1534.9000   1394.8179     0.834     0.660 -42.36
       442   1     81066.62     67.09628  15.7827   0.0009    114.9470   1393.6107     1.983     1.909 -70.56
       443   1     445.2073     52.38621  21.4334   0.1278    807.0846   1389.4781     1.093     0.950  22.97
       444   1     1130.557      92.5858  20.4216   0.0889   1563.3739   1066.0344     1.782     1.582 -44.51
       445   1      1812.34     54.12324  19.9092   0.0324   1039.1959   1392.9153     1.539     1.436  17.79
       446   1     509.0411     47.76809  21.2879   0.1019      7.4531   1073.5525     1.066     0.962 -77.01
       447   1     132.4309      31.4121  22.7498   0.2576   1585.9739   1389.5215     0.772     0.322 -32.96
       448   1     299498.2     116.0814  14.3638   0.0004   1160.5736   1367.2622     3.512     3.241 -57.77
       449   1     537.0688     73.24814  21.2297   0.1481   1274.0172   1385.7444     1.453     0.785  36.99
       450   1      128.896      31.4121  22.7792   0.2647   1216.4929   1371.4744     0.506     0.493 -43.68
       451   1     166.4299     35.98708  22.5017   0.2348    922.3586   1079.6771     0.583     0.329  43.60
       452   1     322.3989     58.23959  21.7838   0.1962    319.3528   1379.5977     0.987     0.642 -83.52
       453   1     803.6117     67.78211  20.7922   0.0916    678.9626   1106.1323     1.740     1.327  30.31
       454   1     9533.222     54.97117  18.1067   0.0063   1148.5480   1082.4395     1.635     1.590 -15.94
       455   1     2852.868     54.68999  19.4166   0.0208    670.0645   1307.9318     1.519     1.426 -61.40
       456   1     14652.17     190.1073  17.6400   0.0141   1135.6959   1360.0585     6.701     5.106  78.79
       457   1      2127.45     91.07478  19.7351   0.0465   1219.4674   1072.9307     1.840     1.730 -77.69
       458   1     872.4247     82.92288  20.7030   0.1032    468.4362   1091.6987     1.944     1.017 -52.32
       459   1     200.6395     31.89914  22.2987   0.1727    359.3428   1131.3701     0.918     0.738 -39.45
       460   1     928.6111     56.08181  20.6352   0.0656    893.4267   1305.6064     1.507     1.188  25.93
       461   1     330.7889     54.97117  21.7559   0.1805     54.4888   1299.6396     1.011     0.784  52.05
       462   1     642.5652     57.70771  21.0350   0.0975    220.0021   1130.3085     1.329     1.136  13.02
       463   1     231.4355     51.49573  22.1437   0.2416    390.8603   1363.0090     0.820     0.503 -30.85
       464   1     191216.5     71.54446  14.8510   0.0004    725.2496   1298.8274     2.138     2.033 -64.34
       465   1     155.0479     37.66179  22.5786   0.2638    150.2008   1368.2008     0.767     0.553  47.44
       466   1     362.0444     49.97635  21.6579   0.1499    605.3703   1346.4995     1.075     0.930 -73.23
       467   1     30314.75     62.08361  16.8506   0.0022    660.4059   1320.4645     1.872     1.774 -86.48
       468   1     839.0012     103.7372  20.7454   0.1343    151.9784   1352.5161     2.315     1.248 -62.41
       469   1     132.4048     30.41463  22.7500   0.2495   1267.5741   1107.7830     0.742     0.449  69.55
       470   1     134.4165     31.89914  22.7337   0.2577    194.9433   1347.1836     0.941     0.466 -35.19
       471   1     688.9214     63.55616  20.9594   0.1002    387.5696   1330.7937     1.253     1.142  20.56
       472   1     1119.634     84.03104  20.4321   0.0815   1140.0361   1331.2777     1.612     1.290 -58.70
       473   1     954.8905     61.58494  20.6049   0.0700    108.1085   1332.9452     1.375     1.145 -28.93
       474   1      589.447     53.26181  21.1287   0.0981    264.8574   1319.6282     1.136     1.076  -9.13
       475   1     13494.96     111.3358  17.7294   0.0090    610.3627   1273.1866     4.139     2.425 -56.89
       476   1     379.6874     64.51918  21.6062   0.1845    845.1694   1307.1810     1.459     0.567  31.59
       477   1     879.8221     43.01279  20.6938   0.0531    673.2828   1242.9283     1.255     1.224  37.48
       478   1     2667.466     72.82596  19.4895   0.0296   1036.5072   1308.1204     2.451     1.794 -33.22
       479   1     3568.624     51.90351  19.1735   0.0158    656.2847   1330.4060     1.653     1.479 -73.98
       480   1     167.9957     43.01279  22.4915   0.2781    633.4948   1325.5393     0.503     0.496 -38.35
       481   1       141.97     35.55608  22.6743   0.2720    940.0000   1304.0469     0.867     0.289  90.00
       482   1      4110.84     52.09107  19.0200   0.0138   1331.8206   1278.9115     1.568     1.430  88.77
       483   1     6951.974     61.83478  18.4495   0.0097    762.5900   1291.8816     2.010     1.589 -26.61
       484   1     16341.79     58.23959  17.5215   0.0039    183.9557   1130.2083     1.781     1.642 -62.85
       485   1     280.3094     43.72379  21.9357   0.1694    546.3781   1291.9332     0.973     0.731 -20.37
       486   1     922.8923     43.01279  20.6419   0.0506    413.1745   1292.8918     1.341     1.141  65.04
       487   1     145.6846     40.80552  22.6462   0.3042   1422.7358   1305.9980     1.045     0.296  39.48
       488   1     3321.847     51.79425  19.2513   0.0169    808.2363   1266.0510     1.564     1.429 -57.37
       489   1     141.9027     29.90343  22.6748   0.2289    343.8332   1278.1573     0.735     0.568 -43.15
       490   1     1411.984      64.7577  20.1802   0.0498    742.7186   1294.0817     1.393     1.299 -35.75
       491   1     332.0547     38.06895  21.7518   0.1245    698.2961   1274.2627     1.293     0.959  54.80
       492   1      499.996     56.90057  21.3074   0.1236   1153.9814   1229.5299     1.230     1.055   5.26
       493   1     1546.012     97.61155  20.0817   0.0686    433.0517   1259.6981     2.146     1.779   2.80
       494   1     2005.682     114.0718  19.7991   0.0618   1429.7480   1213.4780     2.247     2.020  68.35
       495   1     492.5986     49.97635  21.3235   0.1102    855.5994   1262.6415     1.321     0.910 -79.99
       496   1     823.8986     88.84683  20.7651   0.1171    661.9371   1141.9683     1.389     1.114  66.37
       497   1      252.619     54.40735  22.0486   0.2339    216.6479   1262.8231     0.875     0.675 -22.23
       498   1     309398.2     114.7456  14.3285   0.0004    693.9232   1152.1099     3.477     3.186 -45.32
       499   1     256.6304     45.45267  22.0315   0.1923    916.2024   1229.8079     0.773     0.562 -46.12
       500   1     33224.83     62.33145  16.7511   0.0020    512.5157   1080.3702     1.857     1.799  80.06
       501   1     444.3984     52.38621  21.4354   0.1280     48.8353   1237.7671     1.039     0.895  65.13
       502   1     331.9872     34.23054  21.7520   0.1120   1218.0042   1205.1373     1.198     0.764 -79.25
       503   1     1080.907      94.2363  20.4703   0.0947    599.6453   1230.3153     1.508     1.415  67.20
       504   1     281.5223     48.08976  21.9310   0.1855    857.9288   1238.6943     0.736     0.680  10.26
       505   1     14764.96     59.02842  17.6317   0.0043    513.4677   1214.9939     1.743     1.682 -74.63
       506   1     1806.707     62.33145  19.9126   0.0375    839.1993   1208.4054     1.602     1.284 -62.99
       507   1     128.3761     24.83344  22.7836   0.2101   1599.4906   1177.5205     0.507     0.492 -44.38
       508   1     16104.97     186.0023  17.5374   0.0125   1279.3925   1211.3674     5.795     3.484  81.05
       509   1     306.3856     50.89342  21.8391   0.1804   1053.8929   1196.6462     1.003     0.734  74.64
       510   1     375.2316     47.44423  21.6190   0.1373    176.6350   1182.2670     1.121     0.901  62.08
       511   1     299.0493     53.83762  21.8654   0.1955   1416.9308   1210.9396     0.958     0.694  16.72
       512   1     1177.488     45.79061  20.3774   0.0422   1555.7512   1002.1303     1.392     1.258 -72.76
       513   1     325.9545     60.32023  21.7719   0.2010    829.9629   1211.2574     0.962     0.614 -63.59
       514   1     9445.608      61.0822  18.1167   0.0070   1195.3800   1219.6134     1.848     1.709  76.14
       515   1     1796.087     56.35606  19.9190   0.0341   1553.9387   1237.8583     1.567     1.321  64.62
       516   1      2720.26      49.3555  19.4683   0.0197    305.2964   1234.6567     1.489     1.389  89.29
       517   1     2197.225     96.33968  19.7001   0.0476    124.4430   1195.5428     2.254     1.523 -59.89
       518   1     404.0844     55.25093  21.5386   0.1485    674.1858   1183.4395     0.960     0.915 -88.14
       519   1     1661.243      91.9173  20.0037   0.0601   1076.3591   1204.0447     1.849     1.647  42.67
       520   1     562.1226     56.62897  21.1802   0.1094    549.8127   1181.3368     1.164     1.089 -12.79
       521   1     165.0222     38.47181  22.5109   0.2532     18.4838   1177.4840     0.506     0.493 -45.01
       522   1      1600.31     53.26181  20.0443   0.0361    339.5649   1202.1682     1.404     1.315 -84.59
       523   1     113.9121     29.38333  22.9134   0.2801    314.4807   1185.5177     0.516     0.483 -45.05
       524   1       1293.4     75.32357  20.2754   0.0632   1442.6635   1201.6884     1.843     1.472  76.47
       525   1        921.3     58.50372  20.6438   0.0690   1353.3689   1154.3031     1.460     1.345  39.81
       526   1      278.103     42.65284  21.9443   0.1666    567.4765   1156.9827     0.813     0.307  58.45
       527   1     50606.91      64.7577  16.2943   0.0014   1300.1238   1165.9020     1.926     1.826  86.34
       528   1     31513.46     63.55616  16.8085   0.0022    148.5036   1138.7323     1.894     1.832 -80.76
       529   1     712311.6     203.0428  13.4231   0.0003    995.2916   1221.9934     6.412     5.406 -37.06
       530   1     7970.441     143.1966  18.3011   0.0195    758.1492   1172.8602     3.682     3.508 -82.97
       531   1     143.6498     33.77714  22.6615   0.2554    795.2426   1146.9950     0.695     0.429  89.77
       532   1       128.73     30.41463  22.7806   0.2566   1599.5007   1168.5026     0.502     0.498 -44.96
       533   1     5793.428     54.97117  18.6474   0.0103    236.9031   1158.0741     1.608     1.560 -38.38
       534   1     582.6027     48.08976  21.1413   0.0896    888.1488   1162.3535     1.255     1.001 -29.79
       535   1      1454.09     54.40735  20.1483   0.0406     99.9889   1151.4888     1.449     1.230   3.97
       536   1       638.09     54.68999  21.0426   0.0931    547.7855   1129.5151     1.116     0.962 -37.72
       537   1      146.031     36.83395  22.6437   0.2739    113.3110   1148.2976     0.552     0.345 -44.19
       538   1     178.5721     46.12608  22.4252   0.2805    770.4980   1145.0153     1.173     0.341 -40.28
       539   1     369.0944     55.52927  21.6369   0.1634    397.0436   1089.0851     0.986     0.851   2.99
       540   1     529.5057      64.7577  21.2451   0.1328    608.0329   1133.9962     1.271     0.889 -38.84
       541   1     10650.05     57.17088  17.9864   0.0058    752.1788   1104.9940     1.725     1.634  71.48
       542   1     1616.467     99.79832  20.0334   0.0670    479.3548   1110.8606     2.068     1.394  -1.69
       543   1     2397.953     76.74298  19.6052   0.0348    330.2572   1120.5547     2.654     1.586  59.96
       544   1      232.037     44.76913  22.1409   0.2095   1124.5173   1108.9913     0.787     0.317 -57.58
       545   1     575.2932     57.70771  21.1551   0.1089    674.6971   1114.4937     1.110     0.976  11.59
       546   1     6873.381     54.68999  18.4619   0.0086    428.4221   1107.7651     1.611     1.568 -50.84
       547   1     30424.38     63.06913  16.8467   0.0023    778.4575   1095.3090     1.903     1.801  87.22
       548   1     3066.014     52.38621  19.3383   0.0186    642.8412   1089.7329     1.481     1.401 -48.12
       549   1     326.1924     44.07499  21.7711   0.1467   1136.9928   1095.3027     1.078     0.958 -52.89
       550   1       257.76     35.11979  22.0267   0.1480   1453.5167   1087.1427     1.052     0.863  63.23
       551   1     903.7219     49.04213  20.6647   0.0589   1526.9408   1096.3589     1.261     1.214  19.71
       552   1     190.1898     37.66179  22.3568   0.2151    467.5712   1040.6012     1.238     0.453   9.30
       553   1     601.6355     54.97117  21.1064   0.0992    330.5381   1079.6744     1.398     0.966  79.03
       554   1     439.8318     39.26513  21.4466   0.0970   1597.5929   1066.5029     1.296     0.955 -73.16
       555   1     143.3257     32.85156  22.6640   0.2489     53.7874   1080.3822     0.717     0.649  62.33
       556   1     438.4474     67.32566  21.4500   0.1668   1269.1729   1021.8588     1.616     0.720  44.67
       557   1     298.7065     54.97117  21.8667   0.1999    352.4842   1075.4375     1.278     0.658  67.16
       558   1     225.0919     48.72674  22.1739   0.2351    238.4852   1052.3273     1.007     0.541  30.60
       559   1     29480.51     62.08361  16.8809   0.0023    558.8083    985.3408     1.843     1.776 -89.21
       560   1     181.4935     32.85156  22.4076   0.1966   1155.3717   1020.1100     0.907     0.672 -20.82
       561   1     42728.08     63.31311  16.4780   0.0016    633.3705   1040.6694     1.875     1.805 -86.98
       562   1     912.4402     84.94345  20.6543   0.1011    122.0601   1038.5111     1.742     1.086 -39.00
       563   1     112.5128     28.85386  22.9268   0.2785    810.6618   1043.6492     0.587     0.327 -45.47
       564   1     8583.357     56.08181  18.2206   0.0071    525.7363   1039.0747     1.645     1.632  57.74
       565   1     19442.89     60.32023  17.3329   0.0034   1380.3579   1026.5022     1.844     1.691 -85.98
       566   1     81.13208     28.31448  23.2818   0.3790    499.6560    993.3270     0.579     0.332  44.28
       567   1     480542.1     77.74098  13.8505   0.0002     50.7433   1023.9135     2.317     2.204 -52.49
       568   1     341.4374     56.62897  21.7215   0.1801    453.6848   1015.1899     1.229     0.803  22.65
       569   1     125.7781      31.4121  22.8058   0.2712    242.4924   1037.4863     0.516     0.483 -44.89
       570   1     86.18555     24.20465  23.2162   0.3050    181.9908   1028.0000     0.854     0.289   0.00
       571   1     210.5133     38.47181  22.2466   0.1985    346.7417    992.6129     0.970     0.585 -69.91
       572   1     155.5388     43.36975  22.5752   0.3028    464.1618   1028.1904     0.766     0.559  45.33
       573   1     2024.587     95.69741  19.7889   0.0513    302.9965   1030.6350     2.390     1.861  70.88
       574   1     16576.37     58.76665  17.5061   0.0039    813.9998   1010.3685     1.748     1.704  54.67
       575   1     2522.569     49.66689  19.5502   0.0214    345.1447   1011.6084     1.466     1.396  71.70
       576   1      280.934     51.49573  21.9333   0.1991    234.0481    998.4233     1.019     0.744  75.28
       577   1     369.2914     59.80685  21.6364   0.1759    268.1519   1011.1346     0.969     0.698  76.23
       578   1     798.6633     40.04273  20.7989   0.0544   1274.2180   1000.7067     1.223     1.066 -41.59
