#   1 KRON_RADIUS            Kron apertures in units of A or B                         
#   2 MAGERR_APER            RMS error vector for fixed aperture mag.                   [mag]
#   3 Y_IMAGE                Object position along y                                    [pixel]
#   4 X_IMAGE                Object position along x                                    [pixel]
#   5 THETA_IMAGE            Position angle (CCW/x)                                     [deg]
#   6 FLUX_APER              Flux vector within fixed circular aperture(s)              [count]
#   7 A_IMAGE                Profile RMS along major axis                               [pixel]
#   8 B_IMAGE                Profile RMS along minor axis                               [pixel]
#   9 FLUX_RADIUS            Fraction-of-light radii                                    [pixel]
#  10 FLUXERR_APER           RMS error vector for aperture flux(es)                     [count]
#  11 MAG_APER               Fixed aperture magnitude vector                            [mag]
#  12 NUMBER                 Running object number                                     
 4.78   0.0027     53.3380     63.9704   7.26     27794.87     4.718     4.475     16.014     69.43937  16.9401          1
 5.05   0.0166     16.6598    985.3684 -85.39     4529.815     3.609     2.086     11.101     69.44723  18.9098          2
 5.26   0.0185     18.1837     91.5303  74.80     4072.033     2.087     2.035      7.693     69.47079  19.0255          3
 3.61   0.0078     14.8774   1446.0594 -20.58      9722.29     2.377     2.257      5.716     69.40009  18.0806          4
 3.50   0.0017     59.9960   1078.7441 -84.48     44643.46     2.865     2.847      6.535     69.48649  16.4256          5
 7.62   0.0685     24.8117    367.3119  86.43     1100.301     1.223     0.961      6.800     69.43937  20.4462          6
 3.50   0.0017     80.3040    537.8688 -68.48      43646.7     2.829     2.748      6.359     69.40009  16.4501          7
 3.50   0.0000    182.2390   1107.8192 -34.04      1571409     4.633     4.354      8.519     69.45508  12.5593          8
 5.98   0.0429     75.3305    128.1510   7.55     1757.797     1.644     1.392      6.887     69.40794  19.9376          9
 3.50   0.0012    122.0009    789.4395 -44.95     64446.25     2.953     2.851      6.478     69.44723  16.0270         10
 5.56   0.0300     96.7984     56.3260 -28.63      2515.57     1.883     1.716      7.798     69.46293  19.5484         11
 3.50   0.0003    193.7160    318.2358 -55.00     274271.9     3.308     3.124      6.590     69.43152  14.4545         12
 3.50   0.0021    162.6019   1468.6160 -48.21     36374.79     2.794     2.676      6.254     69.40794  16.6480         13
 4.34   0.0091    170.5134    877.6075 -42.42      8292.44     2.344     2.308      6.813     69.42366  18.2533         14
 7.22   0.0460    172.0389    325.4923  78.58     1636.864     1.491     1.374      8.945      69.3765  20.0150         15
 4.95   0.0029    234.9792    403.9996 -38.88     25587.35     6.019     5.012     20.499     69.42366  17.0299         16
 9.28   0.1039    166.5024    104.4957 -45.07     724.6674     0.503     0.497      3.016     69.36077  20.8997         17
 7.74   0.0747    193.0751   1350.2625 -32.39     1009.367     1.045     0.868      6.271     69.39223  20.5399         18
 5.45   0.0417    206.8568    549.2773 -50.53     1808.439     1.743     1.512      6.764      69.4158  19.9067         19
 6.16   0.0213    210.9326    828.3876  -3.64     3534.817     3.061     2.052     12.835     69.47079  19.1791         20
 5.52   0.0462    212.4846   1306.3790 -88.11     1630.841     1.652     1.433      5.598     69.43937  20.0190         21
 8.04   0.0601    209.0900    350.2563 -24.90     1253.655     1.270     0.628      5.477     69.39223  20.3046         22
 3.50   0.0008    260.0246    997.7202 -34.57     98128.89     3.046     2.974      6.611     69.43152  15.5705         23
 6.92   0.0252    230.2005    562.1717 -22.47     2990.425     2.668     2.059     13.179     69.40794  19.3607         24
 4.98   0.0392    224.0775   1226.1844 -35.82     1924.721     1.672     1.608      5.744     69.44723  19.8391         25
 3.50   0.0009    266.0518     67.7467 -46.64     82101.62     2.992     2.877      6.449     69.43152  15.7641         26
 8.09   0.0948    223.1574    774.8520  44.65      795.371     0.856     0.681      4.519     69.44723  20.7986         27
 5.69   0.0224    255.4994    613.4786 -30.24     3363.825     2.493     1.952      9.753     69.36077  19.2329         28
 7.83   0.0479    243.8100    113.3080 -31.34     1573.929     1.504     1.180      9.022      69.4158  20.0575         29
 3.50   0.0002    312.5709    439.6501 -47.03     335941.5     3.265     3.179      6.640     69.45508  14.2343         30
 3.62   0.0039    287.8654   1486.7047 -35.74     19546.52     2.644     2.558      6.324     69.40794  17.3223         31
 3.95   0.0178    282.1862   1522.5603 -26.03     4233.367     2.154     1.975      5.705     69.45508  18.9833         32
 3.50   0.0013    318.9296    905.7576 -48.54     56321.79     2.890     2.827      6.385      69.4158  16.1733         33
 3.80   0.0053    303.2811    201.9545 -59.39     14184.76     2.550     2.452      6.356     69.40009  17.6704         34
 6.35   0.0458    290.0413    515.4338 -57.14     1645.986     1.681     1.429      7.749     69.46293  20.0089         35
 5.51   0.0414    294.2129   1327.8457 -42.72     1819.627     1.647     1.557      5.902     69.43937  19.9000         36
 3.50   0.0003    351.7402   1346.0573 -34.38     286372.6     3.233     3.120      6.630     69.39223  14.4077         37
 3.50   0.0003    351.6763    891.0385 -39.67     297011.9     3.269     3.169      6.687      69.4158  14.3681         38
 3.80   0.0080    322.2903    697.4747 -27.00     9448.454     2.348     2.303      6.060      69.3765  18.1116         39
 8.09   0.1085    303.1684    563.1576  43.47     695.2187     0.770     0.571      4.623     69.46293  20.9447         40
 6.66   0.0419    327.6194    595.6862  25.14     1798.435     1.622     1.432      8.542     69.43152  19.9128         41
 5.28   0.0116    346.6566    867.2876 -12.12     6493.683     2.339     2.192      9.328     69.39223  18.5188         42
 4.97   0.0145    355.9642    432.0585  76.87     5192.505     2.313     2.190      8.193     69.43937  18.7616         43
 4.37   0.0076    368.3321    761.2585 -39.51     9882.669     2.443     2.297      7.107      69.4158  18.0628         44
 7.07   0.0798    350.1291     54.5522 -73.90     944.3325     1.086     0.979      5.618     69.40794  20.6122         45
 5.13   0.0196    367.5964    442.9654 -77.46     3852.469     2.076     1.963      7.460     69.43937  19.0857         46
 5.15   0.0441    361.5371   1500.7213 -13.45     1708.464     1.641     1.434      6.087     69.38436  19.9685         47
 3.50   0.0016    395.3853    231.6062 -54.28     47874.96     2.870     2.821      6.487     69.39223  16.3497         48
 5.78   0.0565    381.0594      1.6276  89.85     1030.442     1.883     0.627      5.381     53.57412  20.5174         49
 8.45   0.1265    372.9990    992.5058 -58.15      596.045     0.805     0.311      3.257      69.4158  21.1118         50
 4.20   0.0096    398.2848    354.7194   9.69     7863.945     2.312     2.281      6.680     69.38436  18.3109         51
 3.77   0.0116    397.4120   1461.3782 -17.33     6496.286     2.313     2.103      5.943      69.4158  18.5183         52
 3.50   0.0017    419.8354    433.5804 -55.32     43601.89     2.778     2.756      6.306     69.44723  16.4512         53
 4.73   0.0468    394.0577   1088.8986 -43.40     1610.257     1.641     1.559      5.226      69.3765  20.0328         54
 3.60   0.0036    415.8977    837.4975 -45.88     21041.85     2.641     2.542      6.209     69.36077  17.2423         55
 5.78   0.0352    412.4688      1.8868  89.97     1681.445     2.854     0.847      7.568     54.47272  19.9858         56
 4.27   0.0200    424.4154    926.6027 -63.70     3767.475     2.056     1.924      6.241      69.4158  19.1099         57
 3.65   0.0049    438.1782    252.3248 -29.13     15460.52     2.594     2.496      6.300     69.44723  17.5769         58
 3.50   0.0006    461.3275    807.6848 -44.56     135218.6     3.069     2.970      6.493      69.3765  15.2224         59
 8.00   0.0760    422.2901    159.2986  30.10     991.2117     1.140     0.455      4.602     69.36077  20.5596         60
 5.77   0.0639    433.3169   1422.0193 -85.55     1179.996     1.350     1.257      5.262     69.43937  20.3703         61
 4.69   0.0150    450.5074     21.3661 -60.70     5039.243     2.156     2.078      7.329     69.39223  18.7941         62
 4.73   0.0131    457.9618     34.5772 -31.46     5762.868     2.314     2.154      7.365     69.44723  18.6484         63
 5.96   0.0190    467.9308    850.5899  22.78     3974.289     5.574     2.051     19.401     69.47079  19.0519         64
 8.38   0.1374    440.3893    305.7971 -18.28     548.4969     0.759     0.448      3.334     69.40794  21.2021         65
 8.29   0.0815    445.1664    122.0109  36.33     925.7548     0.952     0.471      4.687     69.44723  20.6338         66
 5.08   0.0422    464.0114    468.8770  50.79     1787.669     1.620     1.511      5.898     69.46293  19.9193         67
 4.72   0.0349    472.3120    735.0850  14.70     2157.294     1.720     1.617      5.371     69.38436  19.7152         68
 6.27   0.0476    471.5685    254.4642 -26.87     1583.029     1.469     1.457      7.487     69.43937  20.0513         69
 4.34   0.0270    478.2522    923.1936 -23.90     2793.032     1.983     1.718      5.868     69.48649  19.4348         70
 6.82   0.0735    478.2759   1277.3939 -85.19     1025.853     1.353     0.964      5.172     69.46293  20.5223         71
 5.43   0.0693    484.1250   1070.6490  85.23     1087.113     1.448     1.255      5.376     69.38436  20.4593         72
 7.12   0.0397    495.7857     82.7141  63.17     1901.472     1.961     1.610     10.838     69.43152  19.8523         73
 5.00   0.0054    533.2349    518.9296  37.45     14024.24     3.910     3.549     13.890     69.43937  17.6828         74
 3.82   0.0065    512.7750   1302.9084   1.39     11638.27     3.031     2.337      7.313      69.4158  17.8853         75
 7.10   0.0412    496.0874   1186.2869   0.20     1828.008     2.308     1.158      8.644      69.3765  19.8951         76
 5.61   0.0315    515.7681   1461.5475  21.97     2393.535     3.031     1.566     10.540     69.45508  19.6024         77
 8.29   0.0650    504.0765    762.8454  -9.36     1158.966     1.182     0.733      6.845     69.40794  20.3898         78
 3.50   0.0002    588.1974   1315.9708 -40.82     308887.2     3.203     3.090      6.545      69.4158  14.3255         79
 4.80   0.0481    540.5020   1000.0099 -47.10     1566.191     1.801     1.414      4.863     69.40009  20.0629         80
 4.83   0.0349    559.0993   1041.6805 -71.25     2155.295     1.733     1.601      5.949     69.35291  19.7162         81
 3.50   0.0001    631.4110    483.3898 -46.14     547125.5     3.403     3.274      6.744     69.40009  13.7048         82
 4.00   0.0111    572.9424   1242.8494 -20.59     6772.374     2.284     2.162      6.011     69.42366  18.4731         83
 4.04   0.0081    580.9507    144.9609 -57.42     9282.489     2.396     2.287      6.336     69.43937  18.1308         84
 3.97   0.0081    582.4050    319.3372 -28.39     9348.852     2.436     2.322      6.184     69.47864  18.1231         85
 6.40   0.0460    571.2385     45.9847  61.01     1639.308     1.744     1.452      8.115     69.45508  20.0133         86
 6.80   0.0579    571.9903   1447.2919  44.91      1301.83     1.566     1.129      7.138      69.4158  20.2636         87
 6.99   0.0549    575.0917   1336.9126 -44.42     1371.333     1.326     1.194      7.953     69.36864  20.2071         88
 5.29   0.0171    596.9055    782.7564 -63.14     4400.064     2.951     2.704     10.620     69.36864  18.9414         89
 8.03   0.1135    584.8823     75.8871 -43.97     664.0705     0.844     0.671      4.613     69.39223  20.9945         90
 5.43   0.0798   1001.9044   1555.4856 -30.83     943.9646     1.471     1.017      4.691     69.35291  20.6126         91
 3.88   0.0047   1552.8385    682.2031 -26.15     16195.19     4.350     3.862     11.414     69.43152  17.5265         92
 6.08   0.0899    928.8491   1322.2067 -16.26     839.1113     1.255     0.950      4.467     69.46293  20.7404         93
 7.22   0.1192    912.9645    838.5374 -37.14     632.6746     0.996     0.901      4.143     69.43152  21.0470         94
 4.52   0.0122    900.7401    302.9729 -24.72     6179.742     2.259     2.178      6.737     69.45508  18.5726         95
 3.50   0.0001    882.3170    184.0921 -39.05     983780.7     3.580     3.395      6.889     69.39223  13.0678         96
 7.18   0.0518    896.1107    538.3329  76.54     1454.187     1.894     0.972      6.966     69.40009  20.1434         97
 3.50   0.0007    880.6418   1592.4735 -64.65     107886.5     2.972     2.834      6.308      69.4158  15.4676         98
 6.30   0.0196    879.7103    224.5573  88.80     3852.038     5.479     2.003     16.837     69.40794  19.0858         99
 6.90   0.1018    886.5869   1500.2471 -57.75     740.4221     1.072     0.828      4.778     69.43937  20.8763        100
 8.18   0.0785    878.1592   1177.1304  12.63     960.6157     0.971     0.715      5.829     69.43152  20.5936        101
 3.50   0.0003    859.6341   1224.5560 -40.94     276608.9     3.216     3.087      6.617     69.46293  14.4453        102
 5.17   0.0321    869.9198   1103.7911 -18.08     2345.397     1.878     1.655      6.740     69.43152  19.6245        103
 8.97   0.0848    868.5251    939.5373   0.70     888.2816     1.099     0.499      4.646     69.39223  20.6786        104
 7.37   0.0836    843.6827   1106.1793   4.73     902.4397     1.256     0.948      5.610     69.44723  20.6615        105
 6.00   0.0416    838.0731   1246.9420 -58.17     1810.998     1.653     1.549      6.995     69.40009  19.9052        106
 6.15   0.0529    836.6302    298.9912 -69.67     1426.103     1.487     1.313      6.831     69.45508  20.1646        107
 3.83   0.0120    823.3171    654.5357 -42.98      6304.62     2.272     2.152      5.857     69.39223  18.5509        108
 3.85   0.0135    803.3832   1378.7355 -35.93     5567.813     2.198     2.087      5.614     69.44723  18.6858        109
 3.60   0.0046    798.8245    695.8134 -84.53     16231.55     2.986     2.443      6.675     69.42366  17.5241        110
 5.31   0.0271    800.8677     41.3187 -50.43     2783.742     1.945     1.710      6.834     69.39223  19.4384        111
 6.17   0.0357    774.5449   1427.3381 -67.17     2111.246     2.223     1.631      8.906     69.40794  19.7387        112
 6.41   0.0517    766.9319    392.2231  12.80     1459.258     1.476     1.261      7.233     69.45508  20.1397        113
 5.39   0.0562    742.9041    556.4700  -5.58     1340.208     1.527     1.446      5.028     69.38436  20.2321        114
 3.50   0.0002    724.3960    405.1015 -45.58     375801.8     3.360     3.212      6.736      69.4158  14.1126        115
 3.50   0.0012    726.8812    848.5818 -64.13      64504.8     2.921     2.853      6.444     69.44723  16.0260        116
 7.42   0.1204    736.1302    650.1016 -44.73     625.9171     0.857     0.673      4.212     69.40009  21.0587        117
 6.59   0.0762    727.7564   1178.0735 -39.79     989.6578     1.194     1.092      6.000     69.40009  20.5613        118
 5.57   0.0587    716.0161    808.5636 -21.13     1285.356     1.426     1.254      5.539     69.45508  20.2774        119
 5.87   0.0627    709.0939   1164.1671 -18.29     1201.917     1.459     1.161      5.853     69.39223  20.3503        120
 6.51   0.0517    704.4888   1339.2040   6.79     1458.927     1.435     1.408      7.056      69.4158  20.1399        121
 4.40   0.0338    703.0298    952.6744  10.63     2227.739     1.770     1.638      5.480      69.4158  19.6803        122
 4.83   0.0357    685.8143    644.3981 -79.22     2113.172     1.817     1.706      5.717      69.4158  19.7377        123
 6.47   0.0399    681.4931    543.7843 -62.12     1887.967     2.072     1.479      9.096     69.42366  19.8600        124
 9.33   0.0450    682.4871    473.8106  59.39     1675.057     1.089     0.467      5.868     69.43152  19.9899        125
 3.50   0.0012    648.6783   1464.4487 -41.80     64190.64     2.887     2.795      6.343     69.40794  16.0313        126
 9.36   0.1142   1545.6748    862.6478 -43.91     660.0327     0.582     0.330      3.338     69.40009  21.0011        127
 3.96   0.0075    639.9781    536.9599 -78.13      10050.9     2.423     2.363      6.351     69.44723  18.0445        128
 5.87   0.0794    623.6530   1581.1055 -48.29     949.0842     1.290     1.055      4.806     69.39223  20.6067        129
 6.59   0.0673    605.7301    586.2886  53.18     1119.715     1.298     1.107      5.617     69.38436  20.4272        130
 3.50   0.0013   1558.1497    487.7714 -65.64     55932.75     2.822     2.787      6.286     69.45508  16.1808        131
 3.62   0.0101   1514.9722    392.6647 -49.60     7429.802     2.307     2.209      5.817     69.43152  18.3726        132
 6.20   0.0628   1565.8198    784.7139  82.32     1200.598     1.511     1.170      5.785     69.43152  20.3515        133
 6.99   0.0836   1561.6879    861.9500 -18.79     901.4776     1.266     0.890      5.766     69.40009  20.6626        134
 5.73   0.0691   1584.9807   1108.8787  -7.34     1091.608     1.310     1.186      5.284     69.44723  20.4548        135
 4.14   0.0233   1541.9059    134.9537  -7.92     3234.113     1.981     1.925      5.485     69.36864  19.2756        136
 4.80   0.0544   1570.4589     92.6446 -52.34     1384.766     1.545     1.449      5.249      69.4158  20.1966        137
 3.50   0.0013   1563.8138    304.2336 -46.33      56169.7     2.857     2.773      6.303     69.43937  16.1762        138
 4.75   0.0396   1566.7946     21.9680  29.55     1906.181     1.684     1.534      5.288     69.44723  19.8496        139
 4.52   0.0316   1542.7158    654.7670 -44.81     2389.758     1.893     1.777      5.671     69.43152  19.6041        140
 3.50   0.0025   1507.3011    269.3810 -55.62     30253.72     2.722     2.651      6.205     69.40009  16.8481        141
 8.26   0.0542    986.8891    454.3099 -80.67     1388.508     1.235     1.042      7.409     69.36077  20.1936        142
 8.81   0.1003   1504.1671    723.8372 -45.32      752.173     0.765     0.576      4.589     69.45508  20.8592        143
 8.52   0.0838    981.8389    798.0037 -35.79     899.6179     0.944     0.470      4.644     69.43152  20.6649        144
 3.51   0.0052    930.0129   1178.5024 -27.21     14361.75     2.528     2.418      5.994     69.40009  17.6570        145
 3.50   0.0041   1026.0925   1380.0082 -48.94     18389.88     2.599     2.493      6.058      69.4158  17.3886        146
 5.33   0.0435    939.5755   1067.4001  81.81     1731.844     1.566     1.422      5.619      69.4158  19.9537        147
 7.12   0.0432   1030.3782    302.9115  55.48     1745.259     1.750     1.315      7.254     69.42366  19.9454        148
 3.50   0.0024   1080.1975    512.2936 -58.18     31571.28     2.732     2.675      6.276     69.40794  16.8018        149
 3.50   0.0002   1023.8034     50.3254 -45.55     443906.6     3.396     3.242      6.786     69.47079  13.9318        150
 6.86   0.1030   1096.0823   1526.8024  -9.08      732.006     1.151     0.737      4.495     69.43152  20.8887        151
 4.33   0.0313   1439.9349    619.1986 -36.11     2410.361     1.821     1.693      5.565     69.47864  19.5948        152
 4.69   0.0266   1089.6460    642.5017 -53.40     2836.179     1.875     1.753      6.091     69.36077  19.4182        153
 5.02   0.0534   1415.5750   1386.4659 -48.38     1412.324     1.498     1.441      5.343     69.43937  20.1752        154
 3.50   0.0026   1095.2141    778.2502 -51.34     28727.07     2.719     2.667      6.332     69.46293  16.9043        155
 3.50   0.0006   1434.5807   1090.4253 -61.78     136909.2     3.045     2.996      6.480     69.43152  15.2089        156
 4.28   0.0230   1435.4270    224.8802  66.12     3280.647     1.965     1.890      5.524     69.43152  19.2601        157
 4.82   0.0311   1390.6853    713.3143 -27.31      2425.38     1.851     1.716      5.958      69.3765  19.5881        158
 4.18   0.0325   1408.4133    308.4352  -6.14     2317.895     1.832     1.773      5.550     69.44723  19.6373        159
 8.42   0.0871   1400.9904   1031.2578 -89.93     866.4106     0.732     0.701      4.395     69.48649  20.7057        160
 3.50   0.0010   1393.5409    114.3882 -46.75      76210.1     2.933     2.850      6.424     69.43937  15.8450        161
 7.73   0.1061   1413.0192      1.4756 -88.49     542.8903     0.800     0.499      4.480     53.02148  21.2132        162
 3.93   0.0113   1107.6469    428.1274  69.42     6648.727     2.290     2.233      6.068     69.40794  18.4932        163
 6.02   0.0477   1392.6936   1038.8333 -28.30     1578.916     1.510     1.413      6.984     69.39223  20.0541        164
 3.56   0.0044   1419.4581   1126.3647 -51.04     17291.46     2.622     2.504      6.219     69.44723  17.4554        165
 3.50   0.0109   1389.0298   1428.4387 -54.77     6936.423     2.262     2.173      5.521     69.44723  18.4472        166
 3.50   0.0001   1366.4919   1159.1868  13.99     750089.6     4.250     3.402      6.852      69.4158  13.3622        167
 5.62   0.0598   1151.3119     99.6746 -18.10     1260.404     1.512     1.343      5.038      69.3765  20.2987        168
 8.92   0.0646   1111.7200    479.3894 -72.04     1166.685     0.994     0.643      5.642     69.44723  20.3826        169
 3.66   0.0075   1104.7429    751.8953 -54.33     10003.08     2.430     2.317      6.136      69.3765  18.0497        170
 3.67   0.0092   1372.7540   1019.0366 -18.35     8238.686     2.367     2.293      5.997     69.45508  18.2604        171
 3.50   0.0025   1138.7289    148.0419 -55.12     29707.98     2.739     2.658      6.293     69.42366  16.8678        172
 3.59   0.0049   1130.2119    183.5334 -42.65     15453.25     2.591     2.458      6.203     69.46293  17.5774        173
 4.10   0.0116   1291.6654    762.0395 -33.45     6473.219     2.363     2.170      6.320     69.43152  18.5222        174
 6.96   0.0482   1293.7421    741.8593 -44.67     1564.256     1.393     1.339      8.361     69.40009  20.0642        175
 6.61   0.0927   1293.2039    413.0948 -29.51     813.3058     1.186     0.878      4.234     69.40794  20.7744        176
 4.09   0.0139   1158.1503    236.4291 -60.10     5421.908     2.210     2.159      6.094     69.45508  18.7146        177
 7.57   0.1000   1333.1027    107.3204 -20.68     753.4688     0.946     0.687      5.102     69.36864  20.8573        178
 3.50   0.0026   1321.1285    659.6545 -66.74     29092.54     4.007     2.653      8.552     69.39223  16.8905        179
 3.50   0.0004   1298.6069    724.9170 -44.44     179697.5     3.107     3.031      6.544     69.42366  14.9136        180
 5.44   0.0270   1307.7535    669.6703 -58.50     2791.834     2.006     1.719      7.664      69.4158  19.4353        181
 3.92   0.0192   1278.2969   1331.3105 -15.27     3917.497     2.048     1.929      5.645     69.35291  19.0675        182
 7.62   0.1054   1304.6587    892.5934   6.01     715.8174     1.041     0.654      4.800     69.47864  20.9130        183
 3.50   0.0000   1221.6514    995.2197 -28.83      1607071     5.068     4.679      9.201     69.44723  12.5349        184
 4.11   0.0073   1273.0026    609.9416 -53.26     10339.52     3.863     2.762     10.112     69.47864  18.0137        185
 5.04   0.0332   1307.8610   1036.0629 -39.48     2273.283     2.195     1.796      6.839     69.40794  19.6584        186
 4.63   0.0140   1172.9415    758.0084 -44.10     5404.267     3.228     3.085      9.775     69.47864  18.7182        187
 7.94   0.0610   1259.3877    432.6000  43.60      1235.42     1.139     0.990      6.833     69.43152  20.3205        188
 4.76   0.0282   1234.5331    304.9923 -20.92     2671.069     1.839     1.823      5.803     69.47079  19.4833        189
 4.22   0.0255   1265.7494    807.8423 -52.89     2962.288     1.953     1.804      5.324     69.43937  19.3709        190
 3.74   0.0085   1219.1307   1194.8385   9.35     8860.702     2.354     2.271      6.156     69.43152  18.1813        191
 3.63   0.0053   1214.8201    513.1479 -57.14     14161.86     2.555     2.489      6.313     69.44723  17.6722        192
 6.93   0.0912   1242.7659    672.7977 -45.74     826.3383     1.169     0.834      5.540     69.43152  20.7571        193
 3.50   0.0016   1165.4858   1299.7616 -46.85     47954.02     2.811     2.721      6.260     69.42366  16.3479        194
 5.28   0.0508   1237.3462   1553.3843  12.18      1484.87     1.518     1.456      5.351     69.45508  20.1208        195
 5.12   0.0481   1208.1514    839.0454  -9.73     1569.442     1.598     1.444      5.309     69.45508  20.0606        196
 3.50   0.0086   1210.7554   1278.8068  87.86     8769.223     5.103     3.291     11.599     69.45508  18.1926        197
 7.65   0.1362   1181.2957    549.5770  81.28     553.5362     1.029     0.474      3.899      69.4158  21.1921        198
 6.39   0.0505   1203.5897   1075.3782  76.31     1494.027     1.611     1.326      6.632     69.42366  20.1141        199
 5.78   0.0502   1202.2546    339.2905 -38.12     1501.182     1.563     1.300      6.125     69.40009  20.1089        200
 7.83   0.0878   1201.3429   1441.9067  56.67     857.7699     1.067     0.873      5.397     69.38436  20.7166        201
 8.68   0.0657   1213.0522   1429.7795  55.95     1148.086     1.107     0.658      6.640     69.44723  20.4001        202
 3.50   0.0019   1040.5345    633.2512 -56.81      40372.8     2.834     2.714      6.362      69.4158  16.5348        203
 6.60   0.0452   1195.3181    124.1009 -74.56      1664.54     1.634     1.454      7.689     69.34505  19.9968        204
 7.55   0.1064   1153.5623   1352.1962  23.73     708.5257     0.928     0.780      5.570     69.43152  20.9241        205
 3.50   0.0001   1151.9521    693.9736 -41.68     690405.8     3.415     3.265      6.705     69.47079  13.4522        206
 6.06   0.0377   1120.3525    329.9373  53.30     1999.009     1.967     1.576      7.850      69.4158  19.7980        207
 7.85   0.1416   1162.0065    887.9899 -44.90      532.421     0.884     0.537      4.221     69.40794  21.2344        208
 7.28   0.1477   1129.7971    546.8008  45.09     510.4669     0.959     0.445      3.293     69.44723  21.2801        209
 7.68   0.0718   1059.7433    727.2083  44.97     1051.624     1.170     0.832      6.555     69.48649  20.4953        210
 3.59   0.0083   1082.0789   1148.2101 -10.42     9105.644     2.376     2.290      5.851     69.44723  18.1517        211
 3.66   0.0092   1038.8719    525.6320 -80.31      8218.99     2.341     2.286      5.989     69.43152  18.2630        212
 5.78   0.0442   1072.7749   1218.8771  61.18     1704.696     1.703     1.526      6.647     69.43152  19.9709        213
 7.44   0.1160   1000.1909   1274.0079 -87.81     649.9364     0.946     0.762      4.238     69.40009  21.0178        214
 3.53   0.0048   1010.0659    813.8306 -69.01     15650.91     2.532     2.513      6.071     69.43152  17.5637        215
 3.50   0.0027    985.1807    558.6535 -47.43     27923.32     2.735     2.649      6.306     69.45508  16.9351        216
 4.71   0.0306   1011.7432    344.9263 -51.16     2462.237     1.883     1.755      5.600     69.39223  19.5717        217
 4.99   0.0282   1002.0845    542.5952 -80.16     2673.984     1.869     1.790      6.332     69.42366  19.4821        218
