#   1 KRON_RADIUS            Kron apertures in units of A or B                         
#   2 Y_IMAGE                Object position along y                                    [pixel]
#   3 MAG_BEST               Best of MAG_AUTO and MAG_ISOCOR                            [mag]
#   4 FLUX_BEST              Best of FLUX_AUTO and FLUX_ISOCOR                          [count]
#   5 X_IMAGE                Object position along x                                    [pixel]
#   6 THETA_IMAGE            Position angle (CCW/x)                                     [deg]
#   7 A_IMAGE                Profile RMS along major axis                               [pixel]
#   8 B_IMAGE                Profile RMS along minor axis                               [pixel]
#   9 MAGERR_BEST            RMS error for MAG_BEST                                     [mag]
#  10 NUMBER                 Running object number                                     
#  11 FLUXERR_BEST           RMS error for BEST flux                                    [count]
 4.47     94.4127  19.6730      2242.85   1125.4513 -67.03     8.432     4.008   0.2175          1     449.2278
 3.50     47.1609  21.4789     425.0686     46.6974 -18.43     3.115     2.992   0.4728          2     185.0749
 3.50     33.0301  20.3524     1199.656    450.1791   3.93     1.743     1.661   0.0926          3      102.304
 3.50      7.9031  18.5262     6449.225    753.4478   2.44     1.983     1.923   0.0200          4     118.6662
 6.18     12.8639  29.5621    0.2484131    858.4266  50.98     1.289     0.732 449.2759          5      102.768
 0.00      7.2113  99.0000  -0.09851074   1284.7981 -46.48     0.737     0.563  99.0000          6     40.21803
 0.00      6.0000  99.0000    -4.302124   1058.0139   0.00     0.847     0.289  99.0000          7     56.03421
 7.55      4.2469  22.5004     165.8979    947.4111  45.53     1.314     0.771   0.7662          8     117.0517
 4.12      3.8348  23.1977     87.28259     72.4608 -16.44     1.246     1.182   1.0227          9     82.19123
 0.00      2.8667  99.0000     -125.908    936.5207 -10.63     1.625     1.134  99.0000         10     120.6541
 0.00      4.6532  99.0000    -55.19165    706.7065 -47.69     0.565     0.339  99.0000         11     41.38401
 4.68      1.4142  24.0449     39.99792   1254.7991  -3.78     1.168     0.488   1.4262         12     52.52854
 0.00     20.2485  99.0000    -6.716553    234.9529  16.47     1.096     0.906  99.0000         13     60.12957
 6.38     27.8961  23.1022     95.30786    906.5863  84.86     1.356     1.278   1.6523         14     145.0082
 0.00     24.3722  99.0000    -29.28809    897.5001  53.33     1.032     0.802  99.0000         15     123.7682
 7.50     21.4723  23.0291     101.9467    123.0066 -32.35     0.789     0.316   0.7047         16     66.15691
 4.06     69.3732  20.3799     1169.564   1463.3916  74.90     3.177     2.756   0.1926         17     207.3794
 7.74     26.3235  22.9735     107.3036    417.3286 -44.76     0.571     0.337   0.5923         18     58.52583
 3.72     32.4382  22.8308     122.3683   1515.2990  30.41     1.107     0.846   0.5475         19     61.69164
 0.00     33.1804  99.0000     -9.99585      7.1900  44.59     0.766     0.561  99.0000         20     41.38401
 0.00     47.1839  99.0000    -23.69482   1049.4036  70.29     0.741     0.448  99.0000         21      33.7899
 0.00     47.9779  99.0000    -97.80579    229.0076   1.06     0.613     0.605  99.0000         22     88.32899
 4.81     62.2807  22.3759     186.0503   1014.5557  61.95     1.392     1.123   0.6132         23     105.0571
 6.14     52.4638  22.6637     142.7352    204.7005   8.76     0.973     0.482   0.5652         24     74.28658
 0.00     63.3292  99.0000    -357.8118    894.4313  32.57     1.490     1.316  99.0000         25     153.6109
 3.50     95.1854  18.8288     4880.608    917.0939  -9.20     2.432     1.965   0.0296         26      133.031
 0.00     63.8519  99.0000    -7.276489    889.1374  18.53     1.225     0.942  99.0000         27     40.21803
 3.99     65.5806  23.8128     49.53003    971.4410  42.08     1.049     0.908   1.4662         28     66.87215
 3.50     77.6456  21.4537      435.012    183.8656  35.74     1.922     1.615   0.2690         29     107.7398
 4.01     80.3084  23.9232     44.74084    542.7675 -74.51     1.942     1.344   2.7099         30     111.6431
 3.50     94.6567  21.5105     412.8491    347.2999   1.29     1.577     1.515   0.2434         31     92.53746
 6.42     88.6536  23.0411     100.8253   1026.2157  38.54     0.937     0.744   0.9967         32     92.53746
 3.75     93.2241  22.2849     202.3132    737.8329  -2.89     1.220     1.140   0.4089         33     76.18356
 8.20     87.6823  23.2872     80.37476   1076.8492 -12.12     1.079     0.416   1.2913         34     95.57228
 4.37    106.6409  20.8832     735.6986    974.6325 -73.93     2.125     1.886   0.2221         35     150.4821
 3.50    106.5787  21.7120     342.9382     47.9887 -15.76     1.548     1.459   0.2881         36      90.9821
 8.45    104.3943  22.1103     237.6243    265.9957  54.86     1.476     0.923   0.7773         37     170.0721
 0.00     94.4939  99.0000    -48.25049   1248.5023  44.92     0.506     0.494  99.0000         38     85.03606
 3.50    100.2884  23.2339     84.41638    357.1915   0.39     1.135     0.906   0.7837         39     60.91562
 0.00     96.5149  99.0000    -2.458984    590.4865 -44.94     0.510     0.489  99.0000         40      33.7899
 0.00     99.9511  99.0000    -1.222046    173.4704  86.25     0.780     0.498  99.0000         41     63.96325
 0.00    110.1582  99.0000    -89.61487   1458.8864 -14.43     1.146     0.934  99.0000         42     106.8531
 4.28    115.3070  22.6736      141.433    925.0088 -50.53     1.258     1.145   0.6824         43     88.86594
 3.70    125.7528  21.9657     271.4794    300.9926 -16.30     1.591     1.521   0.3960         44     98.99538
 4.21    118.2691  24.1236     37.19995     79.9862  35.99     1.594     1.331   3.1194         45     106.8531
 7.06    113.9025  22.7587     130.7773     66.6563 -18.40     0.921     0.676   0.7895         46      95.0732
 8.59    112.3366  22.7307     134.1913   1000.3244 -45.54     0.575     0.335   0.5236         47     64.70274
 3.50    151.1229  19.2083     3441.071     45.8490 -52.15     1.949     1.851   0.0601         48      190.464
 3.50    212.4886  16.2702     51513.97    967.6542  40.01     3.048     2.888   0.0038         49     179.0652
 9.18    119.3316  22.4799     169.0626    231.3272 -45.20     0.574     0.335   0.4341         50      67.5798
 0.00    130.0126  99.0000     -33.1344     55.4443  37.97     1.241     1.021  99.0000         51     96.56269
 5.54    133.5662  23.9111     45.24207   1498.7036  -0.10     1.148     0.959   2.3993         52     99.95188
 5.33    140.3865  23.7347     53.22559    218.2452 -66.34     1.301     1.032   2.1802         53     106.8531
 4.32    158.7005  18.1179     9393.453     50.5213  14.00     2.556     2.201   0.0261         54     225.5869
 0.00    131.6804  99.0000    -15.19824   1315.2950  46.43     0.554     0.344  99.0000         55     57.70724
 4.48    152.9119  22.5810     154.0332    879.5300 -60.81     1.011     0.961   0.5327         56     75.55652
 3.72    173.7126  21.3873      462.479    557.3240  47.42     2.364     2.321   0.3541         57     150.7979
 4.23    183.8768  21.4517     435.8387   1263.0786  -7.93     2.523     2.381   0.4462         58     179.0652
 0.00    166.4995  99.0000    -5.385742    746.5167 -74.63     1.407     1.236  99.0000         59     115.4145
 4.28    164.1927  23.2714     81.55457   1521.5858  74.81     1.105     0.950   1.0228         60     76.80547
 5.24    162.8947  24.3336      30.6582   1154.2748  52.79     0.950     0.930   3.0320         61     85.59367
 4.89    172.7050  21.9296     280.6396    945.0700 -51.52     1.571     1.253   0.4545         62     117.4574
 3.50    185.3256  20.3753     1174.577    378.2397 -28.54     1.786     1.762   0.0984         63     106.4069
 7.50    164.1903  22.9939      105.301    759.0225  37.12     0.938     0.473   0.8712         64     84.47475
 7.24    168.6113  24.8860     18.43396   1158.9104  47.54     1.111     0.480   5.3291         65      90.4577
 3.94    174.5828  24.3168     31.13757    961.8307  82.06     0.977     0.930   2.2567         66     64.70274
 3.50    237.3644  16.8661     29755.99   1389.7841 -41.09     2.309     2.169   0.0050         67     135.8617
 6.87    181.0341  24.4187     28.34656    461.1556 -54.27     0.926     0.470   2.9896         68     78.03444
 0.00    196.4339  99.0000    -346.2197   1066.2972 -20.88     2.031     1.821  99.0000         69     204.1425
 6.78    188.9588  20.2708     1293.235   1070.1791 -24.62     1.548     1.057   0.0800         70     95.31094
 3.50    206.1323  21.3242     490.1206     21.5627 -56.80     1.638     1.562   0.2151         71     97.05411
 3.50    201.2601  21.8818     293.2826    185.9180   6.51     1.443     1.361   0.3149         72     85.03606
 5.23    202.1462  21.9821      267.403    412.4117  66.29     1.510     1.319   0.5165         73     127.1806
 0.00    201.9580  99.0000    -11.01514   1294.5009 -85.51     1.212     0.838  99.0000         74     83.90971
 5.93    205.3313  21.8244     309.2025    353.9930  16.74     1.813     1.438   0.5824         75     165.8232
 3.50    224.9422  19.8339     1933.904   1093.4563 -59.44     1.814     1.775   0.0617         76     109.9254
 3.99    218.7306  21.4964     418.2451   1020.6931  -7.62     2.094     1.983   0.3644         77       140.34
 4.87    216.3218  22.0983     240.2695   1198.5570  55.51     1.841     1.567   0.6465         78     143.0262
 6.51    203.9402  24.6864     22.15271    452.2255  87.50     0.695     0.417   2.9478         79     60.12957
 4.60    268.1983  20.7958     797.4115    140.7266  65.34     5.964     2.061   0.3790         80      278.297
 3.82    210.1299  24.4311     28.02539    908.8029  49.34     0.821     0.649   1.8128         81        46.78
 3.50    223.1118  23.3489     75.93457   1178.3679  -5.05     1.281     1.210   1.0806         82     75.55652
 6.18    213.5688  23.1698      89.5498   1061.7803  21.01     0.736     0.449   0.7574         83     62.45803
 3.89    286.2726  19.7456     2097.823   1328.5978 -54.54     4.071     3.479   0.1309         84     252.8605
 7.11    232.5957  22.6912     139.1667    654.3945  19.87     2.685     1.375   1.8379         85     235.5215
 3.53    242.9650  21.0393     637.2042    566.6058  37.93     1.679     1.645   0.1712         86     100.4267
 3.55    236.5731  21.7105     343.4065    836.9667   6.66     1.498     1.372   0.2810         87     88.86594
 3.50    258.8932  20.0801      1541.49   1426.9111 -51.38     2.259     1.731   0.0847         88     120.2591
 4.05    234.9387  22.5691     155.7279    880.2339 -62.63     1.346     1.177   0.6160         89     88.32899
 5.69    244.0083  21.3140     494.7617    660.8113  37.74     2.162     1.852   0.4319         90     196.7857
 3.50    247.6646  21.3023     500.1069    577.4250  67.60     1.633     1.559   0.2075         91     95.57228
 6.01    254.1846  21.8227      309.687   1369.7998 -47.94     2.427     1.671   0.7352         92     209.6608
 6.17    241.2870  22.3222     195.4938    369.2222  30.13     1.736     1.378   0.9196         93      165.536
 7.66    228.4811  26.7765     3.231567    906.4860  44.84     0.514     0.484  22.7109         94      67.5798
 7.03    242.2005  21.9362      278.955    966.9060 -61.08     1.771     0.956   0.6205         95     159.3867
 4.36    249.6382  25.1356     14.64673   1163.8445 -84.59     1.850     0.892   7.1962         96     97.05411
 6.57    255.1234  22.2163     215.5151     76.2674 -83.10     2.133     1.143   0.8929         97     177.1957
 0.00    243.4088  99.0000    -132.0917   1339.8333  80.45     1.073     0.852  99.0000         98     112.4921
 3.50    251.5225  23.2506     83.12964    914.5157  22.95     1.473     1.146   1.0194         99     78.03444
 6.16    261.7776  21.7167     341.4457    410.9438 -50.42     1.595     1.170   0.4623        100     145.3359
 4.50    296.8800  20.6097      946.473    375.0334  30.08     5.932     2.233   0.3242        101     282.5383
 3.81    279.1085  21.6830     352.2178   1128.7777 -37.13     2.416     1.730   0.4167        102     135.1596
 4.37    264.9361  23.0336      101.519    271.6232 -73.63     1.138     0.946   0.8282        103     77.42239
 6.46    263.5041  22.6609     143.0934    721.2064 -89.49     0.987     0.733   0.7177        104      94.5715
 3.50    281.3364  21.9761     268.8923    955.4014 -28.15     1.574     1.506   0.3717        105     92.02193
 3.50    266.9327  24.6736     22.41602    767.3180 -16.25     0.981     0.732   2.4556        106     50.68485
 3.50    286.3484  22.4927     167.0834    743.6095  40.15     1.460     1.383   0.5635        107     86.69816
 7.40    278.8119  26.3084     4.973267   1454.3896 -71.06     0.759     0.445  16.3610        108     74.92424
 6.29    279.6088  25.7166     8.577393    884.7463  18.33     0.745     0.451   7.9079        109     62.45803
 3.73    313.6259  21.0433     634.8546    792.7342  28.19     2.366     2.017   0.2406        110     140.6786
 7.37    289.1764  24.0113     41.25366   1177.8871  42.69     0.851     0.670   2.5159        111     95.57228
 0.00    292.0175  99.0000    -29.84204   1277.2856  87.01     0.742     0.692  99.0000        112     88.32899
 5.13    298.8221  22.7400     133.0431    863.1149  17.37     1.474     1.048   0.9078        113     111.2162
 3.50    374.0452  16.7604      32796.6   1263.0072 -33.49     2.333     2.210   0.0045        114     136.5603
 5.61    315.0114  20.3580     1193.402    803.5080  31.74     1.723     1.262   0.1005        115     110.3856
 3.50    338.2123  19.5086     2609.453    596.3755 -66.87     1.875     1.854   0.0470        116     112.9142
 3.50    332.7775  20.5596      991.173    789.3983 -34.10     1.680     1.646   0.1095        117     99.95188
 0.00    311.5056  99.0000    -20.80151   1549.0146  -1.35     0.805     0.500  99.0000        118      67.5798
 7.97    317.2074  23.4906     66.64355   1061.6068 -71.74     0.763     0.449   1.3488        119     82.76802
 0.00    323.1175  99.0000    -67.42981    833.2548  -4.62     1.149     1.073  99.0000        120     96.06876
 5.46    323.2687  22.1576     227.4813    289.3503  -5.53     1.242     1.080   0.5289        121     110.7876
 3.50    328.8228  22.2698     205.1499    720.6425 -72.46     1.375     1.253   0.4131        122     78.03444
 3.50    335.3305  22.2185     215.0861   1146.0575 -32.82     2.232     1.734   0.6052        123     119.8629
 6.41    327.7767  22.0937     241.2722    157.4338  64.09     1.391     0.861   0.5449        124     121.0477
 7.76    322.0162  23.3747     74.15295   1454.0000  90.00     0.864     0.289   1.0000        125     68.28014
 0.00    335.9540  99.0000    -118.2418   1038.2914 -51.54     1.658     1.399  99.0000        126     150.1656
 5.32    334.7170  25.0087     16.46313    661.8060   3.32     1.727     1.269   9.0083        127     136.5603
 3.50    361.4441  21.2686     515.8961    708.8192 -68.97     2.479     2.197   0.2961        128     140.6786
 0.00    329.3398  99.0000    -1.447266    220.3325 -45.30     0.580     0.332  99.0000        129     23.89307
 4.02    375.0766  20.3165     1239.922   1364.3392   5.19     3.340     2.486   0.1753        130     200.1416
 6.59    349.8664  24.2602     32.80469   1576.3282 -74.94     1.358     0.321   2.5013        131     75.55652
 3.50    347.4366  23.9194     44.89978   1599.3663  84.48     0.950     0.617   0.9728        132     40.21803
 5.25    348.1754  22.4475      174.187     40.1509  47.67     0.757     0.568   0.3749        133     60.12957
 3.50    363.7216  22.4157     179.3605    504.4440  69.04     1.459     1.405   0.5315        134     87.78874
 4.73    360.6756  21.9004     288.3076    640.8969 -84.53     1.210     1.133   0.3674        135     97.54305
 0.00    359.7431  99.0000    -155.2841   1278.9045 -66.17     1.174     1.052  99.0000        136     139.6604
 5.16    357.1693  25.6770      8.89624   1291.4176  69.78     0.750     0.447   6.1873        137     50.68485
 6.49    357.3419  23.9845     42.28821   1050.6553 -12.61     1.135     0.614   2.4027        138     93.56001
 0.00    363.0229  99.0000    -284.9711     99.2650  89.07     1.168     0.847  99.0000        139     127.9265
 7.33    359.0027  22.2000      218.786   1095.3845 -89.96     0.875     0.486   0.4080        140     82.19123
 0.00    369.7059  99.0000    -128.4843   1341.3179  34.94     2.012     1.027  99.0000        141     187.8812
 0.00    365.7765  99.0000    -179.0594   1284.6234 -65.85     1.036     0.935  99.0000        142     141.0163
 4.23    451.0447  21.1448     578.2233   1220.1050  54.56     7.010     2.619   0.5877        143     312.8989
 0.00    368.1672  99.0000    -37.69727    268.3489 -52.80     1.060     0.678  99.0000        144     98.02955
 3.92    401.3127  20.8860     733.8455    825.4194  45.88     3.281     2.709   0.2997        145     202.5046
 3.55    389.2865  21.0799     613.8204   1463.5734  -5.81     1.789     1.699   0.1883        146     106.4069
 6.34    380.2635  22.7405     132.9839    959.4734 -67.00     2.181     1.119   1.3912        147     170.3516
 7.87    368.8943  23.1143     94.25122    643.5867  27.32     1.151     0.577   1.2566        148     109.0564
 3.72    377.3903  23.0932     96.10071    163.5931  83.29     1.331     1.253   0.9482        149     83.90971
 3.89    385.7827  22.7743     128.9108    867.8937  84.36     1.357     1.232   0.7211        150     85.59367
 6.27    377.7131  23.3352     76.89929    430.5041 -24.91     1.601     0.716   1.6357        151      115.826
 0.00    383.5173  99.0000    -80.04114   1278.0845  88.46     1.306     1.166  99.0000        152     135.8617
 3.55    392.8902  22.6829     140.2275   1317.9773  52.61     1.645     1.444   0.7402        153     95.57228
 3.50    413.7154  19.8355      1931.12     67.4630 -60.35     1.877     1.839   0.0628        154     111.6431
 3.50    417.2204  19.4448     2767.546   1308.3070  17.11     1.920     1.876   0.0450        155     114.5871
 5.35    391.8077  23.5509     63.04333   1206.6018 -76.03     1.191     0.958   1.7136        156     99.47478
 3.50    719.8947  18.1006     9545.076    199.2038 -41.88    13.551    10.306   0.0814        157     715.0644
 5.07    393.7631  24.8606     18.86914     18.9677  -1.50     0.688     0.425   2.6924        158        46.78
 3.50    458.0837  18.0357     10132.48     12.6700 -49.85     2.253     2.053   0.0140        159     130.5037
 0.00    413.4766  99.0000    -9.698242    665.7608  68.88     1.487     0.880  99.0000        160     77.42239
 3.50    416.9565  25.1495     14.46069   1158.3895  81.84     1.470     1.033   5.6268        161     74.92424
 0.00    410.1406  99.0000    -24.52515    750.1879   9.17     1.114     0.725  99.0000        162     78.03444
 5.64    421.2555  22.8078     124.9891    102.5200  61.15     1.205     1.020   0.9400        163     108.1805
 0.00    419.6847  99.0000   -0.6184082    889.6652 -66.61     0.907     0.718  99.0000        164     29.26291
 6.45    421.7512  22.0567     249.6481    893.2390 -21.82     1.314     0.898   0.5197        165     119.4653
 6.55    425.8313  24.2231     33.94507    962.7754 -80.47     1.045     0.847   3.3611        166     105.0571
 4.90    439.7298  25.9956     6.633667    908.9675 -25.61     1.890     1.699  24.9951        167      152.679
 3.50    466.1190  18.7272     5359.506   1075.1609 -32.82     2.018     1.954   0.0240        168     118.6662
 0.00    428.7175  99.0000    -29.66846   1431.8264 -31.22     0.864     0.605  99.0000        169     70.33929
 8.66    432.2888  24.0340     40.40002   1516.0232  -8.46     0.723     0.673   2.8241        170     105.0571
 0.00    433.7692  99.0000    -45.40076    415.6180  72.67     0.747     0.453  99.0000        171     69.65967
 0.00    439.5482  99.0000    -41.94055    815.4628  33.56     1.225     1.095  99.0000        172     69.65967
 3.89    449.0450  22.8075     125.0258    290.8685 -32.56     1.440     1.299   0.8127        173     93.56001
 3.96    450.0580  22.3576     189.2148    174.6930   9.52     1.794     1.456   0.6359        174     110.7876
 0.00    448.5518  99.0000    -4.147461   1378.3848 -62.47     1.098     0.709  99.0000        175     78.03444
 0.00    452.0868  99.0000    -77.90552    966.7126  51.79     1.085     0.975  99.0000        176     117.4574
 0.00    457.6748  99.0000    -81.55676   1159.9452  81.80     1.617     1.344  99.0000        177     136.2115
 0.00    445.6780  99.0000    -10.60669   1485.3439  44.05     0.577     0.333  99.0000        178     55.17868
 8.33    445.6734  25.4960     10.50989    376.6509 -44.08     0.581     0.331   6.5321        179     63.21512
 3.94    462.5902  21.6594     359.9539    275.6967   0.35     1.827     1.463   0.3381        180     112.0684
 0.00    454.2875  99.0000    -39.37097    478.9831 -14.32     0.732     0.666  99.0000        181     73.64339
 4.32    465.1969  24.7181      21.5166   1190.5952 -13.54     1.366     1.198   4.8738        182     96.56269
 5.75    462.4704  22.3228     195.3854   1091.8141   0.80     1.161     0.967   0.5839        183     105.0571
 7.91    459.6889  23.0375     101.1615   1099.6337 -42.76     0.581     0.330   0.6455        184     60.12957
 6.44    462.9705  24.3514     30.15991   1263.0303 -45.42     0.898     0.532   2.7432        185     76.18356
 3.50    488.4069  20.7062     865.9652    574.1901  14.25     1.761     1.641   0.1300        186     103.6897
 5.42    473.1105  23.6693     56.52747    250.7760  62.62     1.279     0.550   1.5339        187     79.84242
 3.92    478.8407  22.8181     123.8168   1017.6990  32.97     1.410     1.333   0.8295        188      94.5715
 4.91    474.3923  23.7115     54.37646   1138.5402  20.56     1.229     0.936   1.8379        189     92.02193
 8.42    476.2465  22.3630     188.2866   1162.2501  71.10     0.859     0.351   0.4536        190     78.64172
 6.33    479.8654  22.8211     123.4707   1571.2762 -17.61     1.048     0.546   0.7127        191     81.02534
 0.00    478.6742  99.0000     -5.52417    219.6721 -44.91     0.572     0.336  99.0000        192      33.7899
 3.50    505.4083  20.6798     887.2957   1142.3480 -37.17     1.754     1.707   0.1291        193     105.5089
 3.50    557.4858  19.6783     2231.828   1456.4041 -85.58     1.868     1.858   0.0547        194     112.4921
 0.00    497.8973  99.0000    -41.44824    604.8098  73.73     1.557     1.321  99.0000        195     86.69816
 3.94    489.5105  24.0036     41.54761    769.5135 -45.64     0.501     0.498   0.8832        196      33.7899
 0.00    509.2844  99.0000    -66.63708    999.6625  34.56     1.878     1.755  99.0000        197     190.6461
 0.00    500.9969  99.0000    -269.1133   1011.0789  -7.59     1.946     1.093  99.0000        198      151.113
 3.88    506.7611  22.4475     174.1798    538.5916 -46.71     1.331     1.280   0.5507        199     88.32899
 4.64    536.8422  20.6578      905.506    353.0277  -6.58     2.927     2.803   0.2754        200     229.5891
 4.43    530.4689  21.5472     399.1399   1006.4338 -32.62     3.333     2.123   0.5516        201     202.7394
 4.34    532.7872  19.2305     3371.397    671.9299  67.38     2.482     1.690   0.0541        202     168.0206
 5.77    515.0647  24.5083     26.10132   1524.5029  43.62     1.155     1.062   4.5556        203     109.4918
 6.10    513.0201  23.8173     49.32678    164.0000  90.00     0.859     0.289   1.1565        204     52.52854
 3.50    547.5416  19.8028     1990.108    374.1339 -74.44     1.992     1.893   0.0643        205     117.8617
 0.00    518.2790  99.0000    -35.91174   1431.6025  -7.67     0.981     0.919  99.0000        206     71.67921
 5.07    539.9126  18.8440     4812.788    674.2069 -44.53     2.487     1.668   0.0386        207     170.8537
 3.50    532.7383  23.5138     65.23572    654.4314 -13.30     1.289     1.121   1.1933        208     71.67921
 3.50    561.8504  19.1436     3652.171    583.2339  25.76     1.888     1.857   0.0338        209     113.7538
 0.00    524.7182  99.0000    -12.24487   1374.9868  -0.82     0.679     0.450  99.0000        210     82.76802
 8.08    525.6044  23.4344     70.18274    331.1867 -19.31     0.762     0.444   1.2807        211     82.76802
 0.00    528.8715  99.0000    -68.72278    229.1235 -49.93     0.753     0.572  99.0000        212     66.15691
 0.00    533.1379  99.0000    -133.7252   1227.7197 -14.57     1.024     0.751  99.0000        213     92.02193
 3.50    566.7295  19.4132     2849.107    956.1602 -21.55     1.898     1.874   0.0435        214     114.1712
 0.00    536.7968  99.0000    -41.87744    468.3878 -71.16     0.767     0.443  99.0000        215     62.45803
 9.26    541.7950  23.6681     56.59351   1099.5922  70.86     0.771     0.446   1.7757        216     92.53746
 3.50    573.1076  19.4191     2833.693   1028.6041 -44.41     1.924     1.902   0.0444        217      115.826
 5.01    556.3446  21.8901      291.052   1073.6241 -45.92     1.536     1.400   0.4689        218     125.6754
 3.50    549.0526  24.6577     22.74597    756.0723  61.77     1.201     1.104   3.2931        219     68.97335
 5.15    553.8810  22.2091     216.9404      3.6394  32.48     1.065     0.961   0.4114        220     82.19123
 8.21    546.5253  25.4765     10.70007   1397.5427 -59.29     0.500     0.498   7.1391        221     70.33929
 3.50    556.8666  24.1976     34.75122    271.1406  47.75     0.831     0.664   1.3969        222     44.69984
 0.00    554.3266  99.0000    -28.46216   1164.6796  45.30     0.569     0.338  99.0000        223     50.68485
 4.41    570.3473  22.4909     167.3561   1513.9795 -34.99     1.495     1.249   0.6817        224     105.0571
 0.00    562.5316  99.0000    -35.22791    231.6833 -32.09     0.947     0.678  99.0000        225     89.39968
 4.08    579.8500  21.6366     367.5795   1365.8766  51.11     1.601     1.546   0.3248        226     109.9254
 6.48    562.2994  23.4349     70.14893    757.6545  42.74     0.567     0.338   0.7847        227     50.68485
 0.00    568.9766  99.0000    -64.82971   1328.5712 -29.92     1.048     0.663  99.0000        228     105.0571
 3.50    664.6186  16.3234     49050.74   1486.7719 -44.51     2.438     2.292   0.0031        229     142.0248
 0.00    585.4757  99.0000    -66.96362    272.9999  75.25     1.681     1.447  99.0000        230     150.4821
 6.57    584.7122  21.6998     346.7871   1527.9791 -46.52     1.663     1.287   0.5211        231      166.396
 8.38    575.5018  23.7308     53.41846    629.9894  -0.56     0.821     0.500   1.8603        232     91.50349
 4.68    613.2316  21.7927     318.3589    572.2295  76.04     2.753     2.396   0.7074        233     207.3794
 4.98    596.0724  21.6169     374.3163   1054.8129 -30.04     1.526     1.374   0.3624        234     124.9161
 4.76    984.0365  22.9096      113.804    173.7719 -28.46     1.311     1.117   0.9493        235     99.47478
 6.65   1598.0112  22.0120     260.1356   1445.3649 -38.15     1.007     0.627   0.3431        236     82.19123
 4.75   1598.7107  24.3677     29.71033   1307.6581 -42.20     0.561     0.340   1.2351        237      33.7899
 7.94   1595.3134  27.9139     1.133545    257.7211  45.02     0.964     0.740 106.9604        238     111.6431
 0.00   1594.8629  99.0000     -63.9502    335.9893  84.75     0.925     0.751  99.0000        239     74.28658
 4.51   1583.5969  25.0530     15.80481    831.3826 -77.94     4.143     3.372  19.8149        240     288.3713
 0.00   1589.6140  99.0000    -93.99231   1460.7354  81.48     1.113     0.952  99.0000        241     129.4055
 8.87   1590.3269  24.9224     17.82556   1530.3248 -45.10     0.571     0.337   4.1172        242      67.5798
 0.00   1584.3572  99.0000    -78.53333    908.5189  57.80     1.212     0.847  99.0000        243     60.91562
 4.41   1583.1919  23.2107       86.245    370.4655  39.27     1.044     0.833   0.8857        244     70.33929
 6.72    849.1667  21.6144     375.1949   1509.8450 -82.14     1.947     0.693   0.3912        245     135.1596
 4.57    844.4033  22.3214     195.6283     98.9329 -81.96     3.650     1.456   1.0043        246     180.9154
 3.50    874.4470  21.1166     593.4291     39.4187  21.25     1.629     1.579   0.1758        247     96.06876
 3.50    846.2758  24.0676     39.17065   1142.0671  13.92     1.141     1.019   1.7939        248     64.70274
 0.00    874.3253  99.0000   -0.9747314    845.9553 -33.12     2.015     1.267  99.0000        249     98.02955
 0.00    848.7893  99.0000    -80.59985    646.7096 -87.03     2.307     2.031  99.0000        250     161.4625
 7.46    839.3712  23.9252     44.65991   1520.2462 -11.74     1.575     0.369   2.3720        251     97.54305
 6.79    835.0080  21.8853     292.3312   1371.5316  77.70     1.464     1.244   0.5832        252     156.9807
 6.67    836.5049  22.3909     183.4968    955.9969 -32.71     0.780     0.319   0.3266        253     55.17868
 5.89    826.0537  22.0012     262.7391    342.8156 -42.75     1.480     0.902   0.4888        254     118.2647
 4.46    823.0322  24.8778     18.57275   1599.5962 -88.85     0.777     0.491   2.4861        255     42.51803
 3.50    879.3613  20.3042     1254.106   1341.0470 -23.46     1.995     1.894   0.1010        256     116.6445
 0.00    821.5098  99.0000    -50.61938   1332.4580 -48.46     0.506     0.492  99.0000        257     78.64172
 4.33    818.7234  22.6659     142.4384   1030.1981  65.07     1.415     1.334   0.7800        258      102.304
 0.00    819.6550  99.0000     -103.644    524.6809 -46.13     0.576     0.334  99.0000        259     53.42653
 0.00    816.8698  99.0000      -26.479    819.4221 -28.82     1.298     1.270  99.0000        260     98.99538
 6.20    794.0475  22.5591       157.16    434.8087  54.25     1.669     1.305   1.0910        261     157.8872
 7.82    795.5040  23.7107     54.41321   1284.5521 -66.87     0.501     0.497   1.4039        262     70.33929
 5.06    793.0139  21.5859     385.1587    938.2761 -54.24     1.720     1.274   0.3607        263     127.9265
 7.39    789.0296  22.2612     206.7894    868.1213  58.74     1.744     1.081   0.9192        264     175.0347
 0.00    792.0107  99.0000    -123.5809   1464.2678  47.29     0.914     0.809  99.0000        265     57.70724
 3.50    786.9997  19.4171     2839.032    527.5715 -38.55     1.969     1.885   0.0446        266     116.6445
 3.50    776.6987  17.3745      18630.1    727.8635 -35.58     2.282     2.165   0.0078        267     134.4538
 0.00    786.7769  99.0000    -9.983765   1107.9977  75.71     1.210     0.960  99.0000        268     112.0684
 0.00    786.9265  99.0000    -21.08606    218.9024 -80.94     1.292     1.112  99.0000        269     79.24435
 5.55    784.4888  22.6908     139.2151    374.6701 -23.43     1.576     0.867   0.8742        270     112.0684
 3.86    784.8297  23.4861     66.91797    184.4231  -6.24     1.299     1.102   1.3149        271     81.02534
 3.96    780.7413  23.4453     69.48035    992.9757 -25.27     1.582     1.477   1.6350        272     104.6033
 3.50    770.7085  18.6867     5563.325    369.4375 -84.39     2.068     1.995   0.0241        273     123.3833
 0.00    780.1841  99.0000    -39.87756    127.0010 -89.88     0.981     0.750  99.0000        274     91.50349
 7.53    787.2905  22.7311     134.1432   1377.4557  24.71     1.171     0.938   1.1027        275     136.2115
 6.22    765.7124  23.2058     86.63147   1408.9180  84.25     1.596     1.028   1.7250        276     137.6014
 6.57    762.4935  22.6741     141.3655   1360.3601  34.12     1.197     0.857   0.8771        277     114.1712
 0.00    760.6926  99.0000    -35.49353   1040.5757  31.12     0.967     0.545  99.0000        278     77.42239
 6.08    758.1440  22.1314     233.0492   1065.5687 -12.62     0.874     0.617   0.3550        279     76.18356
 4.26    756.4565  23.6159      59.3822    889.9158 -84.94     1.045     0.997   1.3586        280     74.28658
 8.19    754.4973  22.8813     116.8058   1275.8314  50.13     1.099     0.737   1.1928        281     128.2979
 0.00   1401.5085  99.0000    -13.18738   1083.4974 -44.93     0.513     0.487  99.0000        282     55.17868
 5.68    735.3345  21.7349       335.77   1080.7650  53.44     1.091     0.867   0.3091        283     95.57228
 0.00    731.1986  99.0000    -245.9733   1468.8861  60.31     1.318     0.892  99.0000        284     109.0564
 0.00    731.9658  99.0000     -23.0719   1340.0000  90.00     0.853     0.289  99.0000        285     40.21803
 3.68    728.3334  23.7250     53.70447    127.9870  69.34     2.006     1.710   2.3834        286     117.8617
 3.50    727.3524  22.2045      217.877    624.3361 -11.04     1.463     1.326   0.4211        287     84.47475
 5.08    724.2869  24.2615      32.7644    970.7228 -81.69     2.769     1.694   6.3274        288     190.8955
 0.00    741.9032  99.0000    -294.3984    918.6675 -43.74     2.264     1.568  99.0000        289     182.4863
 0.00    725.8743  99.0000    -85.86523   1433.8495 -46.55     1.345     0.907  99.0000        290     127.9265
 6.52    723.4359  22.9358      111.094   1319.2839  -8.81     1.019     0.476   0.7568        291     77.42239
 0.00    719.7520  99.0000 -0.006958008    659.0257  50.68     1.155     1.118  99.0000        292      67.5798
 4.49    719.3348  24.2462     33.22888    725.3120 -46.10     0.569     0.338   1.1043        293      33.7899
 6.55    742.9020  25.4856     10.61121   1432.5208  79.27     1.277     0.997  13.1685        294     128.6681
 7.52    742.6771  22.5896     152.8147   1293.7584 -70.09     1.441     1.018   1.1199        295     157.5856
 3.50    709.9128  21.0277     644.0364   1354.5731 -74.25     1.596     1.544   0.1586        296     94.06711
 3.95    708.1457  23.1429     91.80078    403.5540  16.32     1.376     1.079   0.9723        297     82.19123
 6.56    708.4860  23.5625     62.37244    778.0148  31.86     0.805     0.310   0.9607        298     55.17868
 0.00    706.4850  99.0000     -29.6897    848.4735  48.21     0.502     0.497  99.0000        299     47.78614
 3.68    702.3450  21.9159     284.1985   1040.3937  58.64     1.597     1.494   0.3727        300     97.54305
 3.50    698.0961  20.5808     972.0614     96.7310  -5.81     1.785     1.718   0.1179        301     105.5089
 7.93    702.2547  23.0486     100.1299     14.0408   4.23     0.728     0.692   1.0473        302     96.56269
 7.82    700.7561  22.0992     240.0491     19.3754 -73.23     0.979     0.643   0.4814        303     106.4069
 0.00    698.4558  99.0000    -162.0779    910.0122 -63.26     1.034     0.659  99.0000        304     97.54305
 6.49    688.5469  22.5778     154.4829   1185.9166 -21.70     1.719     1.036   1.0512        305     149.5307
 5.90    684.6528  22.9342     111.2598    494.2355  33.95     1.699     1.579   1.6298        306     166.9668
 0.00   1577.2255  99.0000    -80.57031    509.3104  76.48     1.886     1.748  99.0000        307     134.4538
 0.00    678.6743  99.0000    -39.89709    943.0048  28.15     0.912     0.211  99.0000        308     55.17868
 0.00    674.3161  99.0000    -265.2739   1442.8916 -53.65     1.764     1.634  99.0000        309     173.6705
 3.50    668.5950  20.4499     1096.567   1090.3999 -58.85     2.110     1.758   0.1147        310      115.826
 3.50    671.7319  23.1397     92.06812    758.1774  10.12     1.401     1.121   0.8986        311     76.18356
 0.00    672.6792  99.0000    -8.656006   1570.6760 -44.84     0.568     0.338  99.0000        312      33.7899
 6.41    671.0736  21.8475     302.6793    456.1226 -20.71     1.629     1.121   0.5376        313     149.8485
 4.97    668.2959  28.0018      1.04541    350.3431 -58.60     1.548     1.311 126.9665        314     122.2211
 6.05    667.7723  22.2519     208.5714   1307.7014 -25.72     1.778     1.336   0.8392        315     161.1676
 0.00    686.0467  99.0000    -19.06372   1360.5156 -88.39     0.789     0.499  99.0000        316     48.77152
 5.72    661.6709  20.4789     1067.713    316.3075   7.18     1.640     1.409   0.1169        317     114.8838
 3.50    654.2615  21.8597     299.2953    312.4706  51.26     1.703     1.595   0.3661        318     100.8993
 0.00    682.3065  99.0000    -25.08447   1072.2152  10.46     1.174     1.036  99.0000        319     74.28658
 0.00    658.6656  99.0000    -120.1207    922.3510 -23.92     1.183     0.933  99.0000        320     123.7682
 3.50    657.1321  23.9724     42.75903    686.3115 -17.86     0.938     0.656   1.2137        321     47.78614
 3.56    652.6425  21.4415     439.9558     16.4175 -19.14     1.643     1.549   0.2420        322     98.02955
 6.22    648.4801  23.4226     70.94824     83.8654  69.42     1.058     0.824   1.5517        323     101.3697
 4.29    643.3030  25.3447     12.08105    165.2615  23.80     1.448     1.367   9.4439        324     105.0571
 4.06    636.0479  20.5863     967.1599    871.1270 -57.28     2.848     2.377   0.2043        325     181.9642
 5.96    641.0565  22.4485     174.0247    220.5041  32.30     1.877     1.739   1.1661        326     186.8656
 4.36    636.1115  23.5276     64.40857    713.3629  76.13     1.181     1.097   1.4618        327     86.69816
 0.00    633.0480  99.0000    -84.52673    398.3068 -88.64     0.725     0.673  99.0000        328     79.84242
 3.85    735.7529  22.6537     144.0507    372.6208 -53.84     1.467     1.395   0.7092        329     94.06711
 3.50    628.0223  22.8217     123.4004   1540.7615 -39.07     1.307     1.128   0.6538        330     74.28658
 0.00    626.0219  99.0000    -63.21533    984.0187  43.26     1.352     1.126  99.0000        331     81.02534
 0.00   1586.3198  99.0000     -15.8407     49.6663  44.36     0.572     0.336  99.0000        332     64.70274
 7.80    620.4565  22.3411     192.1172    135.9588  31.75     0.803     0.310   0.3976        333     70.33929
 4.11    615.7855  21.9664     271.2886    191.3643 -89.16     1.966     1.820   0.5382        334     134.4538
 3.94    611.6806  21.5764     388.5544    588.6849  12.48     2.447     1.458   0.3596        335     128.6681
 4.21    613.7873  26.0956     6.050171   1535.5619  68.99     0.727     0.452   7.4284        336     41.38401
 0.00    612.9899  99.0000    -17.08679    971.5016 -57.83     0.795     0.314  99.0000        337      67.5798
 0.00    607.8281  99.0000      -118.64    299.9239 -10.12     2.002     0.667  99.0000        338     99.95188
 8.00    606.4014  22.7273     134.6156   1380.7959 -18.61     0.753     0.451   0.6537        339     81.02534
 3.50    602.5517  23.3275     77.44275   1580.4075 -11.24     1.526     1.340   1.2081        340     86.14769
 0.00   1594.5544  99.0000    -45.61511    953.4969  16.63     0.500     0.497  99.0000        341     70.33929
 7.77    597.6989  23.1343     92.52783     31.4397  82.19     0.977     0.483   1.0801        342     92.02193
 6.96    597.3018  23.1178     93.94568    442.1967   6.84     1.194     0.614   1.1933        343     103.2299
 6.49    589.9781  23.3678     74.62744    260.5208  32.50     0.983     0.607   1.2854        344     88.32899
 0.00   1581.2156  99.0000    -236.3739    263.3687   9.48     0.930     0.780  99.0000        345     116.6445
 4.31   1574.4686  22.8723     117.7852     28.0613  10.92     1.600     1.328   1.0015        346     108.6193
 3.50   1571.2089  22.8954     115.3043    429.6039  -1.45     1.361     1.146   0.7116        347     75.55652
 4.07   1545.4407  23.4010     72.37952    665.0071  51.81     1.760     1.585   1.7684        348     117.8617
 0.00   1590.3119  99.0000    -40.89441    264.9013  52.87     1.742     0.950  99.0000        349     177.9994
 3.86   1531.7686  18.7616     5192.275    868.0372 -65.16     1.927     1.713   0.0350        350     167.2992
 0.00   1560.0084  99.0000    -90.06592    253.0228 -89.67     0.637     0.610  99.0000        351     76.18356
 4.91   1576.2517  22.3274      194.546     70.2120 -63.74     1.159     0.657   0.4111        352     73.64339
 0.00   1524.4141  99.0000    -238.8973    803.2822 -86.80     1.411     1.238  99.0000        353     99.95188
 5.13   1455.8646  21.7417      333.683    129.3153  67.02     2.099     1.448   0.5040        354     154.8448
 3.50   1566.6180  21.0622     623.9183     19.5467 -47.25     2.257     1.870   0.2154        355     123.7682
 6.90   1551.2915  22.1863     221.5518    216.9980 -24.69     1.282     0.851   0.6160        356     125.6754
 3.50   1559.4353  20.5014     1045.784   1362.0237  63.78     1.908     1.873   0.1186        357     114.1712
 0.00   1553.7059  99.0000    -32.98987   1074.0826  52.81     1.434     1.188  99.0000        358     97.54305
 0.00   1562.3291  99.0000    -187.8523    285.7401  -1.76     1.447     0.688  99.0000        359     114.1712
 3.50   1510.2600  18.2240     8519.255   1281.9120 -47.62     2.346     2.315   0.0179        360     140.6786
 4.48   1546.0299  26.7754     3.234741   1237.0082  -0.53     1.222     0.970  28.3607        361     84.47475
 6.26   1554.4752  23.4397     69.84265    637.1225  -4.50     1.289     0.929   1.8514        362     119.0665
 0.00   1526.8496  99.0000    -69.38318    958.9269 -73.15     1.089     0.843  99.0000        363     72.33986
 0.00   1515.7474  99.0000    -109.5486   1038.1201 -12.16     1.481     1.190  99.0000        364     130.8677
 6.25   1511.4946  23.2050     86.69922      8.4691 -89.95     1.014     0.499   0.9775        365     78.03444
 0.00   1548.0656  99.0000    -9.357056    437.2470  77.07     1.824     1.148  99.0000        366     163.2207
 5.93   1555.9697  22.2612     206.7865    309.0487  31.62     1.672     1.255   0.7820        367      148.893
 3.50    839.5729  16.6424     36562.18    275.3863 -32.69     2.446     2.276   0.0042        368     142.6932
 0.00   1510.1105  99.0000   -0.1158447    983.2292 -68.91     1.098     0.911  99.0000        369      102.304
 7.76   1533.7628  24.2538     32.99622    686.9981  -0.08     0.695     0.425   2.4025        370     72.99453
 3.50   1534.6948  17.4614     17196.56    875.6373 -44.06     2.005     1.951   0.0162        371     256.5542
 4.24   1512.8563  20.3589     1192.394    594.0773 -50.41     1.814     1.450   0.1184        372     129.9495
 4.85   1534.8787  22.9265     112.0446    113.2209  19.20     1.348     1.120   1.0006        373     103.2299
 3.60   1522.7526  23.0792     97.35071   1514.9204  -8.52     1.603     1.427   1.0494        374     94.06711
 5.48   1520.4866  20.6601     903.5978    587.4318 -45.64     2.188     1.674   0.1809        375     150.5165
 5.10   1509.5151  23.2376     84.13318    525.4976 -21.54     0.945     0.893   1.0534        376     81.61037
 3.50    849.8386  18.7350      5321.16    214.7959 -89.16     2.086     2.009   0.0254        377     124.5346
 3.50    873.5165  21.0318      641.599    448.0450  54.34     1.699     1.602   0.1692        378     99.95188
 5.10   1460.2817  22.0398     253.5554    123.9003 -73.87     1.447     1.419   0.4874        379     113.8073
 3.89   1504.7812  26.9332     2.797119   1361.0045  -3.68     1.441     1.306  35.9283        380     92.53746
 0.00    862.8785  99.0000    -54.11462    655.4520  10.53     1.004     0.867  99.0000        381     77.42239
 4.40    875.8676  21.8786     294.1306   1085.1508  -7.33     1.491     1.353   0.3994        382     108.1805
 8.29   1473.4630  22.5917     152.5198    568.0322 -59.21     1.056     1.047   1.0692        383     150.1656
 3.89    864.6418  24.5779     24.48108    523.1866 -14.76     1.130     1.039   3.2669        384     73.64339
 4.51   1473.0681  21.7583      328.609   1563.4991  15.07     2.439     2.174   0.5927        385     179.3307
 9.04   1483.5951  25.5644     9.868164    831.2081 -18.79     0.762     0.449   9.8969        386     89.93024
 4.02   1462.1167  22.4069     180.8209    597.6520  -7.33     1.521     1.215   0.5680        387      94.5715
 3.51   1482.0107  24.5109     26.04016   1409.4650 -87.70     1.119     0.930   2.5077        388     60.12957
 7.93   1480.3177  22.4376      175.781     23.5609 -30.65     0.938     0.537   0.6026        389     97.54305
 6.35   1433.6267  23.7372     53.10291    891.0014 -21.66     1.277     0.953   2.4594        390     120.2591
 7.55   1471.6377  22.2821     202.8484   1550.5687  -7.35     1.047     0.641   0.5768        391     107.7398
 0.00   1410.3209  99.0000    -89.54968   1507.6195 -53.65     0.967     0.869  99.0000        392     80.43606
 6.89   1396.3572  22.8590     119.2385    558.1595 -53.28     1.109     0.913   1.0844        393     119.0665
 3.50   1464.3440  22.3594     188.9091    882.2447   2.22     1.485     1.255   0.4725        394     82.19123
 4.77   1454.9135  25.1313     14.70508    717.7418  89.13     1.675     1.547   9.8246        395      133.031
 0.00   1464.5929  99.0000    -14.83875    222.6826  82.83     1.026     0.645  99.0000        396     47.78614
 6.65   1467.0140  21.9700     270.3949     55.5362 -53.29     1.517     1.263   0.6390        397     159.0879
 7.00   1472.4838  29.4759    0.2689209   1213.5007 -43.03     0.502     0.498 222.8315        398     55.17868
 3.50   1461.2921  18.9325     4436.224    251.0937   1.15     2.202     2.129   0.0322        399     131.5928
 3.50   1465.8066  17.9548     10916.87    533.8480  73.53     2.604     2.391   0.0150        400      151.113
 3.87   1451.3909  24.6351     23.22449   1206.5895 -40.76     1.049     0.842   2.9560        401     63.21512
 0.00    887.7533  99.0000    -174.5377    689.4931 -73.17     1.761     1.318  99.0000        402     112.4921
 3.50    879.7380  17.4730     17014.23    165.7873 -75.27     2.291     2.231   0.0087        403     136.9082
 5.83   1454.0531  24.6304     23.32654   1034.4991  89.46     0.795     0.500   3.0123        404     64.70274
 3.50    862.1480  15.3203     123563.2   1395.6820 -50.46     4.386     4.092   0.0023        405     256.9662
 4.23    867.5311  24.6850     22.18213   1057.9016  57.14     1.167     0.815   3.4437        406     70.33929
 4.68   1417.8381  21.9835     267.0457    691.1601  80.33     2.607     2.052   0.7599        407     186.8656
 0.00    895.6939  99.0000    -57.39978   1171.3042  45.11     0.552     0.345  99.0000        408     39.01722
 4.31    900.5183  23.8511     47.81506    299.5195 -45.08     0.508     0.492   0.8580        409     37.77826
 4.13   1438.8507  25.9805     6.726807    959.9644  50.16     1.434     1.195  15.2680        410      94.5715
 0.00   1419.5228  99.0000    -155.3464   1083.0508  31.94     1.422     0.938  99.0000        411      151.113
 3.55   1419.7631  21.4545     434.7205   1049.8881 -25.01     1.909     1.715   0.2778        412     111.2162
 0.00   1390.4725  99.0000    -10.93909    805.4818 -40.25     0.501     0.498  99.0000        413     64.70274
 5.46   1425.6345  23.3719     74.34009    837.3907 -47.92     1.018     0.876   1.2982        414     88.86594
 4.10   1413.1150  19.3677     2971.118    966.2263 -15.41     1.850     1.510   0.0537        415     147.0232
 3.50   1415.7566  19.0850     3854.665    953.6645 -38.58     2.233     2.178   0.0378        416     134.0995
 0.00   1388.0636  99.0000    -208.3741    402.1930 -88.50     1.402     1.095  99.0000        417     148.5732
 3.50   1384.8019  18.3497      7587.94    907.4203 -43.53     2.302     2.269   0.0198        418     138.6347
 5.71   1404.0055  27.2898     2.014038    754.0024  48.42     1.513     1.204  70.9568        419     131.5928
 7.17    905.8369  23.9621     43.16931   1518.7594  60.60     1.419     0.767   3.2922        420     130.8677
 3.50   1371.6240  23.3961       72.703   1249.4401   5.81     1.274     1.008   0.9882        421     66.15691
 6.53    920.5975  23.5364     63.89355    854.4276  57.35     1.085     0.947   1.9335        422     113.7538
 4.59   1366.4231  23.3537     75.59644    332.8526  58.06     1.508     1.443   1.6757        423     116.6445
 4.10    916.5317  24.1906     34.97522   1146.2092 -33.66     1.482     1.187   2.9051        424     93.56001
 3.50   1398.2227  17.5003     16590.78    899.3804  55.11     2.059     2.021   0.0169        425     258.8192
 3.50   1307.5990  20.8293     773.1948    133.4513  29.25     1.825     1.703   0.1495        426     106.4069
 4.29    915.4589  22.4954     166.6558    936.3211  82.71     2.810     2.016   1.1512        427      176.658
 3.50   1348.5779  23.5729     61.78076    206.7708  18.76     0.723     0.460   0.6416        428     36.49726
 7.26   1376.2065  23.8628     47.29993    522.3862 -33.82     0.717     0.647   1.9779        429     86.14769
 0.00    921.2342  99.0000    -38.64648    225.2704  21.61     0.965     0.827  99.0000        430     71.67921
 5.28   1376.1886  22.1201     235.4763    568.6592  33.54     2.026     1.514   0.7378        431     159.9825
 0.00   1381.5914  99.0000    -26.45447    940.4048 -46.23     1.020     0.859  99.0000        432     99.95188
 6.56   1369.0570  23.2794      80.9541   1364.4938 -89.04     0.792     0.500   0.9616        433     71.67921
 4.10    922.6752  21.5114     412.5258    506.2149  46.75     1.555     1.449   0.2766        434     105.0571
 3.50   1366.7965  19.6952     2197.495   1439.1449 -11.98     2.141     2.043   0.0629        435     127.1806
 5.88    938.3269  22.3319     193.7446    622.8256 -57.53     1.405     1.162   0.7356        436     131.2307
 7.13   1371.5240  22.5513     158.2952   1047.5117  18.94     0.993     0.403   0.5395        437     78.64172
 5.82    928.0559  22.3678     187.4479    856.1138 -80.37     1.242     1.086   0.6782        438     117.0517
 4.16   1364.6201  23.9314     44.40552   1493.9623 -78.33     1.247     1.131   2.0933        439     85.59367
 3.50    919.0305  18.3248     7763.565    620.1516 -59.56     2.179     2.107   0.0182        440     130.1387
 3.88   1361.1562  22.2304     212.7296    521.5701 -66.89     1.373     1.303   0.4591        441     89.93024
 5.20   1364.8397  22.7037     137.5688   1175.5447   6.53     1.536     1.137   0.9336        442     118.2647
 5.62    929.1722  22.7797     128.2646    112.3968  11.58     1.347     0.695   0.7878        443     93.05014
 0.00    926.3683  99.0000    -103.8408    693.5194 -20.12     0.930     0.828  99.0000        444     83.34081
 3.50   1350.0790  22.2223     214.3378   1493.9451  55.23     1.524     1.486   0.4663        445     92.02193
 4.30    934.1721  23.9190      44.9165   1019.4662  14.71     1.063     0.717   1.5465        446     63.96325
 0.00    932.8015  99.0000     -5.19397    530.5983  71.19     0.752     0.450  99.0000        447     62.45803
 3.50   1311.8887  22.6075     150.3098   1231.8870 -35.25     1.778     1.456   0.6977        448     96.56269
 3.50   1244.0924  18.1952     8747.986    570.3313 -22.79     2.337     2.254   0.0172        449     138.2911
 4.13    931.8657  20.8931     729.0559    944.4788 -76.67     4.628     2.472   0.3606        450     242.0955
 4.54   1306.2303  22.7354     133.6064    724.1013 -72.57     2.117     1.572   1.1706        451     144.0206
 6.86   1331.9374  25.3252     12.30078   1453.0000  90.00     0.842     0.289   4.7948        452     54.30967
 5.99   1301.7611  22.8228     123.2821    942.3810  28.47     1.510     1.278   1.2745        453     144.6797
 4.45    934.9901  25.2835      12.7821    803.1639  33.05     0.809     0.504   4.2258        454     49.73739
 3.50   1248.2002  20.3576     1193.909     37.7628  78.36     1.959     1.901   0.1057        455      116.236
 0.00   1325.2061  99.0000     -5.98938   1202.4988 -15.09     1.226     1.129  99.0000        456     88.86594
 6.10   1326.3965  22.6756      141.179    702.1823  18.69     0.766     0.447   0.4804        457     62.45803
 7.97   1329.9893  23.8360     48.48315    775.4835 -57.84     0.795     0.313   1.5756        458     70.33929
 5.15   1275.7538  22.8773      117.246    942.2804  43.18     1.311     0.668   0.7720        459     83.34081
 6.21   1310.4795  22.7256     134.8181   1420.0291  -1.59     0.807     0.499   0.5387        460     66.87215
 3.50   1311.4575  17.7279     13453.48    923.7183 -45.83     2.407     2.300   0.0115        461     142.0248
 6.65   1303.5713  22.5607     156.9398    953.4283  26.52     1.155     0.851   0.7900        462     114.1712
 0.00   1258.7173  99.0000    -10.43604    468.3109  39.53     1.124     0.878  99.0000        463     110.3574
 0.00   1300.9634  99.0000    -70.70264   1554.5389 -29.37     1.254     0.624  99.0000        464     97.05411
 5.45    972.1663  22.5353     160.6531   1261.3557 -36.21     1.343     0.829   0.6659        465     98.51365
 5.05   1253.9293  23.7561      52.1853    805.5657 -58.58     0.807     0.307   0.8612        466     41.38401
 3.66   1277.4868  21.4478     437.4033    260.6229   5.60     1.835     1.750   0.2814        467     113.3348
 4.50   1270.3066  22.1552     227.9869    755.5483  -5.90     1.289     1.151   0.4505        468      94.5715
 0.00   1255.3307  99.0000    -64.17163   1207.6758  45.29     0.572     0.336  99.0000        469     66.87215
 0.00    974.6508  99.0000    -140.2462   1167.7118  71.62     1.331     0.927  99.0000        470     122.6097
 4.16   1278.8495  22.7675     129.7181   1141.6589 -37.54     1.558     1.437   0.8871        471     105.9589
 3.77   1275.0731  21.9984     263.4207    569.6889  32.25     1.751     1.563   0.4424        472     107.2974
 6.66   1252.0199  21.9942     264.4353   1423.5256 -27.29     1.501     1.105   0.6022        473     146.6394
 7.47   1268.5126  23.2726     81.45959   1312.4094  26.43     1.161     0.885   1.7398        474     130.5037
 3.50   1251.1924  21.3845     463.6477    492.3547  12.21     1.768     1.718   0.2482        475     105.9589
 0.00    967.3333  99.0000    -62.59717    476.6846  45.86     0.569     0.337  99.0000        476     50.68485
 4.17   1267.2521  24.8978     18.23364   1407.9072 -16.65     1.530     1.278   6.0933        477      102.304
 4.86   1260.9121  23.1663     89.84558   1422.5894 -75.42     1.349     1.057   1.2139        478     100.4267
 3.59   1234.7123  21.8189     310.7634    711.5583  59.52     1.625     1.345   0.3234        479     92.53746
 3.50   1238.3600  21.0991     603.0409   1246.0221 -14.32     1.855     1.784   0.1980        480     109.9254
 3.50    936.5521  21.1106     596.6831    842.1199  74.45     1.720     1.673   0.1854        481     101.8379
 3.74   1241.5107  21.5460     399.5697    865.0555  66.92     1.791     1.630   0.3011        482     110.7876
 3.50   1228.7976  19.5378     2540.365   1333.7159 -77.34     2.063     2.021   0.0531        483      124.152
 4.52   1178.4353  22.3977     182.3611   1464.3932  -0.53     3.511     1.725   1.1501        484     193.1254
 6.56   1232.8136  23.3299     77.27209   1542.4172 -40.92     1.187     1.079   1.7979        485     127.9265
 3.50   1236.9219  20.4716     1074.888    384.1447 -87.38     1.968     1.917   0.1179        486     116.6445
 3.50    943.6912  25.4159      11.3147    869.3198  44.41     0.561     0.342   2.2933        487     23.89307
 3.50   1213.9702  17.3462     19122.12   1194.7819 -41.78     2.461     2.334   0.0083        488     145.3359
 0.00   1234.2408  99.0000    -99.36511   1465.8170  18.76     1.092     0.905  99.0000        489     103.2299
 3.50   1228.7915  21.4574     433.5436    319.0116  26.13     1.803     1.719   0.2699        490     107.7398
 8.74    958.4910  22.7012     137.8883   1350.4940 -44.86     0.504     0.495   0.5951        491     75.55652
 6.31   1128.9634  23.4065     72.01038   1354.0076 -43.37     0.916     0.531   1.1489        492     76.18356
 8.03   1219.7965  23.3301     77.26208    904.7841  44.69     0.931     0.457   1.2862        493     91.50349
 0.00   1205.4482  99.0000    -50.38538    117.0941  22.46     1.346     1.253  99.0000        494     77.42239
 5.19   1208.4337  22.9038     114.4178    490.4267  87.59     2.133     1.345   1.4462        495     152.3671
 0.00   1224.3573  99.0000    -400.5681    425.1234   5.03     1.454     1.301  99.0000        496     110.7876
 5.35    974.3796  23.3133     78.46704    282.6032   0.53     0.960     0.681   1.0370        497     74.92424
 5.18   1212.8921  28.6191     0.592041   1112.3815  56.57     1.345     0.839 172.5503        498     94.06711
 7.10   1188.6272  24.1338       36.854    585.7938  52.61     2.463     1.577   7.1166        499     241.5052
 6.07   1199.9415  23.5753     61.63977    834.9534  46.02     0.909     0.534   1.2861        500     72.99453
 3.50   1193.6270  19.6027     2392.868   1031.1660 -11.24     2.067     2.036   0.0563        501      124.152
 7.84   1198.4917  23.8082     49.74146    463.5009 -18.77     0.959     0.416   1.9048        502     87.24516
 5.85   1022.6279  23.8476     47.96936    396.6944 -47.69     0.581     0.330   1.0120        503     44.69984
 0.00   1203.2529  99.0000    -65.72339   1349.7855 -12.43     1.353     1.299  99.0000        504     96.56269
 3.50    942.4642  18.9924     4197.826    689.6323  32.22     2.533     2.047   0.0357        505     137.9467
 7.41    971.1232  21.9886     265.7908    130.4357 -61.39     1.065     0.702   0.4596        506     112.4921
 6.26   1188.7766  22.9472     109.9275   1456.8196  24.64     2.192     1.385   1.8686        507      189.143
 3.50   1178.9105  21.1401     580.7065      6.1461  48.76     1.720     1.691   0.1922        508      102.768
 3.81   1040.5870  22.1898     220.8386     23.0064 -43.65     1.603     1.515   0.5031        509      102.304
 3.50   1160.0333  27.2945     2.005371   1196.0551 -38.92     1.151     0.983  33.8239        510     62.45803
 0.00   1185.4515  99.0000    -27.09204    284.1159  34.06     1.307     1.197  99.0000        511     103.6897
 3.50   1153.9246  20.9100     717.7653    195.1328 -89.96     1.798     1.764   0.1623        512     107.2974
 6.85   1175.1505  22.7163     135.9771   1044.8020   1.74     1.543     0.850   1.0738        513     134.4538
 3.83   1040.1049  21.5241     407.7104   1084.2731  18.06     1.590     1.502   0.2700        514     101.3697
 6.03   1172.9836  23.0460     100.3673    848.0000  90.00     0.830     0.289   0.5585        515     51.61493
 5.70   1146.8975  23.7750     51.28613    390.9275  63.42     1.197     0.942   2.2054        516     104.1475
 3.50   1042.6750  20.9719     678.0433    424.1342 -27.61     1.907     1.706   0.1740        517     108.6193
 3.92   1027.2858  20.4410     1105.644    607.5982  -0.54     2.937     2.334   0.1738        518     176.9271
 3.51   1139.1234  23.0345      101.442    312.2096  46.20     1.224     1.071   0.7384        519     68.97335
 3.50   1123.6833  22.5614     156.8362    767.2013  55.10     1.273     1.129   0.4963        520     71.67921
 0.00   1167.6044  99.0000    -224.7053    432.6160 -31.44     1.285     0.777  99.0000        521      116.236
 0.00   1150.4957  99.0000    -56.15063    484.0085 -32.41     0.788     0.317  99.0000        522     70.33929
 0.00   1141.5033  99.0000    -63.08752    430.0066 -32.03     0.799     0.313  99.0000        523     70.33929
 3.50   1130.1757  19.1399     3664.546    620.7014 -31.00     2.285     2.082   0.0395        524     133.3881
 3.50   1125.2101  21.4186     449.3282     68.9930  52.07     5.415     2.742   0.5634        525      233.085
 4.39   1132.3076  23.3040     79.14099    292.9208 -10.90     0.738     0.664   0.7453        526     54.30967
 5.88   1078.0590  22.9564     109.0004    856.2999 -83.86     1.492     1.167   1.3431        527     134.8072
 0.00   1074.3591  99.0000    -102.7781    142.3772  28.88     2.176     1.744  99.0000        528     149.2122
 5.76   1049.9124  23.0884     96.52527    312.5385  88.08     1.588     1.260   1.5979        529     142.0248
 6.45   1113.2792  22.0566     249.6685    602.0090  -4.38     0.729     0.673   0.3394        530     78.03444
 3.50   1015.5732  23.7686     51.59045    821.2109 -51.95     0.976     0.940   1.2148        531     57.70724
 3.50   1110.8773  21.2575     521.2091   1267.7404  56.34     1.736     1.704   0.2160        532     103.6897
 0.00   1049.1709  99.0000    -182.7445    226.7189 -59.01     1.401     1.077  99.0000        533     117.4574
 4.66   1100.0394  21.9144     284.6067   1452.0444 -78.85     1.388     1.168   0.3957        534     103.6897
 3.50   1094.7350  20.5790     973.6166     15.9221 -65.02     1.808     1.768   0.1212        535     108.6193
 6.73   1064.2007  24.5155     25.92993    531.8288   7.78     1.540     0.811   5.4810        536     130.8677
 4.64   1059.7367  22.5280     161.7327    958.4913  19.81     1.245     1.140   0.6451        537     96.06876
 0.00   1081.6238  99.0000    -38.03748    306.5401  16.03     0.965     0.794  99.0000        538     54.30967
 0.00   1079.7250  99.0000    -25.68945   1051.5647 -80.02     1.009     0.471  99.0000        539     74.92424
 4.90   1084.5737  22.2537     208.2247    386.4814   0.40     1.334     1.222   0.5573        540     106.8531
 6.78   1080.8109  24.5767     24.50818    704.9886  37.14     0.943     0.468   3.4307        541     77.42239
 7.37   1053.6665  28.4442    0.6955566   1403.6602 -44.74     0.580     0.332  83.4169        542     53.42653
 6.74   1081.5771  22.1429     230.5975   1122.1453 -25.85     1.191     1.044   0.6094        543     129.4055
 3.50   1090.1770  20.5718     980.0814    792.3015  63.20     1.883     1.847   0.1246        544     112.4921
 7.02   1091.0970  24.1961     34.79919   1428.7511  -9.67     1.161     0.723   3.4974        545     112.0684
 5.39   1093.0427  23.4096      71.8053    676.9826 -59.68     0.804     0.781   1.1332        546     74.92424
 0.00   1078.6747  99.0000    -34.52258    911.2928  46.86     0.556     0.343  99.0000        547     52.52854
 3.50   1069.8640  22.8838     116.5465     62.4995  -6.69     1.637     1.484   0.8906        548     95.57228
 4.04   1030.6969  21.9923     264.8978    848.0089 -75.49     1.870     1.176   0.4194        549      102.304
 6.53   1069.3798  21.7251     338.8258   1185.4484  69.10     1.737     0.719   0.4052        550     126.4302
 3.50   1057.6855  20.5712     980.6195    239.4490  84.41     1.867     1.816   0.1232        551     111.2162
 0.00   1063.6155  99.0000     -66.8252    862.4768 -21.97     1.831     1.466  99.0000        552     100.4267
 4.57   1062.9104  23.2185     85.62354   1335.6189  14.61     1.008     0.727   0.8660        553     68.28014
 3.50   1011.1583  22.6890     139.4484    374.5453 -25.62     1.452     1.381   0.6666        554     85.59367
 4.31   1047.3929  20.8775     739.6073   1382.6086 -68.67     3.761     2.809   0.3566        555     242.8802
 4.70   1053.7889  22.7323     133.9865   1320.4387  85.32     1.709     1.055   0.8875        556     109.4918
 3.84   1006.3179  21.4773     425.6591   1353.1570   4.46     1.708     1.638   0.2827        557     110.7876
 8.49   1063.1918  24.4068      28.6604    934.9999 -59.55     0.821     0.507   3.6214        558     95.57228
 3.56   1030.4066  21.9548     274.2152    766.0451 -56.04     1.688     1.629   0.4015        559     101.3697
 3.50   1036.8479  22.8983     114.9939    207.8894  43.17     1.552     1.414   0.8493        560     89.93024
 3.69   1020.0496  21.9341     279.4738    502.3459 -20.93     1.648     1.467   0.3902        561     100.4267
 0.00   1035.4869  99.0000    -17.81396    622.2975 -66.71     0.932     0.821  99.0000        562     103.6897
 6.81   1029.6265  25.7958     7.973877   1367.2620 -16.37     0.721     0.458   9.1076        563     66.87215
 3.50   1021.1165  20.8262     775.3662    106.2325  40.85     1.782     1.715   0.1490        564     106.4069
 4.04   1029.1187  21.1142     594.7382    310.2960  12.18     1.667     1.531   0.2031        565     111.2162
 0.00   1009.3348  99.0000    -133.2776    219.6961  46.57     0.565     0.339  99.0000        566     55.17868
 5.23   1008.8175  23.5607     62.47534    186.4417  40.28     1.058     0.713   1.3670        567     78.64172
 3.50   1001.1121  19.4655     2715.284    997.8738  72.15     2.031     2.012   0.0487        568     121.8312
 7.40   1002.5422  26.1832     5.581299    291.9825 -63.87     1.043     0.663  20.5298        569     105.5089
 4.89    999.2411  22.6501     144.5363   1446.3911  18.60     1.237     1.138   0.7581        570     100.8993
 3.50    995.0240  20.3048     1253.426    144.7581  70.78     1.800     1.739   0.0933        571     107.7398
 6.78    992.0427  25.0381     16.02356   1077.4990  29.63     0.991     0.667   6.4774        572     95.57228
 3.50    986.8708  21.9388     278.2665    729.9510 -35.59     1.513     1.406   0.3468        573     88.86594
