#   1 KRON_RADIUS            Kron apertures in units of A or B                         
#   2 MAGERR_APER            RMS error vector for fixed aperture mag.                   [mag]
#   3 Y_IMAGE                Object position along y                                    [pixel]
#   4 X_IMAGE                Object position along x                                    [pixel]
#   5 THETA_IMAGE            Position angle (CCW/x)                                     [deg]
#   6 FLUX_APER              Flux vector within fixed circular aperture(s)              [count]
#   7 A_IMAGE                Profile RMS along major axis                               [pixel]
#   8 B_IMAGE                Profile RMS along minor axis                               [pixel]
#   9 FLUX_RADIUS            Fraction-of-light radii                                    [pixel]
#  10 FLUXERR_APER           RMS error vector for aperture flux(es)                     [count]
#  11 MAG_APER               Fixed aperture magnitude vector                            [mag]
#  12 NUMBER                 Running object number                                     
 4.05   0.0000     52.3150     61.8087  -0.43     27039.48     5.002     4.473     11.727  0.006054895  16.9700          1
 3.50   0.0000     15.7157    983.4579 -88.03      4397.91     4.156     1.783      7.089  0.006052153  18.9419          2
 3.51   0.0000     17.0219     89.4926 -73.13     4215.993     1.499     1.453      3.008  0.006053524  18.9877          3
 3.50   0.0000     13.8197   1444.2446 -50.73     11056.43     1.598     1.581      2.586   0.00605695  17.9410          4
 6.00   0.0000      9.1991   1182.2042  43.89     164.6469     0.742     0.563      2.718   0.00605421  22.5086          5
 6.23   0.0000      3.3871    143.3811 -50.31     138.6868     1.107     0.976      4.043  0.005204378  22.6949          6
 5.00   0.0000     16.3900    382.9839  -0.24     386.8479     1.057     0.938      2.632  0.006053524  21.5811          7
 4.18   0.0000     23.8806    365.4515   0.87     803.2924     1.233     1.125      2.857  0.006052153  20.7878          8
 3.50   0.0000     58.9546   1076.9441  71.12     40033.42     1.964     1.840      3.137  0.006054895  16.5439          9
 5.07   0.0000     33.0950   1108.5361  66.79     370.8045     1.739     0.885      3.658  0.006053524  21.6271         10
 6.11   0.0000     23.0821    381.3730  14.96     296.5586     1.000     0.750      3.136  0.006054895  21.8697         11
 5.77   0.0000     32.3555    325.0668 -53.92     236.4044     1.023     0.837      3.761   0.00605421  22.1159         12
 4.64   0.0000     37.0263   1519.9836 -43.43     226.6374     0.778     0.771      2.435  0.006056265  22.1617         13
 5.68   0.0000     38.0011   1169.1432   1.71     197.9413     0.895     0.758      2.672  0.006061059  22.3087         14
 4.54   0.0000     41.5849    913.6906 -68.76     236.0399     0.910     0.803      2.870  0.006054895  22.1175         15
 3.50   0.0000    181.0514   1105.8324 -43.17       652417     5.546     5.000      6.882  0.006057635  13.5137         16
 7.50   0.0000     43.4963    438.4926 -44.97     211.3685     1.004     0.596      4.527   0.00604941  22.2374         17
 3.50   0.0000     79.0643    535.8719 -59.30     35687.66     1.845     1.817      3.477  0.006051468  16.6687         18
 6.57   0.0000     49.4990   1433.9781  -1.13     279.2733     0.779     0.500      3.754  0.006051468  21.9349         19
 3.72   0.0000     74.1245    126.4836 -73.24      1749.63     1.333     1.304      2.735  0.006051468  19.9426         20
 5.18   0.0000     81.3770    419.7339 -82.70     316.4686     1.099     0.928      3.299   0.00605695  21.7992         21
 5.40   0.0000     89.6223    375.1326 -13.79     663.8162     1.704     1.424      5.737   0.00605695  20.9949         22
 3.50   0.0000    120.9229    787.4989 -30.18     53124.27     1.885     1.876      3.161  0.006050782  16.2368         23
 3.75   0.0000     95.6262     54.4011 -23.58     2567.663     1.415     1.405      2.912  0.006054895  19.5262         24
 5.48   0.0000     90.6640    494.1106  68.14      234.046     0.877     0.689      2.748  0.006052839  22.1267         25
 8.43   0.0000     87.4979    757.4554  50.23     196.4563     0.504     0.494      3.027  0.006050096  22.3168         26
 5.14   0.0000     97.0933    451.3915 -21.21     473.3134     1.361     1.000      4.371   0.00605421  21.3621         27
 6.45   0.0001     94.8434   1075.0719  41.67     103.4355     0.850     0.657      2.469  0.006053524  23.0133         28
 8.25   0.0000    114.3429    414.2923 -47.63     140.3899     0.563     0.340      2.821  0.006052153  22.6817         29
 8.27   0.0001    116.3094    989.3312 -43.90     80.27221     0.566     0.339      2.666  0.006051468  23.2886         30
 7.36   0.0000    116.4749     65.0392   0.75     178.8839     0.796     0.499      3.390  0.006054895  22.4186         31
 7.45   0.0000    116.5277    152.4912 -42.73     134.0413     0.504     0.495      3.024  0.006052153  22.7319         32
 3.50   0.0000    192.6654    316.2727 -56.71     181236.6     2.290     2.099      3.619  0.006050782  14.9044         33
 8.85   0.0000    125.4840    492.5023 -43.20     142.2427     0.502     0.498      3.011  0.006048038  22.6674         34
 3.50   0.0000    161.4534   1466.8357 -68.56     32927.45     1.815     1.790      2.958  0.006056265  16.7561         35
 5.42   0.0000    130.1562    416.1916 -46.63     148.6222     0.790     0.678      3.115   0.00605695  22.6198         36
 5.76   0.0000    145.8126    352.3588 -34.88     230.7436     1.035     0.802      3.055  0.006056265  22.1422         37
 4.42   0.0000    234.1106    401.6433 -58.69     24522.42     6.217     5.396     16.283  0.006053524  17.0761         38
 3.50   0.0000    169.2973    875.6581 -50.98     9927.326     1.609     1.574      2.941  0.006050782  18.0579         39
 6.17   0.0000    150.6934   1278.9487   5.86     198.2011     0.728     0.666      2.448  0.006051468  22.3072         40
 7.70   0.0000    154.5005     80.5175 -45.85     139.4497     0.505     0.495      2.974  0.006048725  22.6890         41
 4.67   0.0000    164.1335   1444.1620  46.19     682.4878     1.144     1.081      2.470   0.00605558  20.9648         42
 5.21   0.0000    170.6761    323.7555 -63.13     1204.552     1.344     1.220      2.761  0.006053524  20.3479         43
 3.50   0.0000    165.7383    102.6656 -39.32     586.5903     1.102     1.048      2.870  0.006052153  21.1292         44
 5.56   0.0000    168.4935   1367.4694  11.01     173.5811     0.900     0.877      2.567  0.006051467  22.4512         45
 8.35   0.0001    167.5532    649.5013 -17.89     125.3585     0.500     0.497      3.002  0.006047352  22.8046         46
 6.66   0.0000    179.3674    573.3943  40.79     361.9044     1.048     0.886      4.193   0.00605695  21.6535         47
 6.50   0.0000    185.8621   1353.4594 -70.89     288.9352     1.085     0.962      3.036  0.006052839  21.8980         48
 4.59   0.0000    191.7973   1349.0472   7.97     927.2844     1.166     1.146      2.541  0.006059005  20.6320         49
 4.33   0.0000    209.8292    826.0977  -6.73     3021.127     3.821     1.918      9.376  0.006051468  19.3496         50
 7.70   0.0000    194.2949    266.0344   2.88      210.009     0.753     0.669      4.339  0.006051468  22.2444         51
 3.56   0.0000    205.7752    547.4225 -83.64     1810.165     1.316     1.276      2.537   0.00605695  19.9057         52
 5.33   0.0000    207.8500    348.2245  44.13     893.7326     1.706     1.267      3.640  0.006059005  20.6720         53
 5.27   0.0000    202.5124    249.1924 -81.26     235.9254     0.969     0.922      2.724  0.006054895  22.1181         54
 3.75   0.0000    211.3940   1304.6376 -24.55     1704.879     1.315     1.266      2.409   0.00605558  19.9708         55
 4.97   0.0000    229.1523    560.6175 -23.91     2645.888     3.292     2.941     10.548  0.006056265  19.4936         56
 4.89   0.0000    209.9228    683.0830 -54.75     426.9845     1.250     1.108      3.254  0.006052153  21.4740         57
 5.66   0.0000    208.1608   1224.1466  42.56     134.1347     0.740     0.567      2.435   0.00605558  22.7311         58
 3.56   0.0000    223.2501   1224.6030  89.61     2077.519     1.331     1.312      2.182  0.006059689  19.7561         59
 3.50   0.0000    258.9149    995.8238 -56.37     86268.59     1.974     1.951      3.276  0.006054895  15.7104         60
 6.25   0.0000    221.5832    344.2455 -22.00     532.4265     1.610     1.436      3.848   0.00605695  21.2344         61
 5.18   0.0000    227.7619    413.5854  11.46     2397.487     1.871     1.602      7.375  0.006057635  19.6006         62
 3.96   0.0000    221.7073    773.2344 -23.59     667.9725     1.121     1.067      2.572  0.006052153  20.9881         63
 7.44   0.0000    216.8794    739.8455 -45.52      187.735     0.852     0.665      3.803  0.006053524  22.3661         64
 3.50   0.0000    264.9493     65.7861 -57.60     65205.99     1.937     1.910      3.426   0.00605832  16.0143         65
 4.96   0.0000    243.0104    111.1028 -89.11     1133.605     1.870     1.454      7.566  0.006052839  20.4138         66
 5.61   0.0000    238.3038    837.2303 -33.43     361.2383     1.186     1.112      3.174  0.006052153  21.6555         67
 4.59   0.0000    254.5397    611.2679 -39.62     2881.035     2.187     1.819      5.082  0.006052839  19.4011         68
 6.59   0.0000    250.9715   1371.3738 -58.85     387.1461     1.226     1.021      3.122  0.006056265  21.5803         69
 3.50   0.0000    311.1951    437.7914 -46.50     219619.9     2.280     2.154      3.778   0.00605421  14.6958         70
 5.93   0.0000    249.4536    105.7782 -18.96     383.8445     1.042     0.933      5.521  0.006057635  21.5896         71
 4.95   0.0000    252.5498   1351.3389  71.15     235.2845     0.909     0.804      2.524   0.00605421  22.1210         72
 3.50   0.0000    286.7258   1485.0045 -37.95     19669.14     1.715     1.696      2.745  0.006059005  17.3155         73
 5.66   0.0000    269.9445   1272.1578  22.15     332.1341     1.141     1.040      2.590   0.00605421  21.7467         74
 3.50   0.0000    281.0555   1520.9016  80.63     4815.267     1.467     1.464      2.589   0.00604941  18.8434         75
 3.90   0.0000    288.8549    513.3441  14.70     1515.831     1.689     1.563      3.274  0.006054895  20.0984         76
 3.50   0.0000    302.1505    199.9561 -69.95     15669.88     1.676     1.667      3.159  0.006057635  17.5623         77
 3.50   0.0000    317.8173    903.7798 -73.78     45803.75     1.884     1.856      3.301   0.00605558  16.3977         78
 3.66   0.0000    293.0932   1326.0527 -10.84     2018.057     1.332     1.296      2.514  0.006052153  19.7877         79
 6.04   0.0000    296.3812   1412.4369 -47.41     704.9776     2.203     1.220      7.298  0.006057635  20.9296         80
 5.48   0.0000    292.5988   1474.0891 -72.91     646.6129     1.213     1.125      2.594  0.006054895  21.0234         81
 3.50   0.0000    350.4766   1344.3259 -47.10     187426.4     2.157     2.077      3.342  0.006052153  14.8679         82
 3.50   0.0000    350.4236    889.1561 -44.00     196495.5     2.174     2.085      3.438   0.00605695  14.8166         83
 6.72   0.0000    291.3062    246.9581  -9.45     150.7218     0.738     0.670      2.734   0.00604941  22.6046         84
 4.16   0.0000    301.2860    561.9269 -84.51     845.0479     1.176     1.158      2.810  0.006050782  20.7328         85
 7.05   0.0001    294.5081    885.5162  47.26     104.6501     0.501     0.499      2.913  0.006052153  23.0007         86
 6.58   0.0000    307.7204     83.4041  76.06     274.4724     1.343     0.926      3.908   0.00605695  21.9538         87
 3.50   0.0000    321.1586    695.6251 -47.74      11341.9     1.603     1.589      2.889   0.00605832  17.9133         88
 5.07   0.0000    320.8947    639.7018 -63.54      676.481     1.921     1.239      5.010  0.006048725  20.9744         89
 4.67   0.0000    326.5799    593.6990  16.58     1479.672     1.646     1.593      3.116  0.006051468  20.1246         90
 7.37   0.0000    323.8711    954.1208  43.45     176.2937     0.848     0.672      3.162  0.006051468  22.4344         91
 5.24   0.0000    328.5014   1544.5280  12.84      346.843     0.890     0.880      2.574  0.006050782  21.6997         92
 3.66   0.0000    345.4328    865.4210 -12.26     6941.029     1.601     1.581      2.719  0.006056265  18.4464         93
 4.60   0.0000    331.2557     91.5267 -12.50     425.8262     0.964     0.920      2.940  0.006052153  21.4769         94
 4.69   0.0000    334.3370   1438.8958 -22.21     354.2235     0.994     0.926      2.557  0.006052839  21.6768         95
 3.71   0.0000    354.8550    430.0677  86.75     4986.548     1.865     1.664      2.942  0.006052839  18.8055         96
 3.90   0.0000    349.0297     52.9388 -38.20     960.9188     1.180     1.153      2.803   0.00605558  20.5933         97
 3.50   0.0000    367.2412    759.5007 -54.60      11394.8     1.611     1.577      2.865  0.006050096  17.9082         98
 6.51   0.0000    347.2364     40.5985 -71.58     137.1594     0.734     0.455      3.030  0.006054895  22.7069         99
 7.60   0.0001    349.1794    918.8082 -45.93     123.8415     0.763     0.569      2.724   0.00605421  22.8178        100
 3.87   0.0000    360.4082   1498.9802  -2.47     1923.293     1.362     1.283      2.521  0.006053524  19.8399        101
 3.60   0.0000    366.4784    441.1104  -1.45     4100.851     1.486     1.439      2.742  0.006050782  19.0178        102
 3.95   0.0000    359.7434   1032.4745  88.46     455.5976     1.098     0.980      2.454  0.006052153  21.4035        103
 5.52   0.0000    358.7580    531.5236  -5.61      295.769     1.003     0.940      3.035   0.00605421  21.8726        104
 3.50   0.0000    394.2169    229.6394 -65.00     39785.48     1.865     1.834      3.400  0.006057635  16.5507        105
 6.22   0.0000    362.5122   1414.1954  89.35     132.7512     0.965     0.734      2.543   0.00605421  22.7424        106
 6.19   0.0000    374.3772    752.2358  49.13      374.379     1.777     0.869      4.282   0.00605558  21.6167        107
 4.05   0.0000    371.9406    990.9655  -6.52     508.5039     1.099     1.090      2.608  0.006056265  21.2843        108
 6.11   0.0000    369.4264     69.7689 -59.58     221.3545     1.021     0.808      3.157  0.006056265  22.1873        109
 6.15   0.0000    372.4563   1082.4019 -42.69     346.1128     1.100     0.947      3.076  0.006060374  21.7020        110
 8.41   0.0000    368.4728    208.4832 -42.24     138.9763     0.502     0.497      3.011  0.006050782  22.6926        111
 7.21   0.0000    374.4860     85.4943 -43.61     206.6928     0.502     0.498      3.009   0.00604941  22.2617        112
 3.50   0.0000    397.1858    352.8762 -47.70     8992.516     1.587     1.563      2.885  0.006059689  18.1653        113
 4.76   0.0000    379.1891    123.8459  47.84     312.2636     0.877     0.846      3.100  0.006056265  21.8137        114
 3.50   0.0000    396.2348   1459.7396 -39.38     7937.301     1.551     1.522      2.599  0.006056265  18.3008        115
 6.40   0.0000    381.3583     65.8504  68.19     243.2477     0.920     0.686      2.930   0.00605695  22.0849        116
 3.53   0.0000    392.8948   1087.1184 -43.26     1861.408     1.340     1.290      2.539  0.006050782  19.8754        117
 3.50   0.0000    418.6964    431.6001 -36.33     37619.16     1.844     1.821      3.227   0.00605421  16.6115        118
 3.50   0.0000    414.6547    835.7849  80.34     20949.71     1.743     1.724      3.043  0.006057635  17.2471        119
 6.65   0.0000    395.7475    625.0959 -71.56     571.8507     1.409     1.174      6.525  0.006051468  21.1568        120
 5.59   0.0000    388.1190   1194.0817 -44.39     182.0704     0.817     0.665      2.560  0.006052153  22.3994        121
 7.65   0.0000    388.6874    259.3129  44.99      144.911     0.559     0.342      2.531  0.006050782  22.6472        122
 5.36   0.0000    395.6322    976.0563 -72.62     265.0751     0.994     0.744      2.680  0.006057635  21.9916        123
 7.15   0.0000    402.6581    524.8920  73.82     253.0643     1.055     0.743      4.391  0.006051468  22.0419        124
 5.72   0.0000    406.0609    280.4920  -1.54     221.0984     0.789     0.698      2.897  0.006052839  22.1885        125
 3.50   0.0000    423.2350    924.7604  -0.08     4166.994     1.465     1.440      2.775   0.00605695  19.0004        126
 5.07   0.0000    419.8903    157.4107  53.76     695.5781     1.577     1.320      3.838   0.00605421  20.9441        127
 3.50   0.0000    437.0053    250.2997 -67.25     17247.89     1.696     1.682      3.153   0.00605421  17.4582        128
 9.01   0.0000    412.9788   1560.5126 -57.94     204.1967     0.798     0.313      3.317   0.00605558  22.2749        129
 3.50   0.0000    460.3158    806.0190 -55.61     98701.69     1.997     1.968      3.195  0.006056265  15.5642        130
 7.35   0.0000    417.7171   1202.9877  -1.05     157.1026     0.733     0.677      2.941  0.006056265  22.5595        131
 6.42   0.0000    418.3168    772.9954  -4.92     148.0379     0.746     0.670      2.929  0.006054895  22.6241        132
 5.43   0.0000    418.9897   1579.0396 -47.42     209.9366     0.778     0.768      2.477  0.006056265  22.2448        133
 6.12   0.0000    425.7877   1177.8984  46.17     428.4231     1.352     0.963      3.652  0.006052153  21.4703        134
 9.09   0.0000    420.7513    131.6127 -19.48     370.1331     1.024     0.595      6.147   0.00605832  21.6291        135
 3.88   0.0000    432.1568   1420.5510 -13.67     1218.953     1.278     1.193      2.203  0.006057635  20.3350        136
 5.07   0.0000    425.2187    298.2015  45.20     203.1347     0.741     0.560      2.642   0.00605421  22.2805        137
 7.36   0.0000    423.4867   1062.4834 -45.93     170.8184     0.501     0.498      2.833  0.006051467  22.4687        138
 4.40   0.0000    433.1017    149.3165 -63.12     571.0568     1.080     0.998      2.901  0.006048038  21.1583        139
 9.20   0.0000    429.4095    717.2090  19.03     317.6894     0.759     0.449      4.556  0.006052839  21.7950        140
 4.95   0.0000    466.9105    848.9695  22.57     3587.287     7.586     2.027     15.049  0.006053524  19.1631        141
 3.50   0.0000    449.3584     19.5427 -60.91     5663.884     1.516     1.489      2.950   0.00605421  18.6672        142
 3.52   0.0000    439.0240    303.9665 -29.43     614.4554     1.096     1.087      2.721   0.00605558  21.0788        143
 6.97   0.0000    432.5110    404.5458 -50.49      136.041     0.504     0.494      3.024  0.006052153  22.7158        144
 7.34   0.0001    432.7045    351.6670 -42.97     117.5555     0.560     0.341      2.246  0.006052839  22.8744        145
 4.83   0.0000    444.2433    120.4567 -31.07     693.3292     1.366     1.262      3.194  0.006054895  20.9477        146
 3.50   0.0000    456.8156     32.7609 -51.80       6392.4     1.531     1.513      2.938  0.006057635  18.5358        147
 5.22   0.0000    446.5759    882.0103  10.69     674.4216     2.001     1.259      5.268   0.00605558  20.9777        148
 5.48   0.0000    442.9718    653.4962   0.11     181.9668     0.786     0.697      2.699  0.006052153  22.4000        149
 7.74   0.0000    442.5296    172.5065 -41.65     279.5401     0.503     0.496      3.019  0.006052153  21.9339        150
 7.83   0.0001    444.6685   1503.6969 -46.48     71.21138     0.563     0.340      2.799  0.006053524  23.4186        151
 3.71   0.0000    462.7466    466.9019  68.79     1865.424     1.422     1.334      2.772   0.00604941  19.8731        152
 5.08   0.0000    452.0159   1531.8096  -0.37     320.5375     0.885     0.749      2.270  0.006053524  21.7853        153
 4.22   0.0000    460.0773   1094.6234  31.79     570.0994     1.284     1.005      2.966   0.00605558  21.1601        154
 7.52   0.0000    453.4171   1222.8022 -19.45     145.1443     0.742     0.453      2.963  0.006053524  22.6455        155
 5.90   0.0000    460.5345    723.2333 -18.98     323.9956     1.247     0.904      4.092   0.00605695  21.7737        156
 3.50   0.0000    471.1115    733.2065 -28.73     2361.059     1.372     1.336      2.667   0.00605421  19.6172        157
 3.97   0.0000    470.3960    252.5053 -38.99     1600.427     1.299     1.242      2.906  0.006053524  20.0394        158
 3.50   0.0000    476.9908    921.4132 -24.28     3003.952     1.426     1.367      2.600  0.006053524  19.3558        159
 7.42   0.0001    466.0031   1197.0057 -89.87     122.4464     0.624     0.618      2.659  0.006053524  22.8301        160
 4.14   0.0000    477.1493   1275.4653   8.04     1035.287     1.213     1.192      2.392   0.00605421  20.5123        161
 5.12   0.0000    488.0369    837.9963 -89.59     440.3184     2.480     0.772      5.601   0.00605558  21.4406        162
 3.65   0.0000    483.0494   1069.1326  -5.82     1346.703     1.243     1.202      2.543  0.006054895  20.2268        163
 5.55   0.0000    477.8319    681.0212 -89.03     249.8253     0.885     0.755      2.830   0.00605558  22.0559        164
 5.77   0.0000    475.1323   1166.8402  45.72     220.8918     0.807     0.676      2.625   0.00605558  22.1896        165
 4.72   0.0000    495.3149     81.1750  57.03     1738.662     2.302     2.099      6.895  0.006054895  19.9495        166
 5.06   0.0000    494.8221   1185.1775 -17.70     1683.691     3.095     1.822      7.428  0.006056265  19.9843        167
 6.31   0.0000    480.1829   1308.1196 -41.72       224.25     0.808     0.673      2.456  0.006057635  22.1732        168
 4.46   0.0000    532.1125    517.0737  28.71     13289.75     4.211     3.508     11.706  0.006050782  17.7412        169
 3.50   0.0000    511.5095   1300.7717  25.15     13018.58     1.668     1.641      2.830  0.006053524  17.7636        170
 5.08   0.0000    503.2259    761.3248 -11.00     1007.296     1.775     1.591      4.216  0.006054895  20.5421        171
 6.65   0.0000    492.2409    573.0040  -0.20     149.3835     0.679     0.428      2.589  0.006057635  22.6142        172
 4.39   0.0000    514.4930   1459.5461  25.03     2298.007     4.116     1.504      8.383  0.006052153  19.6466        173
 5.45   0.0000    500.7662   1308.6923 -76.01     278.4125     1.049     0.954      2.651  0.006052153  21.9383        174
 3.98   0.0000    501.1331    862.1224  42.47     675.6615     1.141     1.089      2.534  0.006050096  20.9757        175
 4.68   0.0000    497.0258    364.5549  -0.33     300.6908     0.998     0.776      2.953   0.00605832  21.8547        176
 4.76   0.0000    508.9231    162.9342  -3.25     686.7258     2.084     0.991      3.783  0.006050096  20.9580        177
 4.17   0.0000    512.4128   1308.8362  -1.30     1082.028     1.308     1.270      2.713   0.00605695  20.4644        178
 7.16   0.0001    504.2955   1567.6567  42.57     127.3335     0.564     0.339      2.481  0.006050782  22.7876        179
 4.20   0.0000    512.9454   1177.7968 -42.37     754.2823     1.134     1.122      2.547  0.006060374  20.8562        180
 6.83   0.0000    509.0067    451.7137 -85.61     142.3638     0.730     0.679      3.044  0.006054895  22.6665        181
 4.97   0.0000    518.2617    640.2252 -31.72     518.4059     1.174     1.100      3.056   0.00605695  21.2633        182
 5.52   0.0000    517.4788   1517.8157  89.29     259.3342     0.917     0.725      2.510  0.006057635  22.0154        183
 6.23   0.0000    519.9700    852.0184  89.63     162.5423     0.787     0.785      3.075  0.006056265  22.5226        184
 3.50   0.0000    586.9020   1314.4562 -46.34     196384.4     2.191     2.093      3.342  0.006050096  14.8172        185
 3.77   0.0000    539.3322    998.3289  62.05     1916.605     1.309     1.274      2.528   0.00604941  19.8437        186
 4.99   0.0000    535.2441    402.8226  29.66     317.3168     1.243     0.988      3.679   0.00605695  21.7963        187
 7.63   0.0001    530.6816   1565.2935  46.48     79.21196     0.553     0.344      2.465  0.006052153  23.3030        188
 7.14   0.0000    542.9440    932.6495 -71.47     215.2086     1.201     0.547      4.495  0.006054895  22.2178        189
 3.65   0.0000    558.0373   1040.1829  -7.22     2540.285     1.441     1.355      2.497  0.006057635  19.5378        190
 3.50   0.0000    630.2377    481.5525 -34.06     317418.3     2.513     2.382      3.952  0.006057635  14.2959        191
 3.50   0.0000    571.6758   1241.3326 -12.95     7965.226     1.565     1.544      2.608  0.006050096  18.2970        192
 5.13   0.0000    554.9875    777.0723  51.46     217.5315     0.779     0.771      2.522  0.006059689  22.2062        193
 4.27   0.0000    595.7502    781.0719 -69.88     4263.092     3.425     3.161      8.677  0.006051468  18.9757        194
 4.33   0.0000    570.6438   1446.7651  20.49     1324.981     2.535     1.664      4.595   0.00605832  20.2445        195
 4.34   0.0000    570.3412     44.2052  48.43     1559.685     1.980     1.360      4.416  0.006059005  20.0674        196
 3.50   0.0000    581.1990    317.4557   7.46     11008.68     1.617     1.598      3.010  0.006060374  17.9457        197
 5.09   0.0000    563.7451    137.5858   6.22      445.997     0.969     0.937      3.069   0.00605832  21.4267        198
 3.50   0.0000    579.6430    143.1784 -12.23     11265.76     1.591     1.564      3.049   0.00605695  17.9206        199
 6.15   0.0000    562.1801    904.3808  71.64      139.932     0.736     0.450      2.459   0.00605558  22.6852        200
 5.58   0.0000    574.0004   1335.5594  53.76     1163.992     1.307     1.255      2.238   0.00605695  20.3851        201
 5.60   0.0000    575.2491   1000.1657  13.53      434.802     1.197     1.152      3.127  0.006056265  21.4543        202
 4.10   0.0000    583.4803     74.2103 -23.29      620.671     1.088     1.067      2.826  0.006056265  21.0678        203
 7.88   0.0000    584.5019   1171.4958 -45.26     260.3676     0.501     0.499      2.539  0.006050782  22.0110        204
 3.60   0.0000   1000.7794    541.0049  25.93     2904.879     1.407     1.397      2.624  0.006054895  19.3922        205
 4.60   0.0000   1596.7689    653.0342 -60.80     373.0799     1.717     1.564      4.231  0.005427601  21.6205        206
 6.30   0.0223   1599.5413     17.4083   0.14    0.2251501     1.057     0.498      4.564  0.004618966  29.6688        207
 6.71   0.0000   1592.3612   1383.5518  -6.81     356.7339     1.005     0.633      2.715  0.006056265  21.6691        208
 5.41   0.0000   1590.2184    565.2172  43.88     280.7393     0.744     0.560      2.694   0.00605558  21.9292        209
 3.93   0.0000   1583.9076   1107.3329 -41.12     2085.767     1.279     1.246      2.440  0.006052839  19.7518        210
 5.46   0.0000   1584.9835   1068.0336  32.47     558.7397     0.778     0.773      2.590  0.006056265  21.1820        211
 4.53   0.0000    895.2333    536.9545   6.80     1383.946     2.015     1.528      5.664   0.00605832  20.1972        212
 6.10   0.0000    896.0331    985.9689 -57.18     255.2953     0.795     0.779      2.757  0.006057635  22.0324        213
 5.23   0.0000    893.0109   1424.6809  -7.63     424.2679     0.963     0.938      2.503   0.00605695  21.4809        214
 5.02   0.0000    878.1594    222.6781  89.22     3043.989     7.141     1.950     13.247   0.00605421  19.3414        215
 4.99   0.0000    887.6431    324.3191  16.94     819.5332     1.863     1.299      4.692   0.00605421  20.7661        216
 3.50   0.0000    879.3609   1591.1895 -69.50     58963.91     1.968     1.923      2.642  0.006056265  16.1235        217
 6.00   0.0000    887.8637    679.6014 -21.04     234.1936     0.921     0.688      2.627  0.006059689  22.1261        218
 4.91   0.0000    884.6620   1303.1270  72.22     628.1025     1.669     1.099      3.723  0.006052839  21.0549        219
 4.01   0.0000    884.9356   1498.7836 -38.94     919.2183     1.125     1.114      2.500  0.006056265  20.6415        220
 6.49   0.0000    883.9968    337.5099  86.65     456.1308     1.101     0.968      3.414  0.006052839  21.4023        221
 5.37   0.0000    877.1454   1175.6119 -12.44     955.5117     1.724     1.602      3.458  0.006059005  20.5994        222
 4.35   0.0000    876.6076    959.4886 -77.84     602.4377     1.060     0.976      2.611   0.00605558  21.1002        223
 4.96   0.0000    875.2582    540.0081 -87.11     244.5114     0.893     0.749      2.929  0.006059689  22.0793        224
 4.08   0.0000    868.4334   1102.1174 -49.80     2413.828     1.830     1.628      2.908  0.006054895  19.5932        225
 3.50   0.0000    858.3796   1223.0500 -41.18     182605.8     2.178     2.095      3.247  0.006056265  14.8962        226
 4.60   0.0000    866.8885    938.1529  42.24     1003.815     1.917     1.291      4.522  0.006052839  20.5459        227
 4.67   0.0000    868.3633    642.0835  75.98     361.7539     0.961     0.748      2.824   0.00605558  21.6540        228
 8.03   0.0000    863.7014   1477.6825 -43.91     163.4834     0.555     0.344      2.879  0.006048725  22.5163        229
 6.00   0.0000    859.6921   1552.9786   3.99      188.557     0.729     0.664      2.527  0.006053524  22.3614        230
 4.10   0.0000    858.7147   1155.9448 -83.57     930.1025     1.164     1.135      2.511  0.006052839  20.6287        231
 4.64   0.0000    857.5610   1338.0282 -82.62     713.3878     1.334     1.148      2.715  0.006057635  20.9167        232
 6.20   0.0000    854.5959    543.6262 -72.23     303.6245     0.956     0.821      3.268  0.006054895  21.8442        233
 6.37   0.0000    843.8217   1205.0450 -19.01     672.9804     1.375     1.158      2.562   0.00605695  20.9800        234
 4.05   0.0000    843.9395   1062.3544  66.14     571.8344     1.070     0.996      2.468   0.00605421  21.1568        235
 4.35   0.0000    842.4504   1104.7479  27.10     1080.615     1.580     1.243      2.937   0.00605695  20.4658        236
 5.28   0.0000    836.8241   1245.6614 -21.94     1546.171     1.830     1.574      2.975  0.006057635  20.0769        237
 3.77   0.0000    835.5443    297.0915 -13.29     1567.053     1.328     1.262      2.727  0.006052839  20.0623        238
 5.04   0.0000    835.8995   1519.0022   3.66     241.6209     0.776     0.769      2.551  0.006052839  22.0922        239
 8.49   0.0000    836.5397    990.4929 -34.82     235.5691     0.501     0.497      3.008  0.006052153  22.1197        240
 4.57   0.0000    834.5955    817.5818 -39.61      390.246     1.016     0.921      2.642   0.00605421  21.5717        241
 3.50   0.0000    822.0718    652.7687 -10.68     7022.406     1.562     1.524      2.749   0.00605558  18.4338        242
 4.94   0.0000    818.8486   1397.1173  43.64     192.5587     0.805     0.673      2.421  0.006052839  22.3386        243
 5.66   0.0000    817.8868    701.1406  45.51     263.3146     0.802     0.673      2.551  0.006052153  21.9988        244
 6.82   0.0000    816.2410    431.9883   0.56     203.6932     0.686     0.428      2.929  0.006056265  22.2776        245
 6.01   0.0000    814.5419    876.5894 -51.18     324.2616     1.164     0.774      2.916  0.006059689  21.7728        246
 4.70   0.0316    808.9826   1543.0576  54.05    0.2083099     0.782     0.762      3.509  0.006056265  29.7532        247
 3.50   0.0000    802.1673   1377.2550 -63.57     6708.526     1.539     1.491      2.474   0.00605695  18.4834        248
 3.50   0.0000    797.5919    694.0781 -88.01     18373.53     2.423     1.676      3.734   0.00605695  17.3895        249
 3.59   0.0000    799.6078     39.4454 -26.98     3114.363     1.448     1.406      2.905   0.00605832  19.3166        250
 7.48   0.0000    793.1691    293.8343 -47.22     182.3416     0.763     0.571      3.691   0.00605695  22.3978        251
 6.91   0.0001    785.3232   1347.6670  44.55     99.25661     0.573     0.336      2.449  0.006050096  23.0581        252
 4.38   0.0000    773.2988   1425.9287  89.49     2132.504     2.977     1.915      6.501  0.006052153  19.7278        253
 5.59   0.0000    766.8547    138.4201 -68.69     369.4099     1.070     0.966      3.180   0.00605695  21.6312        254
 3.90   0.0000    765.5582    390.2480 -24.76     1359.996     1.268     1.247      2.637   0.00605695  20.2162        255
 7.64   0.0000    763.4982    565.5446  68.11     155.6216     0.500     0.498      3.002  0.006050096  22.5698        256
 9.04   0.0000    756.6586   1339.6763 -45.77     230.4905     0.577     0.334      3.372  0.006053524  22.1434        257
 7.89   0.0000    753.8913    194.1855 -26.68     532.0326     0.997     0.765      5.021  0.006054895  21.2352        258
 7.34   0.0000    751.6749   1078.6847 -45.49     172.4837     0.566     0.339      2.300  0.006051468  22.4581        259
 3.75   0.0000    741.7845    554.6939  33.65     1629.338     1.302     1.272      2.824  0.006054895  20.0200        260
 7.91   0.0000    740.8860    385.6720 -21.85     190.8194     0.908     0.694      3.458  0.006050782  22.3484        261
 4.03   0.0000    737.1138   1156.6750 -52.97     571.2411     1.164     1.036      2.632  0.006050782  21.1580        262
 4.30   0.0000    735.0568    648.0876 -11.19     632.7247     1.106     1.087      2.625  0.006052153  21.0470        263
 3.50   0.0000    723.1527    403.1900 -36.51     218515.2     2.337     2.158      3.647   0.00605832  14.7013        264
 3.50   0.0000    725.6390    846.8472  86.83      50990.5     1.908     1.891      3.242   0.00605695  16.2813        265
 3.78   0.0000    726.5370   1176.7676 -52.26     1110.195     1.244     1.192      2.632   0.00605558  20.4365        266
 4.85   0.0000    720.4446   1393.6628  25.43     444.7682     1.122     0.924      2.691  0.006054895  21.4297        267
 3.86   0.0000    714.8899    806.8448 -15.43      1416.46     1.298     1.242      2.679  0.006052153  20.1720        268
 3.75   0.0000    708.0659   1162.3641  63.28     1455.914     1.275     1.252      2.309  0.006056265  20.1422        269
 6.33   0.0000    706.7075    536.9884   0.90     159.7315     0.734     0.672      2.649  0.006053524  22.5415        270
 4.85   0.0000    703.2502   1337.6422 -55.25     1414.041     1.730     1.487      2.899   0.00605695  20.1738        271
 3.56   0.0000    701.9570    951.0158 -35.65     2590.456     1.395     1.359      2.517   0.00605695  19.5166        272
 5.29   0.0000    698.0149    581.1076   6.36      643.506     1.736     1.055      4.887   0.00605558  21.0286        273
 5.35   0.0000    690.8043   1212.2382  78.30     538.6233     1.356     1.193      2.878   0.00605558  21.2218        274
 5.13   0.0000    685.6290   1212.3180 -38.12      425.204     1.160     0.993      2.383   0.00605558  21.4785        275
 5.49   0.0000    690.8938    314.5157 -12.43     255.7894     1.015     0.880      3.052  0.006048725  22.0303        276
 3.86   0.0000    684.6302    642.6771 -75.22     2104.695     1.394     1.341      2.819  0.006054895  19.7420        277
 6.20   0.0000    682.1085    470.8536  76.65     1410.614     2.920     2.487      8.284  0.006052839  20.1765        278
 4.31   0.0000    686.5148    129.2447 -73.95      328.438     0.962     0.931      2.777  0.006053524  21.7589        279
 5.24   0.0000    680.3448    541.8474 -68.90     1472.767     2.211     1.539      4.912   0.00605558  20.1297        280
 7.55   0.0000    672.1679    229.6067 -71.13     181.4071     0.744     0.449      3.200  0.006057635  22.4034        281
 6.35   0.0000    668.4205   1219.9137 -25.78     269.2897     1.077     0.968      2.927   0.00605558  21.9744        282
 5.66   0.0000    665.9476   1178.6901  85.12     173.1734     0.728     0.664      2.710  0.006053524  22.4538        283
 3.50   0.0000    647.4250   1462.9357 -73.52     50111.18     1.884     1.859      3.014  0.006056265  16.3002        284
 4.25   0.0000    653.7736    869.2408 -76.15     643.3896     1.126     1.073      2.542  0.006059005  21.0288        285
 3.74   0.0000   1560.2877    859.7744 -61.50      1645.06     1.205     1.199      2.781  0.006054895  20.0095        286
 5.39   0.0000    644.6694    651.3629 -43.44     429.0143     0.969     0.867      2.733  0.006056265  21.4688        287
 3.50   0.0000    638.8484    535.1853  -4.08     11707.12     1.634     1.615      2.871  0.006057635  17.8789        288
 5.75   0.0000    640.2394    274.9890 -86.29      224.236     0.902     0.754      3.029  0.006056265  22.1732        289
 4.03   0.0000    629.8251    804.6707  19.29     683.3195     1.172     1.086      2.724  0.006056265  20.9634        290
 3.93   0.0000    622.6715   1580.3358  43.43     1154.514     1.259     1.196      2.188  0.006051468  20.3940        291
 6.59   0.0000    617.4990   1149.4860 -57.40     463.3369     1.031     1.023      3.679   0.00604941  21.3853        292
 5.60   0.0000    608.5309    943.9694  88.46       268.99     0.792     0.699      2.664  0.006056265  21.9757        293
 3.85   0.0000    604.6416    584.7639 -43.08     1198.362     1.268     1.194      2.714   0.00605832  20.3535        294
 3.50   0.0000   1557.0204    485.9611 -53.30     46122.95     1.875     1.851      3.334  0.006057635  16.3902        295
 5.93   0.0000   1531.6570    414.1004  21.00     745.1901     1.197     1.052      3.681  0.006048725  20.8693        296
 6.03   0.0000    587.5083   1137.9491  -0.03       153.74     0.778     0.500      2.692  0.006053524  22.5830        297
 3.50   0.0000   1562.5818    302.4704 -71.24     47509.35     1.860     1.834      3.410   0.00605832  16.3581        298
 5.90   0.0000   1580.3192   1412.8826  67.07     401.2661     0.929     0.688      3.091  0.006051468  21.5414        299
 4.68   0.0000   1593.5406    372.2215  56.35      490.324     1.323     1.077      3.028  0.006021913  21.3238        300
 3.78   0.0000   1565.5719     20.1500 -63.47     2726.104     1.364     1.316      2.791  0.006057635  19.4611        301
 3.77   0.0000   1569.4309     90.9254 -18.04     2280.566     1.353     1.258      2.872   0.00605421  19.6549        302
 4.67   0.0000   1574.1427   1489.8724  44.79     449.0051     0.810     0.668      2.458  0.006052839  21.4194        303
 3.57   0.0000   1551.6183    680.5828 -24.38     17641.19     4.495     3.845     10.969   0.00605558  17.4337        304
 7.60   0.0000   1561.6877   1564.6656 -43.93     358.9471     0.568     0.338      2.348  0.006053524  21.6624        305
 4.52   0.0000   1545.1320    861.8799  50.68     1370.502     1.585     1.347      3.218  0.006051468  20.2078        306
 4.24   0.0000   1564.8293    782.9285 -77.73     1684.595     1.809     1.376      3.160   0.00605558  19.9838        307
 3.50   0.0000   1540.7203    133.3114 -42.14     4340.244     1.465     1.406      2.961  0.006051468  18.9562        308
 4.79   0.0000   1550.0040   1220.5364  89.36     805.3893     1.041     0.941      2.242  0.006059689  20.7850        309
 8.22   0.0000   1561.9812    384.5218 -57.98     447.8658     0.799     0.313      2.916  0.006057635  21.4221        310
 3.80   0.0000   1541.5587    652.9693 -78.11     3142.004     1.385     1.344      2.825   0.00605832  19.3070        311
 4.75   0.0000    911.3773    999.6149  45.06     602.8826     0.999     0.931      2.663   0.00605421  21.0994        312
 7.74   0.0000   1537.6698    261.6955 -46.34     292.9441     0.563     0.340      2.912  0.006051468  21.8830        313
 5.53   0.0000   1535.3264   1427.2688 -45.54     650.7274     1.532     0.665      3.787  0.006050782  21.0165        314
 7.30   0.0000   1518.0217     83.3199  89.56          462     0.742     0.670      3.264  0.006056265  21.3884        315
 8.64   0.0000   1527.5062    731.5178  45.94     382.4808     0.504     0.496      3.024  0.006051467  21.5935        316
 5.24   0.0000    903.5654   1313.7103  89.95     383.6078     1.350     0.886      2.900  0.006052839  21.5903        317
 7.63   0.0000   1521.4940     12.5132 -49.02     367.8613     0.500     0.499      3.002   0.00604941  21.6358        318
 6.15   0.0000   1519.0690   1099.1724  88.93     611.3416     1.232     0.742      3.528  0.006056265  21.0843        319
 7.48   0.0000    907.0171    657.9998   0.02     261.0704     0.622     0.616      2.802   0.00605558  22.0081        320
 3.50   0.0000    880.5232    182.0464 -38.73     403738.2     3.385     3.061      5.367  0.006052839  14.0347        321
 5.23   0.0000   1514.5746   1545.6958  67.34     689.3735     1.333     0.896      2.978  0.006053524  20.9539        322
 3.50   0.0000   1506.1353    267.6278 -53.64     30202.41     1.782     1.768      3.229   0.00605558  16.8499        323
 3.50   0.0000   1513.8668    390.9625 -15.48     9011.442     1.571     1.545      2.880   0.00605558  18.1630        324
 4.15   0.0000   1497.6581    842.8043  75.31     684.3839     0.927     0.840      2.686  0.006059005  20.9618        325
 4.66   0.0000   1513.5370    481.9712  -5.73     920.2199     1.050     0.934      2.782   0.00605558  20.6403        326
 4.05   0.0000   1503.1420    721.8080 -46.78     1210.298     1.145     1.089      2.739  0.006060374  20.3428        327
 6.56   0.0000    903.2962    733.6486  42.33     242.9957     0.568     0.337      2.443  0.006048038  22.0860        328
 7.47   0.0000    915.6460    251.2777  70.75     235.8959     0.994     0.589      4.954  0.006052839  22.1182        329
 4.85   0.0000   1487.3322     76.3618  41.29     664.0794     0.988     0.876      2.998   0.00605558  20.9944        330
 3.50   0.0000    899.4590    301.0754 -81.56     7138.749     1.540     1.531      2.857  0.006053524  18.4159        331
 6.50   0.0000   1474.1816    996.8334 -12.30     966.5208     1.757     0.851      5.974   0.00605695  20.5870        332
 8.08   0.0000   1502.6862   1095.3074  45.36     351.1299     0.557     0.343      2.499  0.006050096  21.6863        333
 4.02   0.0000    927.4186   1321.0927 -59.45     1155.847     1.241     1.193      2.499  0.006054895  20.3927        334
 3.58   0.0000    911.7818    836.9878  21.18     966.8613     1.137     1.120      2.673   0.00605421  20.5866        335
 7.31   0.0000   1476.0038    197.0226  -0.24     367.9615     0.625     0.608      2.974   0.00605558  21.6355        336
 3.50   0.0000    928.7842   1176.9645 -75.56     16425.71     1.660     1.649      2.745   0.00605695  17.5112        337
 5.41   0.0000   1481.4064    573.5411 -44.83     901.3792     1.772     0.922      3.849  0.006059005  20.6627        338
 6.75   0.0000    924.7589     44.9738  -1.32     231.7759     0.677     0.428      2.974  0.006059005  22.1373        339
 6.57   0.0000   1437.7291    645.9688   2.78     405.1134     0.739     0.673      3.503   0.00605558  21.5311        340
 3.70   0.0000    938.2939   1065.6617 -46.14     2049.643     1.308     1.287      2.596  0.006052153  19.7708        341
 6.61   0.0000    937.5351    514.7275  61.63     707.7425     1.388     1.058      6.369  0.006050782  20.9253        342
 4.27   0.0000   1072.1891      5.1313  43.47     670.2761     1.145     1.092      3.006  0.005639793  20.9844        343
 8.04   0.0000    931.4902   1116.4973  42.17     177.2867     0.500     0.500      2.558  0.006048725  22.4283        344
 5.06   0.0000    949.8893    652.7997 -81.86      908.037     1.539     1.179      3.637  0.006053524  20.6547        345
 5.79   0.0000    948.6909    265.9673   4.99      248.525     0.728     0.661      2.778  0.006053524  22.0616        346
 6.09   0.0000    946.5017    131.9244 -89.81     284.0384     0.784     0.702      2.793  0.006051468  21.9166        347
 0.00   0.0050   1445.3241    729.6676 -44.42     1.321716     0.976     0.847      0.000  0.006050096  27.7472        348
 4.63   0.0000    946.7379    443.5126 -10.80     436.2424     0.960     0.924      2.868  0.006052153  21.4507        349
 7.00   0.0000    950.9890     59.7208  87.95     286.8101     0.738     0.680      3.045  0.006057635  21.9060        350
 3.50   0.0000   1438.8138    617.4947  -3.53     3338.371     1.405     1.336      2.770   0.00605421  19.2412        351
 5.81   0.0000    977.2017    451.1608 -46.98     536.5959     1.054     1.021      2.764   0.00605558  21.2259        352
 6.44   0.0000    981.2772   1485.5688 -71.25     250.7946     0.710     0.464      2.609  0.006054895  22.0517        353
 4.33   0.0000    964.1914    414.6839  -6.23     432.9552     1.044     0.904      2.808  0.006054895  21.4589        354
 7.65   0.0000   1448.3307     86.3277 -45.14     248.0377     0.574     0.335      2.678  0.006050096  22.0637        355
 6.22   0.0000   1402.9658   1361.6907  88.01     405.9081     0.734     0.665      2.627  0.006052839  21.5289        356
 5.61   0.0000   1452.4932    389.9692  -0.04     375.9305     0.776     0.500      2.817  0.006052839  21.6122        357
 3.50   0.0000   1434.2749    223.0352  -8.07     4355.459     1.437     1.401      2.822   0.00605421  18.9524        358
 5.08   0.0000   1431.3323    339.0796  15.37     731.8848     1.318     1.000      3.995  0.006050782  20.8889        359
 4.48   0.0000   1435.3472   1345.8972  66.73     526.8427     0.877     0.691      2.549   0.00604941  21.2458        360
 3.50   0.0000   1433.4221   1089.1058 -39.33      98384.7     2.019     1.976      3.139   0.00605421  15.5677        361
 4.94   0.0000    979.9200    796.3452 -69.78     987.0045     1.528     1.335      3.058  0.006052153  20.5642        362
 5.01   0.0000   1437.6868   1269.6205 -39.16     825.2433     1.005     0.935      2.806   0.00605558  20.7585        363
 4.55   0.0000   1062.1874      5.4431 -72.40     504.7538     1.084     0.944      3.002  0.005704166  21.2923        364
 3.84   0.0000   1414.4547   1385.1642  10.49      2230.13     1.299     1.240      2.505  0.006056265  19.6792        365
 3.82   0.0000   1391.3124   1037.3163  81.77     2467.103     1.308     1.254      2.537  0.006052153  19.5695        366
 8.21   0.0000    990.3859      7.7912 -18.07     299.7259     0.749     0.450      2.961  0.006043234  21.8582        367
 5.35   0.0000    985.7014    452.3794  71.36     1302.625     1.684     1.487      6.867  0.006052153  20.2630        368
 3.50   0.0000   1407.1144    306.5837 -20.97     3197.997     1.378     1.320      2.917   0.00605558  19.2878        369
 5.35   0.0000   1058.8673    725.2213  12.35      927.979     1.547     1.318      3.244   0.00605695  20.6312        370
 8.12   0.0000   1392.4625   1532.5253  26.87     442.2907     0.500     0.498      2.897  0.006052153  21.4357        371
 4.05   0.0001   1064.7887   1595.5985  -0.60      102.476     0.952     0.922      2.559  0.005693245  23.0234        372
 3.50   0.0000   1418.3916   1124.8832 -77.28     19833.88     1.877     1.709      2.765  0.006054895  17.3065        373
 5.52   0.0000   1065.7006    567.3940 -46.66      340.136     1.010     0.859      2.975  0.006053524  21.7209        374
 3.50   0.0000   1392.3226    112.7163 -61.21     61270.45     1.912     1.882      3.539  0.006052153  16.0819        375
 4.80   0.0000   1410.1692    348.2589  38.25     1084.546     1.424     1.140      3.435   0.00605695  20.4619        376
 3.87   0.0000   1405.2560    328.1822 -46.38     980.5789     1.109     1.009      2.696  0.006056265  20.5713        377
 7.16   0.0000   1384.8512   1272.3165  19.94     570.5709     0.943     0.684      3.929  0.006052153  21.1592        378
 3.50   0.0000   1080.8574   1146.6995 -37.30     10950.18     1.606     1.584      2.745   0.00604941  17.9514        379
 7.25   0.0000   1387.6710   1583.6774 -45.30     280.9789     0.571     0.337      2.303  0.006052153  21.9283        380
 3.55   0.0000   1389.4575    711.6985  82.53     3299.154     1.392     1.366      2.790  0.006050782  19.2540        381
 4.55   0.0000   1399.6775   1029.9172  37.25     1317.106     1.386     1.261      2.853  0.006052153  20.2509        382
 3.50   0.0000   1387.8711   1427.1305 -44.85     8964.029     1.550     1.523      2.453   0.00604941  18.1687        383
 4.54   0.0000   1387.7516    805.1268 -26.74     799.2017     1.029     0.860      2.608  0.006052153  20.7934        384
 5.15   0.0000   1071.1560   1217.5702 -70.03     1867.384     1.833     1.616      5.991   0.00605832  19.8719        385
 7.93   0.0000   1078.3075    920.6745  44.05     189.6129     0.562     0.341      2.808  0.006052153  22.3553        386
 5.32   0.0000   1358.4951   1133.8796  65.16     6808.731     7.300     5.609     21.438  0.006050782  18.4673        387
 3.50   0.0000   1371.5765   1017.4304 -27.17     9819.074     1.699     1.575      2.742  0.006054895  18.0698        388
 3.50   0.0000   1365.6400   1158.5590 -56.68     387346.2     2.600     2.466      3.655  0.006057635  14.0798        389
 5.93   0.0000   1378.1614    317.1565 -43.87     493.2515     0.816     0.678      3.234   0.00605832  21.3173        390
 6.42   0.0000   1369.7170   1213.9958   0.41     242.4815     0.728     0.671      2.645   0.00605421  22.0883        391
 7.13   0.0000   1351.5106    150.4639 -89.93     724.0984     1.411     0.989      4.336  0.006052839  20.9005        392
 4.46   0.0000   1078.2782    328.4481 -83.92     640.5588     1.099     0.976      2.744  0.006053524  21.0336        393
 4.54   0.0000   1129.1276    217.8402 -16.65     743.7795     1.268     1.111      3.076   0.00605558  20.8714        394
 7.41   0.0000   1079.4799     51.4947 -43.41     170.3264     0.503     0.496      2.407  0.006051467  22.4718        395
 3.50   0.0000   1079.0315    510.4872 -66.96     29895.36     1.789     1.785      3.122   0.00605558  16.8610        396
 5.01   0.0000   1298.2988     52.3263  44.11     612.2437     0.966     0.861      2.736  0.006050096  21.0827        397
 3.50   0.0000   1290.3920    760.6022 -25.48      7246.89     2.082     1.547      2.613  0.006052839  18.3996        398
 7.26   0.0000   1140.4689    659.7193 -76.74     502.0281     1.021     0.983      3.161  0.006052839  21.2982        399
 6.03   0.0000   1104.3984    676.9483  30.47     676.2859     1.655     1.328      4.458  0.006059689  20.9747        400
 3.50   0.0000   1103.5367    750.2529 -16.61     12246.83     1.636     1.626      2.836  0.006052839  17.8299        401
 8.63   0.0000   1227.8016    913.4159 -70.20     160.7532     0.755     0.448      2.560  0.006053524  22.5346        402
 5.04   0.0000   1345.3068    603.5858 -46.97     605.8397     1.031     0.867      2.828   0.00605421  21.0941        403
 3.50   0.0000   1137.4652    146.3154 -63.61      28956.6     1.783     1.772      3.303  0.006051468  16.8956        404
 3.60   0.0000   1328.8937    654.2343 -41.29     3511.293     1.571     1.469      2.624  0.006052153  19.1863        405
 6.72   0.0000   1144.5126    768.0521 -63.32     333.7361     1.048     0.660      3.028  0.006051468  21.7415        406
 4.32   0.0000   1329.4597    385.2786  -4.07     777.5129     1.105     0.973      2.658  0.006052839  20.8232        407
 3.50   0.0000   1318.9797    658.3566 -51.34     27268.29     1.809     1.764      3.159   0.00605695  16.9609        408
 3.80   0.0000   1331.7690    105.6791 -23.31     1260.825     1.229     1.159      2.878   0.00605421  20.2984        409
 3.87   0.0000   1318.2977    262.3654 -17.70     1111.356     1.145     1.054      2.698  0.006050096  20.4354        410
 5.71   0.0000   1290.5353    544.2051 -89.42     402.3295     0.913     0.724      2.698  0.006059005  21.5385        411
 3.86   0.0000   1306.4679    668.0588 -35.67     3150.612     1.444     1.384      2.728   0.00605421  19.3040        412
 6.94   0.0000   1237.1094    855.8504  46.15     489.5862     0.835     0.669      3.027  0.006053524  21.3254        413
 5.99   0.0000   1329.6127   1138.2310 -76.91     1058.067     1.700     1.291      3.154  0.006057635  20.4887        414
 4.53   0.0000   1306.6420   1034.6167 -38.59     2385.311     2.361     1.722      4.026  0.006056265  19.6061        415
 3.50   0.0000   1297.3291    723.2282 -44.07     121945.3     2.063     1.993      3.553   0.00605558  15.3346        416
 3.50   0.0000   1277.1975   1329.9467 -71.97     4871.498     1.496     1.469      2.563  0.006059689  18.8308        417
 5.03   0.0000   1261.1620    214.3512 -20.56     439.1136     0.895     0.681      3.157   0.00605695  21.4436        418
 4.65   0.0000   1258.4354    430.7973  -8.20     1848.693     1.823     1.744      4.710  0.006056265  19.8828        419
 7.06   0.0000   1276.5190    341.5497  87.94     330.6765     0.500     0.498      2.998  0.006052839  21.7515        420
 3.87   0.0000   1291.6110    411.0685 -67.14     1407.712     1.198     1.122      2.801  0.006059005  20.1787        421
 4.18   0.0000   1303.8444    891.2675 -21.68      1014.43     1.173     1.092      2.466   0.00605421  20.5344        422
 3.50   0.0000   1264.4500    806.3043 -10.47     3785.941     1.430     1.403      2.648  0.006048725  19.1046        423
 3.62   0.0000   1271.7771    608.2945 -57.26     10867.42     4.120     2.398      8.966   0.00605421  17.9597        424
 5.40   0.0000   1292.5314    740.6757  -3.66     1489.288     1.314     1.258      2.810  0.006050096  20.1176        425
 5.04   0.0000   1261.3013    853.6693 -45.54     711.4196     0.975     0.858      2.611  0.006052839  20.9197        426
 6.18   0.0000   1228.7921    597.5120 -27.35     862.3281     1.394     1.294      3.339   0.00605558  20.7108        427
 5.81   0.0000   1272.7826    696.4456 -30.17     462.6627     1.026     0.808      3.012  0.006057635  21.3868        428
 4.50   0.0000   1179.9962    547.8613  -0.91     817.8472     1.111     1.095      2.686  0.006059689  20.7683        429
 3.95   0.0000   1241.5306    671.1176 -70.90     1138.521     1.215     1.158      2.667  0.006050782  20.4091        430
 4.87   0.0000   1227.7340   1152.1791 -27.34     563.2463     1.018     0.860      2.542   0.00605695  21.1733        431
 3.50   0.0000   1220.4581    993.4379 -35.09     737244.6     6.141     5.468      7.804  0.006056265  13.3810        432
 7.22   0.0000   1155.1688    565.8247 -47.90     315.4899     0.761     0.569      3.119   0.00605421  21.8025        433
 3.70   0.0000   1209.7661   1277.4961  82.40     9639.479     5.723     3.348     12.066  0.006051468  18.0899        434
 4.34   0.0000   1236.5536     46.4795 -39.25     624.6151     1.007     0.985      2.981  0.006053524  21.0610        435
 3.50   0.0000   1233.3174    303.1288 -33.20     3188.519     1.407     1.360      2.801  0.006050782  19.2910        436
 3.84   0.0000   1236.1608   1552.1829 -43.86     2021.943     1.323     1.289      2.421  0.006057635  19.7856        437
 3.91   0.0000   1206.7118    837.2832 -37.85     2098.523     1.302     1.253      2.510  0.006052153  19.7452        438
 3.50   0.0000   1213.5923    511.3732 -24.14      16928.6     1.679     1.653      3.063   0.00605558  17.4784        439
 3.50   0.0000   1217.9432   1193.4332  24.46     11139.52     1.726     1.715      2.590   0.00605695  17.9328        440
 3.75   0.0000   1180.7308    174.5110  -2.72     664.7029     0.952     0.934      2.994  0.006050782  20.9934        441
 6.47   0.0952   1176.0352   1597.4890 -89.17   0.05980252     0.774     0.500      3.843  0.005240131  31.1082        442
 7.38   0.0000   1209.4972   1414.0437   1.40     365.0692     0.795     0.500      2.888  0.006050096  21.6441        443
 5.03   0.0000   1193.9247    122.3590 -73.05      1784.98     1.872     1.603      4.429   0.00605421  19.9209        444
 6.72   0.0000   1195.0153   1051.9500  39.26      227.006     0.792     0.769      2.534   0.00605832  22.1599        445
 4.79   0.0000   1202.3865   1074.0697  32.97     1554.669     1.879     1.486      3.223  0.006059005  20.0709        446
 3.50   0.0000   1022.7138     48.6368 -36.92     265241.6     2.337     2.204      3.591  0.006054895  14.4909        447
 5.46   0.0000   1203.0814   1215.9823 -60.78     286.5761     0.773     0.770      2.672   0.00605695  21.9069        448
 4.54   0.0000   1128.1398    545.7977 -41.45     727.8874     1.153     1.078      2.757  0.006059689  20.8948        449
 3.78   0.0000   1200.7709    337.4013 -67.12     2036.295     1.312     1.258      2.740  0.006052839  19.7779        450
 4.16   0.0000   1200.0502   1440.7556  62.70     1351.923     1.618     1.421      3.047  0.006057635  20.2226        451
 6.52   0.0000   1242.9976    612.0282   0.19     280.6267     0.621     0.604      2.613   0.00605421  21.9297        452
 5.98   0.0000   1182.0114    672.2286   0.20     423.3936     1.044     0.924      2.385   0.00605695  21.4831        453
 6.10   0.0000   1184.3773    312.2297  16.72     322.3239     0.721     0.457      2.483   0.00605558  21.7793        454
 4.72   0.0000   1152.6226   1351.5450  31.35     1092.105     1.363     1.344      2.944  0.006057635  20.4543        455
 3.50   0.0000   1150.6865    692.2611 -37.57     367695.3     2.609     2.445      3.990  0.006052153  14.1363        456
 3.50   0.0000   1164.2836   1298.2522 -64.30     41902.49     1.847     1.819      3.070  0.006051468  16.4944        457
 5.90   0.0000   1132.7911    605.7378  13.06     360.2011     0.950     0.849      2.861  0.006059689  21.6586        458
 4.14   0.0000   1171.4829    756.2575 -69.84     6183.622     3.518     3.399      7.565  0.006052839  18.5719        459
 3.50   0.0000   1156.7806    234.6847 -26.05     6413.354     1.547     1.510      2.960  0.006056265  18.5323        460
 5.19   0.0775   1166.0342   1599.0502 -89.77   0.06697014     1.019     0.723      4.435  0.004777053  30.9853        461
 5.68   0.0000   1211.8516   1427.8787  61.83       1707.9     2.040     1.838      9.861  0.006052153  19.9688        462
 4.45   0.0000   1160.7764    886.1274  -3.02     721.2487     1.121     1.069      2.621   0.00605695  20.9048        463
 3.94   0.0000   1150.1481     97.7452   5.11     1599.799     1.306     1.246      2.815   0.00605421  20.0398        464
 7.37   0.0000   1146.6874    110.6743 -44.33     208.1502     0.565     0.340      2.164  0.006050782  22.2541        465
 5.55   0.0000   1130.0812    357.3656 -21.96     503.4349     0.879     0.687      2.993  0.006054895  21.2951        466
 3.55   0.0000   1088.2754    640.8231 -43.25     3414.914     1.420     1.395      2.836   0.00605558  19.2165        467
 3.50   0.0000   1128.9321    181.7670 -45.67      17705.3     1.702     1.657      3.167   0.00605695  17.4297        468
 5.63   0.0000   1113.1067    672.6620  64.40     619.2844     1.089     1.001      2.829  0.006052839  21.0703        469
 3.50   0.0000   1106.4512    426.3088  19.52     7869.099     1.567     1.548      2.861  0.006053524  18.3102        470
 6.33   0.0000   1109.5668    477.2878  -0.22     1547.002     1.935     1.417      9.314  0.006054895  20.0763        471
 4.45   0.0000   1119.2368    328.0858  57.34     2291.844     2.456     1.564      6.440  0.006054895  19.6495        472
 3.50   0.0000   1093.8263    776.4969  85.49     26804.69     1.788     1.773      3.212  0.006052839  16.9795        473
 5.74   0.0000   1085.4456   1451.2606  61.92     391.3889     1.047     0.812      3.156   0.00605421  21.5685        474
 5.59   0.0000   1089.8079    466.6529 -56.87     887.0629     2.120     0.979      4.851  0.006059689  20.6801        475
 3.76   0.0000   1094.6327   1525.1776 -60.45      1074.25     1.182     1.145      2.447   0.00605558  20.4722        476
 6.03   0.0000   1087.4828    395.0322  63.23      331.372     1.019     0.666      3.002  0.006054895  21.7492        477
 4.73   0.0000   1093.6409   1134.6633  46.06     361.5146     0.962     0.865      2.792   0.00605558  21.6547        478
 7.62   0.0000   1051.3976    236.2056  18.54     203.3584     0.753     0.450      3.118   0.00605421  22.2793        479
 5.37   0.0000   1082.6514     41.1513 -12.07     593.5099     1.258     0.985      3.172   0.00605695  21.1164        480
 5.86   0.0000   1064.4108   1561.6659 -67.87     1122.896     1.870     1.322      5.948  0.006059005  20.4242        481
 4.18   0.0000    998.9517   1272.3848 -19.84     982.7741     1.218     1.102      2.330  0.006056265  20.5689        482
 7.25   0.0000   1018.5084   1153.4873 -46.98     212.9831     0.501     0.499      2.433  0.006050096  22.2291        483
 3.50   0.0000    983.9287    556.8679 -77.99     26667.92     1.770     1.759      3.037   0.00604941  16.9850        484
 4.22   0.0000   1029.2257    300.9190  64.57      1763.31     2.473     1.728      5.669   0.00605558  19.9342        485
 6.90   0.0000   1039.6742    465.5609  31.39     284.2956     0.927     0.544      3.017  0.006054895  21.9156        486
 3.50   0.0000   1039.2576    631.4031 -65.45     35323.25     1.819     1.803      3.215  0.006059005  16.6798        487
 3.50   0.0000   1037.7109    523.7790  -3.43     9297.209     1.603     1.576      2.804   0.00605421  18.1291        488
 3.50   0.0000   1024.8910   1378.5540 -85.56     19784.14     1.745     1.667      2.808  0.006051468  17.3092        489
 5.74   0.0000   1036.8663    120.3636 -40.01     695.3169     1.846     0.985      4.106  0.006056265  20.9445        490
 3.50   0.0000   1008.8748    812.1174  58.17        18152     1.683     1.676      2.921  0.006051468  17.4027        491
 5.91   0.1230   1026.8064    605.8148  43.86   0.05342252     0.742     0.565      3.565  0.006052153  31.2307        492
 4.80   0.0000    997.1125    231.6508 -15.38     600.3852     0.975     0.741      3.004  0.006052153  21.1039        493
 4.97   0.0000   1013.6480    451.4493  20.72     395.4304     0.938     0.815      2.979   0.00605832  21.5573        494
 3.50   0.0000   1010.2842    343.0754 -42.16     2740.441     1.402     1.353      2.735  0.006051468  19.4554        495
 3.70   0.0000   1000.5557   1554.0972 -41.17     1274.645     1.202     1.188      2.538  0.006050096  20.2865        496
 6.51   0.0000   1010.0044    266.0302  43.87     439.9032     0.787     0.783      3.141   0.00605558  21.4416        497
