#   1 KRON_RADIUS            Kron apertures in units of A or B                         
#   2 MAGERR_APER            RMS error vector for fixed aperture mag.                   [mag]
#   3 Y_IMAGE                Object position along y                                    [pixel]
#   4 X_IMAGE                Object position along x                                    [pixel]
#   5 THETA_IMAGE            Position angle (CCW/x)                                     [deg]
#   6 FLUX_APER              Flux vector within fixed circular aperture(s)              [count]
#   7 A_IMAGE                Profile RMS along major axis                               [pixel]
#   8 B_IMAGE                Profile RMS along minor axis                               [pixel]
#   9 FLUX_RADIUS            Fraction-of-light radii                                    [pixel]
#  10 FLUXERR_APER           RMS error vector for aperture flux(es)                     [count]
#  11 MAG_APER               Fixed aperture magnitude vector                            [mag]
#  12 NUMBER                 Running object number                                     
 4.48   0.0006     54.1134     63.6375   5.15     146566.1     4.168     3.795     13.047     83.77448  15.1349          1
 4.18   0.0038     17.2518    984.8208 -88.85     24230.31     3.632     1.613      8.512     83.80292  17.0891          2
 3.73   0.0045     18.7921     91.0527 -67.39     20314.75     1.546     1.431      4.296     83.84082  17.2805          3
 3.50   0.0017     15.4424   1445.5559 -62.54     52710.18     1.650     1.566      4.133     83.81239  16.2453          4
 5.77   0.0297     18.1645    384.1515  44.06     3065.252     0.761     0.567      3.513     83.79344  19.3338          5
 4.27   0.0209     25.5739    366.8953 -14.68     4351.422     1.150     0.962      3.810     83.75552  18.9534          6
 3.50   0.0004     60.5962   1078.2424  76.97     238504.7     1.998     1.878      4.458     83.81239  14.6063          7
 7.73   0.0659     43.3143    915.3513 -43.40     1380.634     0.576     0.333      2.435     83.74603  20.1998          8
 3.50   0.0004     80.9674    537.4247 -67.18     229299.1     1.917     1.816      4.628     83.78396  14.6490          9
 3.50   0.0000    182.7543   1107.3114 -33.84      2371044     5.320     4.706      9.903     83.73655  12.1126         10
 4.26   0.0108     76.0034    127.7169  10.01     8459.103     1.188     1.148      4.007     83.78396  18.2317         11
 3.50   0.0003    122.5943    788.9246 -61.36     341495.6     2.004     1.876      4.519     83.83134  14.2165         12
 4.04   0.0072     97.4281     55.9913  22.71     12661.61     1.346     1.270      4.262     83.79344  17.7938         13
 8.23   0.0195     90.8850    376.7019 -20.39     4659.435     0.956     0.688      5.509     83.68911  18.8792         14
 3.50   0.0001    194.4246    317.8832 -61.43      1459520     2.286     2.051      4.752     83.77448  12.6395         15
 3.50   0.0005    163.1353   1468.1381 -62.55     193935.2     1.875     1.794      4.419     83.74603  14.8309         16
 3.50   0.0021    171.1655    877.1136 -49.92     43405.12     1.630     1.557      4.359     83.77448  16.4561         17
 4.79   0.0210    165.7308   1445.5076   4.02     4340.288     0.992     0.930      3.904     83.73655  18.9562         18
 5.69   0.0105    172.4128    325.0309 -77.11     8690.202     1.272     1.156      6.268     83.81239  18.2024         19
 4.93   0.0330    167.6038    104.1795 -53.71     2753.125     1.013     0.798      3.602     83.77448  19.4504         20
 4.76   0.0007    235.9160    403.1274 -54.98     135085.2     4.971     4.426     17.031     83.71758  15.2235         21
 4.98   0.0165    193.4423   1350.3160 -32.41     5508.241     1.126     0.910      4.003       83.765  18.6975         22
 5.44   0.0050    211.5265    827.6342  -7.65        18374     2.457     1.586      9.228       83.765  17.3895         23
 4.12   0.0100    207.4942    548.9372 -80.12     9119.584     1.310     1.143      4.061     83.74603  18.1501         24
 7.25   0.0421    204.4811    250.5076  36.96     2160.034     0.500     0.499      3.002     83.75552  19.7138         25
 6.64   0.0151    209.4116    349.7701  22.88     6029.002     1.196     0.965      5.807     83.81239  18.5994         26
 3.50   0.0099    213.0077   1305.9434 -30.97     9187.594     1.201     1.190      3.615      83.8503  18.1420         27
 8.44   0.0342    211.2228    684.6010 -71.57     2662.062     0.753     0.451      4.009     83.77448  19.4870         28
 5.97   0.0058    230.9360    562.0312  11.84     15716.69     2.312     2.091     10.023     83.79344  17.5591         29
 6.71   0.0065    229.8141    414.8990 -71.47     14005.64     1.710     1.547     10.007     83.75552  17.6842         30
 4.37   0.0087    224.6008   1225.8378 -85.78     10426.26     1.311     1.279      3.998     83.77448  18.0047         31
 4.83   0.0255    223.2310    774.5986 -29.44     3570.128     1.026     0.798      3.577       83.765  19.1683         32
 3.50   0.0002    260.5680    997.2263 -60.60     592443.2     2.037     1.924      4.546     83.78396  13.6184         33
 9.13   0.0197    223.0016    345.4901 -88.29     4610.545     0.803     0.500      4.820     83.74603  18.8906         34
 3.50   0.0002    266.6997     67.3946 -76.33     436719.6     1.982     1.886      4.659       83.765  13.9495         35
 6.52   0.0129    244.6537    112.8341  75.03     7061.931     1.395     1.155      6.638     83.80292  18.4277         36
 5.17   0.0052    256.3477    612.7624 -34.58      17439.2     1.872     1.547      6.791     83.79344  17.4462         37
 7.49   0.0284    251.4937    107.4909 -45.11     3204.424     0.506     0.494      3.033     83.70808  19.2856         38
 8.17   0.0257    252.6854   1372.6636 -43.97     3538.011     0.570     0.337      3.099     83.73655  19.1781         39
 3.50   0.0001    313.2004    439.2152 -61.04      1718802     2.247     2.086      4.899       83.765  12.4619         40
 3.50   0.0009    288.3480   1486.2738 -54.17     103713.9     1.751     1.674      4.288     83.72706  15.5104         41
 3.50   0.0039    282.7493   1522.1841 -61.33     23190.24     1.460     1.360      3.947     83.82187  17.1367         42
 5.11   0.0103    290.6356    514.7411 -36.50     8831.046     1.462     1.311      5.310     83.79344  18.1850         43
 3.50   0.0012    303.9778    201.5832 -66.85     75475.23     1.714     1.615      4.439     83.77448  15.8555         44
 3.50   0.0003    319.4937    905.2718 -62.35     298755.3     1.956     1.848      4.567     83.73655  14.3617         45
 4.02   0.0092    294.7511   1327.3948  47.22      9901.21     1.274     1.263      4.084     83.84082  18.0608         46
 6.28   0.0181    294.3224   1475.1021  11.40      5017.41     0.727     0.658      3.701     83.71758  18.7988         47
 8.31   0.0184    297.8722   1413.8578 -46.31     4930.667     0.853     0.671      5.119     83.74603  18.8177         48
 3.50   0.0001    352.2238    890.5839 -55.85      1570708     2.209     2.073      4.732     83.77448  12.5598         49
 3.50   0.0001    352.2397   1345.7283 -55.48      1490896     2.185     2.061      4.709     83.78396  12.6164         50
 6.53   0.0214    303.0704    563.5995 -17.06     4248.258     1.007     0.742      4.363     83.82187  18.9795         51
 3.50   0.0018    322.8800    697.1052 -48.65     50280.41     1.600     1.557      4.269     83.71758  16.2965         52
 7.23   0.0223    322.3919    640.9913 -72.88     4076.029     1.533     0.349      3.785     83.74603  19.0244         53
 4.85   0.0096    328.2270    595.3594  12.77     9512.947     1.342     1.284      5.208     83.82187  18.1042         54
 3.88   0.0026    347.1299    866.8550 -43.34     34763.42     1.633     1.498      4.513     83.74603  16.6972         55
 6.55   0.0435    332.9962     93.4646 -88.40     2092.188     0.778     0.498      3.525     83.83134  19.7485         56
 5.92   0.0413    336.1976   1440.3890  71.88     2203.249     0.728     0.454      3.509     83.75552  19.6923         57
 3.94   0.0033    356.6004    431.5988 -75.33     27921.27     1.788     1.580      5.018     83.80292  16.9352         58
 4.14   0.0186    350.8954     54.4239  75.90     4883.462     1.126     0.959      3.817       83.765  18.8282         59
 3.50   0.0018    368.9802    760.8908 -58.40     51854.59     1.598     1.559      4.233       83.765  16.2630         60
 3.76   0.0046    368.2882    442.6587 -56.28     19730.43     1.435     1.336      4.189     83.73655  17.3122         61
 3.62   0.0096    362.0505   1500.2076 -24.28     9437.766     1.284     1.149      3.634     83.82187  18.1128         62
 5.05   0.0374    361.3106   1033.9282 -13.90      2429.27     0.739     0.661      3.155     83.73655  19.5863         63
 3.50   0.0004    396.0200    231.2718 -61.09     253698.1     1.874     1.819      4.610     83.83134  14.5392         64
 5.48   0.0301    373.7695    992.0414 -88.68     3024.146     0.894     0.751      3.839     83.82187  19.3485         65
 3.50   0.0025    397.8937   1461.0099 -39.50     36391.33     1.563     1.472      4.095       83.765  16.6475         66
 3.50   0.0022    399.0078    354.3785 -71.51     41183.47     1.585     1.493      4.253     83.77448  16.5132         67
 3.66   0.0105    394.5766   1088.5724 -29.99     8679.343     1.284     1.233      3.868     83.79344  18.2038         68
 3.50   0.0008    416.4507    837.1747 -64.92     112020.9     1.798     1.680      4.411     83.83134  15.4268         69
 3.50   0.0004    420.3988    433.1456 -58.39     231990.1     1.886     1.783      4.537     83.84082  14.6363         70
 3.75   0.0045    425.0381    926.1504 -47.65     20115.59     1.483     1.353      4.110     83.79344  17.2912         71
 3.50   0.0011    438.7664    251.9352 -45.10      82598.8     1.713     1.632      4.422     83.78396  15.7576         72
 6.61   0.0190    421.7399    158.5126  -7.53     4780.392     1.013     0.987      5.285     83.73655  18.8513         73
 3.50   0.0001    461.8574    807.3825 -54.53     719188.7     2.057     1.941      4.488     83.79344  13.4079         74
 3.76   0.0136    433.8073   1421.8584  31.89     6680.708     1.177     1.104      3.744     83.84082  18.4879         75
 8.40   0.0327    427.5076   1179.4756  48.21     2784.196     0.502     0.497      3.012     83.72706  19.4382         76
 6.16   0.0348    434.9740    150.9762  35.97     2612.782     0.787     0.769      4.007     83.80292  19.5072         77
 4.40   0.0328    440.6718    305.3953 -46.54     2771.784     0.991     0.875      3.568     83.82187  19.4431         78
 3.73   0.0035    451.1180     21.1858 -35.06     26254.82     1.529     1.416      4.360     83.80292  17.0020         79
 5.41   0.0042    468.5997    850.2263  23.11     21508.51     5.828     1.566     16.438       83.765  17.2185         80
 6.23   0.0215    446.1815    121.9023 -14.29     4221.721     1.080     0.836      4.812       83.765  18.9863         81
 3.57   0.0031    458.6487     34.3971 -57.41     29487.52     1.520     1.448      4.262     83.84082  16.8759         82
 8.14   0.0203    448.2517    883.8757  -7.80     4472.416     1.041     0.643      5.748     83.72706  18.9236         83
 3.80   0.0098    464.5070    468.4641 -52.99     9310.095     1.324     1.266      4.115     83.75552  18.1276         84
 5.86   0.0288    461.8690   1096.1428  45.45     3156.698     0.823     0.671      4.002     83.74603  19.3019         85
 3.98   0.0078    472.9391    734.7498 -68.45     11671.53     1.361     1.217      4.188       83.765  17.8822         86
 4.43   0.0109    472.1027    253.9982 -64.88     8350.876     1.241     1.108      4.148       83.765  18.2457         87
 3.50   0.0060    478.7898    922.8477 -20.02     15130.74     1.403     1.353      3.996     83.82187  17.6003         88
 4.07   0.0157    478.8117   1276.7957 -50.21     5784.002     1.136     1.024      3.713     83.74603  18.6444         89
 3.50   0.0143    485.0125   1070.3956 -46.82     6347.058     1.195     1.127      3.692     83.74603  18.5436         90
 5.91   0.0085    496.9854     82.8541  55.90     10761.46     1.818     1.496      7.633     83.82187  17.9703         91
 5.91   0.0085    496.5325   1187.0388 -13.62     10696.01     2.128     1.330      7.854     83.78396  17.9769         92
 3.50   0.0015    513.2896   1302.2393 -42.36     61753.01     1.658     1.592      4.428     83.74603  16.0734         93
 4.84   0.0012    533.8892    518.5785  30.84     74982.55     3.346     2.728     11.376     83.77448  15.8626         94
 6.60   0.0141    505.0350    762.6558 -88.65     6465.577     1.252     1.016      5.972     83.79344  18.5235         95
 4.63   0.0226    502.7391    863.4894 -40.17     4031.496     0.963     0.954      3.654     83.74603  19.0363         96
 6.18   0.0555    499.0000    365.9927   0.00     1639.822     0.843     0.289      2.113     83.74603  20.0130         97
 5.71   0.0069    516.2209   1461.1857  26.90     13222.68     2.828     1.249      9.670       83.765  17.7467         98
 5.94   0.0299    502.4906   1309.9664  -3.30     3045.983     0.785     0.499      3.246     83.75552  19.3407         99
 4.97   0.0149    514.1891   1310.0686  12.56     6100.428     1.453     1.166      4.039     83.83134  18.5866        100
 7.49   0.0240    510.6530    165.5925   6.25     3800.112     1.008     0.636      5.786      83.8503  19.1005        101
 4.21   0.0230    514.4960   1179.0830 -43.70     3951.916     1.130     0.881      3.508     83.69859  19.0580        102
 6.59   0.0311    520.1537    641.3141 -60.97     2922.905     0.857     0.594      4.033       83.765  19.3855        103
 4.14   0.0101    541.0002    999.6945 -62.31       9049.3     1.250     1.160      4.040       83.765  18.1585        104
 3.50   0.0001    588.6879   1315.8539 -55.49      1604604     2.187     2.068      4.714     83.73655  12.5366        105
 3.68   0.0074    559.7887   1041.5302 -54.92     12360.02     1.373     1.305      4.062     83.82187  17.8200        106
 3.60   0.0025    573.4073   1242.7402 -36.74     36840.54     1.543     1.528      4.236     83.84082  16.6342        107
 3.50   0.0018    581.4571    144.8192 -63.56     49550.96     1.639     1.537      4.347     83.79344  16.3124        108
 5.40   0.0109    571.8488     45.7987  65.71     8372.691     1.497     1.163      5.714     83.84082  18.2428        109
 7.49   0.0391    565.9841    139.5040 -87.66     2329.646     0.791     0.499      4.267     83.77448  19.6318        110
 5.53   0.0106    572.0419   1447.5493  18.02     8593.853     1.733     1.229      6.583     83.80292  18.2145        111
 3.50   0.0018    583.0026    319.0012 -42.00     49489.56     1.607     1.563      4.380     83.80292  16.3137        112
 3.50   0.0000    631.9539    483.1635 -57.26      2477026     2.648     2.496      5.259     83.81239  12.0652        113
 5.70   0.0130    575.7169   1336.6877 -52.10     7018.628     1.150     1.091      5.189     83.72706  18.4344        114
 5.48   0.0039    597.8709    782.6802 -74.06     23045.22     2.429     2.215      9.939     83.73655  17.1435        115
 8.26   0.0299    577.3349   1001.3214 -45.62     3039.986     0.573     0.336      3.138     83.72706  19.3428        116
 5.50   0.0269    585.4738     75.7457 -67.57     3376.439     0.965     0.954      4.150     83.74603  19.2289        117
 5.11   0.0204   1000.6995   1273.7892 -23.88     4448.609     1.129     1.019      4.145     83.74603  18.9294        118
 6.74   0.0152   1598.4836    654.9836 -35.24     4900.757     1.182     0.755      4.932      68.5485  18.8243        119
 6.67   0.0277   1595.9614    374.0274  41.76     3044.363     0.803     0.781      4.680      77.7661  19.3413        120
 4.97   0.0103   1030.9441    302.6436  65.88     8806.694     1.852     1.356      6.568     83.77448  18.1880        121
 3.50   0.0006    985.6684    558.4529 -53.00     150087.5     1.772     1.703      4.457     83.74603  15.1091        122
 5.84   0.0135    987.3660    453.8745 -69.95     6726.551     1.342     1.151      5.795       83.765  18.4805        123
 5.99   0.0172    981.6799    797.8624 -17.31     5294.769     1.182     0.957      5.134     83.72706  18.7404        124
 6.62   0.0187    979.0314    452.5188  89.17      4859.07     0.783     0.500      4.272     83.77448  18.8336        125
 6.68   0.0384    965.8215    416.1882 -42.86     2366.519     0.760     0.564      3.663     83.77448  19.6147        126
 7.04   0.0226    952.0219    654.1979   4.29     4033.734     0.935     0.751      5.044     83.78396  19.0357        127
 6.46   0.0433    948.6243    445.2148 -17.64      2103.51     0.743     0.450      3.151     83.77448  19.7426        128
 4.52   0.0094    939.9567   1066.9950 -68.97     9686.926     1.243     1.183      4.130     83.81239  18.0845        129
 7.30   0.0252    939.0000    516.0090   0.00     3606.482     0.850     0.289      2.937     83.74603  19.1573        130
 3.50   0.0012    930.5116   1178.4536 -45.18     77211.42     1.683     1.645      4.382     83.73655  15.8308        131
 4.77   0.0157    929.1415   1322.3268  77.80     5808.419     1.175     1.037      4.253     83.74603  18.6399        132
 5.03   0.0221    913.6597    838.4653 -71.80     4108.033     1.086     0.994      4.054     83.75552  19.0159        133
 6.17   0.0351    913.1230   1000.8743  43.79     2587.968     0.820     0.671      3.951     83.73655  19.5176        134
 8.68   0.0394    905.6592   1315.3329  45.32     2308.134     0.580     0.332      3.482     83.75552  19.6418        135
 3.50   0.0028    901.2381    302.7928 -69.84     32763.66     1.533     1.467      4.281     83.79344  16.7615        136
 3.50   0.0000    882.8272    183.6641 -39.56      2473956     3.801     3.437      6.735     83.79344  12.0665        137
 5.65   0.0123    897.0488    538.2656   9.28     7379.633     1.371     1.213      5.636       83.765  18.3799        138
 7.63   0.0447    894.9872   1425.7455 -89.31     2037.828     0.680     0.436      3.722     83.82187  19.7771        139
 4.91   0.0043    880.3037    224.4290  89.77     20990.34     6.075     1.576     14.101     83.73655  17.2450        140
 7.12   0.0209    889.8623    325.2966  21.97     4358.808     0.959     0.675      5.100     83.72706  18.9516        141
 3.50   0.0002    881.0632   1592.5182 -59.42     578077.8     1.984     1.890      4.508     83.72706  13.6450        142
 4.97   0.0205    886.4539   1500.2401 -30.10      4435.91     1.097     0.931      3.869     83.77448  18.9325        143
 7.16   0.0227    886.5475   1304.7545  58.27     4010.697     1.054     0.816      5.649     83.78396  19.0420        144
 6.70   0.0150    878.9013   1177.0784  56.73     6063.542     1.248     1.121      6.410     83.71758  18.5932        145
 5.94   0.0349    878.3253    960.7850 -76.58     2611.444     0.962     0.858      4.043      83.8503  19.5078        146
 4.98   0.0067    870.2983   1103.6595 -66.59     13647.12     1.675     1.512      5.699     83.71758  17.7124        147
 3.50   0.0001    860.0699   1224.5084 -53.73      1481777     2.187     2.076      4.688     83.73655  12.6230        148
 6.06   0.0179    868.7755    939.6843  20.35     5075.082     1.410     1.024      5.930     83.78396  18.7864        149
 6.07   0.0204    860.3856   1157.3900 -40.75     4461.903     1.043     0.950      4.428     83.74603  18.9262        150
 6.11   0.0236    859.2457   1339.6561 -65.63     3849.689     1.116     0.876      4.668     83.77448  19.0864        151
 7.31   0.0170    845.3869   1206.3982 -18.93     5344.615     0.968     0.807      5.695       83.765  18.7302        152
 6.09   0.0330    845.9082   1063.6815 -35.52     2755.842     0.984     0.825      4.193     83.75552  19.4494        153
 5.87   0.0152    844.0679   1106.0122  39.78     6006.251     1.318     1.119      5.188     83.83134  18.6035        154
 6.09   0.0090    838.6267   1246.9838 -31.10     10155.77     1.658     1.264      7.036     83.79344  18.0332        155
 3.71   0.0122    837.4371    298.7768 -36.90     7443.301     1.200     1.045      3.717     83.79344  18.3706        156
 6.20   0.0488    836.5046    818.9788   0.87     1862.233     0.783     0.500      3.306       83.765  19.8749        157
 3.59   0.0027    823.7392    654.3417 -45.81     33531.68     1.572     1.460      4.229     83.74603  16.7364        158
 3.50   0.0030    803.8616   1378.5885 -31.65     30793.55     1.567     1.472      4.113     83.83134  16.8288        159
 3.50   0.0010    799.2980    695.5693 -87.07      87566.8     2.425     1.661      5.790     83.71758  15.6942        160
 3.78   0.0064    801.5427     41.1259 -38.83     14287.57     1.372     1.236      4.094     83.74603  17.6626        161
 4.87   0.0071    775.0469   1427.3523  86.49     12824.88     2.119     1.431      7.363     83.82187  17.7799        162
 3.60   0.0132    767.6336    391.7465 -80.70     6900.031     1.255     1.084      3.810     83.81239  18.4529        163
 4.58   0.0117    743.5869    556.2189 -66.70       7772.6     1.209     1.118      4.215       83.765  18.3236        164
 6.32   0.0293    739.0012   1157.8258  -3.27     3106.443     0.894     0.758      4.025     83.77448  19.3193        165
 5.82   0.0290    736.8511    649.5665 -14.51     3139.752     0.994     0.869      4.137     83.81239  19.3078        166
 3.50   0.0000    724.9310    404.7141 -49.70      1930168     2.279     2.107      4.843     83.71758  12.3360        167
 3.50   0.0003    727.4244    848.3069 -60.26     344102.2     1.991     1.881      4.616     83.75552  14.2083        168
 4.68   0.0161    728.2408   1178.1235 -64.92     5662.764     1.183     1.099      4.101       83.765  18.6674        169
 6.22   0.0405    721.8533   1394.8275  45.76     2248.344     0.759     0.569      3.690     83.81239  19.6703        170
 4.40   0.0128    716.7385    808.1855 -51.40     7083.051     1.254     1.118      4.128     83.78396  18.4244        171
 5.04   0.0127    709.7180   1163.7717 -42.30     7143.809     1.222     1.181      4.290     83.78396  18.4152        172
 5.04   0.0108    705.0179   1339.0034 -66.79     8454.958     1.504     1.217      5.468     83.75552  18.2322        173
 4.16   0.0071    703.4415    952.3286  85.07     12900.23     1.358     1.313      4.209     83.77448  17.7735        174
 8.00   0.0274    699.6871    582.8306 -12.46     3319.736     1.081     0.410      4.151     83.77448  19.2472        175
 6.81   0.0219    692.6078   1213.5952  68.56     4151.781     0.928     0.897      5.450       83.765  19.0044        176
 6.59   0.0177    687.8055   1213.6978 -69.86     5134.078     1.138     0.653      4.863     83.75552  18.7738        177
 4.17   0.0086    686.4279    644.1636 -58.42     10572.15     1.287     1.228      4.208     83.80292  17.9896        178
 8.11   0.0094    684.0463    472.1976  68.79     9640.146     1.608     1.284      9.649     83.83134  18.0898        179
 5.89   0.0095    682.3682    543.4629 -64.24     9579.957     1.527     1.238      6.720     83.78396  18.0966        180
 4.90   0.0271    655.3740    870.8969  65.73     3356.412     0.872     0.695      3.566     83.74603  19.2353        181
 3.50   0.0003    649.1219   1464.3120 -56.93     339097.9     1.922     1.832      4.486     83.70808  14.2242        182
 5.39   0.0490    647.0031    652.7579  89.84      1855.74     0.672     0.428      2.969     83.80292  19.8787        183
 3.83   0.0010   1553.5547    682.1770 -28.59      88211.3     4.005     3.353     10.679     83.80292  15.6862        184
 3.50   0.0017    640.5757    536.7169 -51.86     53138.61     1.630     1.566      4.309     83.78396  16.2365        185
 5.20   0.0265    631.6423    805.9069  78.63     3430.754     0.971     0.747      3.846     83.69859  19.2115        186
 4.43   0.0158    624.2548   1581.2894 -38.12     5748.076     1.097     0.970      3.642     83.73655  18.6512        187
 7.44   0.0319    618.6962   1150.6582 -43.15     2854.441     0.568     0.338      2.945     83.71758  19.4112        188
 4.61   0.0153    606.2943    586.1494 -46.53      5960.02     1.159     1.006      3.918     83.71758  18.6119        189
 3.87   0.0051   1542.7234    135.0943 -43.48     17694.18     1.418     1.362      4.429     83.72706  17.4304        190
 3.63   0.0071   1543.4998    654.6281 -41.70     12878.17     1.341     1.250      4.123     83.72706  17.7754        191
 3.50   0.0170   1562.1459    861.5939  54.85     5346.147     1.093     1.006      3.488     83.85976  18.7299        192
 5.88   0.0166   1060.7449    726.9616   2.25     5495.623     1.204     1.069      5.444     83.79344  18.7000        193
 3.50   0.0003   1564.5687    304.2829 -41.02     298687.5     1.866     1.791      4.723     83.77448  14.3620        194
 4.47   0.0177   1546.9893    863.4899  89.23     5129.512     1.146     0.950      4.166       83.765  18.7748        195
 4.61   0.0131   1585.7867   1108.7452 -49.89     6970.995     1.130     1.070      4.133     83.81239  18.4418        196
 3.50   0.0003   1558.8730    487.7052 -41.98     296708.8     1.858     1.786      4.644     83.73655  14.3692        197
 5.22   0.0124   1566.8202    784.5922 -81.87     7310.447     1.331     1.063      5.321       83.765  18.3901        198
 4.35   0.0083   1567.4860     22.0818 -36.28     10915.02     1.403     1.204      4.466     83.72706  17.9549        199
 3.99   0.0108   1571.3545     92.6652 -77.23     8445.584     1.279     1.204      4.166     83.77448  18.2334        200
 5.56   0.0387   1551.8256   1221.8483 -44.57     2351.336     0.806     0.675      3.611     83.83134  19.6217        201
 9.25   0.0351   1532.6860    415.6718 -44.29     2589.611     0.567     0.339      3.400     83.70808  19.5169        202
 4.91   0.0222   1504.8041    723.4289  -9.40     4100.592     0.990     0.921      4.039     83.78396  19.0179        203
 3.50   0.0006   1508.0364    269.3850 -53.27     161931.6     1.766     1.690      4.558     83.81239  15.0267        204
 5.99   0.0398   1066.4935   1597.0056   0.04     2022.291     0.778     0.500      3.293     74.19088  19.7854        205
 3.50   0.0005   1080.7572    512.1439 -52.62     168076.9     1.763     1.707      4.488     83.77448  14.9862        206
 6.93   0.0406   1515.2277    483.8026 -43.92     2242.575     0.757     0.562      3.783     83.77448  19.6731        207
 8.20   0.0639   1520.1885     84.4018  71.46     1423.356     0.768     0.448      4.508       83.765  20.1667        208
 3.56   0.0023   1515.7189    392.7199 -52.91     39744.53     1.564     1.513      4.336     83.73655  16.5518        209
 7.42   0.0330   1084.4899     42.9825   0.45     2756.872     0.789     0.500      4.236     83.77448  19.4490        210
 5.27   0.0339   1080.0181    330.0148 -51.63     2684.215     0.792     0.768      3.572     83.78396  19.4780        211
 6.65   0.0275   1064.0062      7.2822  89.36     3275.397     0.732     0.681      4.167      83.0508  19.2618        212
 8.02   0.0227   1091.2765    468.4171 -81.35     4018.705     1.030     0.474      4.773     83.82187  19.0398        213
 3.50   0.0019   1082.6000   1148.1802 -54.73     49005.17     1.626     1.567      4.236     83.78396  16.3244        214
 5.49   0.0282   1074.0872      6.6361 -18.53     3154.043     1.002     0.731      3.882      81.8369  19.3028        215
 3.50   0.0006   1095.7400    778.1583 -51.72     152606.7     1.804     1.704      4.588     83.78396  15.0911        216
 3.50   0.0017   1105.2926    751.8443 -44.25     54056.02     1.646     1.529      4.346     83.71758  16.2179        217
 9.40   0.0200   1105.5251    678.5211 -42.64     4538.636     0.501     0.498      3.004     83.75552  18.9077        218
 7.14   0.0127   1111.6593    479.1340  -2.36     7142.775     1.539     0.952      7.309     83.73655  18.4153        219
 5.57   0.0334   1407.1957    329.7682  43.72      2724.59     0.900     0.848      4.263     83.80292  19.4617        220
 3.57   0.0026   1108.2091    427.9680 -42.66     35125.01     1.584     1.498      4.352     83.78396  16.6860        221
 7.39   0.0398   1433.0000    340.9669   0.00     2288.395     0.850     0.289      3.137       83.765  19.6512        222
 5.52   0.0082   1120.8257    329.6738  62.77     11071.53     1.877     1.353      6.914     83.79344  17.9395        223
 6.89   0.0263   1114.8954    674.3411 -14.10     3451.328     0.992     0.748      5.041     83.72706  19.2050        224
 3.50   0.0000   1367.0531   1159.7738 -44.74      2957586     3.165     2.934      5.299     83.82187  11.8727        225
 6.27   0.0404   1439.3125   1271.0223   0.53     2254.723     0.729     0.682      3.746     83.78396  19.6673        226
 5.92   0.0026   1360.3600   1135.1073  68.94     35600.78     5.566     4.135     23.760     83.69859  16.6714        227
 4.23   0.0070   1391.3807    713.3365 -25.20     12961.61     1.296     1.259      4.269     83.80292  17.7684        228
 3.50   0.0010   1420.1736   1126.3650 -62.65     92561.72     1.840     1.658      4.635     83.80292  15.6339        229
 3.50   0.0069   1440.6804    619.1695  -2.51      13180.9     1.353     1.233      3.997     83.77448  17.7501        230
 3.70   0.0071   1409.0814    308.3490 -30.10     12853.81     1.390     1.300      4.216     83.73655  17.7774        231
 3.50   0.0001   1435.2297   1090.4370 -52.54     727905.9     2.005     1.910      4.587     83.78396  13.3948        232
 3.78   0.0051   1436.1256    224.7913 -44.19     17873.19     1.449     1.325      4.296     83.81239  17.4195        233
 4.63   0.0107   1416.2798   1386.6040  -8.27     8468.105     1.264     1.188      4.258     83.80292  18.2305        234
 3.50   0.0002   1394.2532    114.4830 -42.04     405081.3     1.923     1.822      4.756     83.72706  14.0311        235
 5.97   0.0257   1412.3298    350.1026  28.72     3536.144     0.926     0.840      4.724     83.74603  19.1787        236
 5.51   0.0198   1401.4933   1031.4747  45.37     4587.141     1.098     0.860      4.589     83.72706  18.8961        237
 3.77   0.0024   1389.6044   1428.5172 -23.66     38104.79     1.567     1.485      4.265     83.78396  16.5975        238
 5.55   0.0259   1130.0150    547.4307  -4.09     3513.898     1.011     0.784      4.187     83.81239  19.1855        239
 6.76   0.0480   1389.5151    806.5027 -43.20     1892.894     0.502     0.498      3.010     83.68911  19.8572        240
 3.79   0.0101   1393.1326   1038.7178 -23.59     9042.369     1.230     1.179      3.861     83.73655  18.1593        241
 3.56   0.0020   1373.4583   1018.8973 -16.71     44570.39     1.597     1.522      4.358     83.71758  16.4274        242
 6.09   0.0185   1154.5359   1353.0892 -36.47     4921.445     1.154     1.060      5.398     83.74603  18.8198        243
 4.93   0.0126   1152.1134     99.3618  11.04     7194.465     1.255     1.106      4.563     83.77448  18.4075        244
 3.50   0.0011   1130.7471    183.5740 -50.02      82500.4     1.683     1.612      4.475     83.82187  15.7589        245
 3.50   0.0001   1299.2574    724.8826 -50.74     954529.2     2.051     1.934      4.769     83.74603  13.1005        246
 4.10   0.0060   1308.3727    669.6420 -20.29      15101.5     1.375     1.295      4.406     83.82187  17.6024        247
 5.43   0.0290   1130.9506    219.3301 -19.16     3130.424     1.025     0.747      3.868     83.73655  19.3110        248
 6.86   0.0153   1331.2412   1139.4500 -21.83     5952.333     1.264     1.157      6.907     83.80292  18.6133        249
 5.90   0.0356   1331.0811    386.8084   2.51     2557.181     0.911     0.748      4.088     83.77448  19.5306        250
 5.48   0.0203   1333.5493    107.4753 -39.90     4482.522     1.033     0.983      4.276     83.72706  18.9212        251
 3.50   0.0006   1320.9171    659.9872 -58.06     153715.7     1.797     1.696      4.600     83.79344  15.0832        252
 4.37   0.0052   1330.7756    655.8713 -55.06     17629.61     1.576     1.447      4.791     83.80292  17.4344        253
 8.15   0.0582   1182.4060    176.2184  18.50     1562.603     0.760     0.451      4.070       83.765  20.0654        254
 3.58   0.0026   1292.2377    762.0358 -22.11     35676.04     1.917     1.501      4.726     83.84082  16.6691        255
 5.49   0.0069   1308.5463   1036.2263 -40.27     13263.86     2.129     1.533      7.201     83.82187  17.7433        256
 5.88   0.0135   1260.2944    432.6155  62.72     6757.105     1.508     1.308      6.566     83.77448  18.4756        257
 6.15   0.0289   1320.0809    264.0743 -45.06     3142.965     1.039     0.742      4.105     83.72706  19.3067        258
 4.18   0.0016   1273.5790    610.0105 -57.57     55355.22     3.482     2.190      8.985       83.765  16.1921        259
 5.34   0.0119   1294.4099    742.2711  79.94     7643.964     1.254     1.076      5.107     83.83134  18.3417        260
 5.46   0.0225   1305.5432    892.7346  80.28     4039.212     0.968     0.936      4.129       83.765  19.0343        261
 4.47   0.0201   1293.7827    412.7381 -27.82     4528.426     1.048     1.024      4.020     83.78396  18.9101        262
 7.48   0.0549   1300.3140     53.6728  44.34     1654.762     0.566     0.339      3.397     83.71758  20.0032        263
 3.66   0.0054   1266.2446    807.8480 -52.36      16831.5     1.423     1.348      4.080     83.80292  17.4847        264
 4.11   0.0042   1278.9448   1331.4224  -5.75      21761.3     1.453     1.384      4.393     83.81239  17.2058        265
 4.04   0.0065   1235.1608    304.8517 -33.72     13895.15     1.387     1.347      4.363     83.79344  17.6928        266
 4.72   0.0106   1238.0076   1553.4736  -2.23     8599.876     1.273     1.137      4.310     83.81239  18.2138        267
 6.80   0.0190   1230.5109    599.4536  46.46      4784.94     1.141     0.859      5.947     83.72706  18.8503        268
 3.50   0.0000   1222.2365    995.1906 -28.81      2647359     5.814     4.848     10.749     83.79344  11.9930        269
 5.60   0.0431   1262.9789    855.0262   0.79      2108.97     0.627     0.595      3.195     83.78396  19.7398        270
 7.74   0.0410   1238.4921     48.0088   1.15     2218.226     0.791     0.500      3.818       83.765  19.6850        271
 4.86   0.0032   1173.4719    758.0511 -67.81     28752.19     3.111     2.780     10.078     83.72706  16.9033        272
 3.87   0.0018   1219.6803   1194.9224 -40.36     49223.11     1.666     1.553      4.632     83.75552  16.3196        273
 4.72   0.0193   1243.3199    672.5645 -88.30     4713.232     1.161     0.982      4.086       83.765  18.8667        274
 4.38   0.0019   1211.4198   1278.8792  87.30      47254.7     5.068     3.031     12.180     83.80292  16.3639        275
 8.00   0.0345   1183.5067    673.4812 -47.27     2637.094     0.502     0.498      3.010     83.73655  19.4972        276
 6.40   0.0413   1229.3041   1153.9636  -4.11     2199.162     0.737     0.670      3.778     83.70808  19.6944        277
 4.78   0.0305   1181.9341    549.0421 -45.62     2979.774     0.806     0.764      3.467     83.77448  19.3645        278
 5.73   0.0163   1201.9554   1442.0054 -84.11     5590.026     1.217     1.154      5.234     83.82187  18.6815        279
 5.91   0.0105   1203.9260   1075.5579  45.10     8662.832     1.479     1.293      6.290       83.765  18.2058        280
 3.50   0.0012   1215.4259    513.0239 -37.52     74880.96     1.654     1.586      4.419     83.80292  15.8641        281
 7.22   0.0119   1213.3268   1429.7927 -24.55      7671.07     1.465     1.209      7.741     83.82187  18.3379        282
 4.21   0.0110   1202.6418    339.0746  77.11     8273.633     1.268     1.209      4.323       83.765  18.2558        283
 7.30   0.0171   1066.0326   1562.9829 -76.11      5336.19     1.307     0.727      6.166     83.80292  18.7319        284
 3.86   0.0104   1208.4716    838.8924 -80.42     8733.429     1.259     1.153      3.975     83.72706  18.1970        285
 6.01   0.0100   1195.8903    124.2704 -84.05     9117.813     1.597     1.374      7.042     83.72706  18.1503        286
 7.95   0.0437   1134.5172    607.4781 -45.70       2081.7     0.503     0.496      3.020     83.73655  19.7540        287
 7.02   0.0260   1162.6606    887.9097 -67.27     3500.683     0.931     0.697      4.453     83.74603  19.1896        288
 3.50   0.0004   1165.9778   1299.8185 -65.27     254626.4     1.848     1.801      4.513     83.79344  14.5352        289
 3.50   0.0006   1139.3281    148.1158 -40.99     158189.8     1.797     1.710      4.607     83.71758  15.0521        290
 3.67   0.0031   1158.6926    236.4519 -38.21     29337.03     1.536     1.437      4.362     83.73655  16.8815        291
 3.50   0.0000   1152.4358    693.8477 -42.55      3017536     3.254     3.035      5.488     83.80292  11.8509        292
 6.93   0.0556   1095.0680   1136.4851 -87.59      1634.47     0.786     0.499      3.410     83.73655  20.0166        293
 5.52   0.0201   1096.1521   1526.4434 -72.13     4538.639     1.142     0.940      4.010     83.80292  18.9077        294
 3.58   0.0057   1090.0726    642.4016 -41.99     15956.59     1.429     1.299      4.018     83.82187  17.5426        295
 3.50   0.0021   1039.4980    525.3729 -50.61     43974.39     1.569     1.505      4.227     83.73655  16.4420        296
 5.84   0.0091   1072.7308   1219.1278 -71.47     9971.642     1.521     1.315      6.595     83.70808  18.0531        297
 3.50   0.0000   1024.3788     50.2018 -46.86      2215919     2.202     2.067      4.811     83.77448  12.1861        298
 3.50   0.0011   1010.6035    813.6436 -46.35     84544.97     1.685     1.634      4.353     83.80292  15.7323        299
 3.50   0.0004   1041.0494    633.0492 -48.72     215879.4     1.824     1.752      4.564     83.82187  14.7145        300
 3.50   0.0009   1026.5879   1379.9607 -52.83      98551.8     1.752     1.684      4.308     83.80292  15.5658        301
 3.55   0.0070   1011.9902    344.6391 -63.24     12963.11     1.356     1.213      3.882     83.79344  17.7682        302
 4.13   0.0158   1002.4109   1555.3337 -77.98     5773.386     1.188     1.018      3.836     83.82187  18.6464        303
 4.01   0.0064   1002.5194    542.4577 -52.56     14146.37     1.346     1.273      4.106     83.74603  17.6734        304
