#   1 KRON_RADIUS            Kron apertures in units of A or B                         
#   2 MAGERR_APER            RMS error vector for fixed aperture mag.                   [mag]
#   3 Y_IMAGE                Object position along y                                    [pixel]
#   4 X_IMAGE                Object position along x                                    [pixel]
#   5 THETA_IMAGE            Position angle (CCW/x)                                     [deg]
#   6 FLUX_APER              Flux vector within fixed circular aperture(s)              [count]
#   7 A_IMAGE                Profile RMS along major axis                               [pixel]
#   8 B_IMAGE                Profile RMS along minor axis                               [pixel]
#   9 FLUX_RADIUS            Fraction-of-light radii                                    [pixel]
#  10 FLUXERR_APER           RMS error vector for aperture flux(es)                     [count]
#  11 MAG_APER               Fixed aperture magnitude vector                            [mag]
#  12 NUMBER                 Running object number                                     
 5.69   0.0169     16.5823    984.9381 -86.94     4976.166     2.491     1.473      8.489     77.63045  18.8078          1
 4.65   0.0211     17.7012     91.2437  62.60     3989.831     1.522     1.468      4.352     77.55135  19.0476          2
 3.89   0.0083     14.6993   1445.5360 -50.08     10154.97     1.774     1.715      3.954     77.59531  18.0333          3
 4.92   0.0028     53.0452     63.6400   7.51     29636.61     3.684     3.374     12.758     77.63923  16.8704          4
 3.50   0.0018     59.8229   1078.2557  68.73     48103.04     2.259     2.194      4.440     77.65679  16.3446          5
 3.50   0.0018     80.1066    537.4939  13.25     45753.67     2.197     2.153      4.275     77.54256  16.3989          6
 3.50   0.0002    182.1367   1107.2065 -19.35     508635.7     4.434     4.162      9.092     77.67435  13.7840          7
 7.03   0.0516     74.8750    127.7219  14.01     1631.946     1.032     0.750      3.540     77.60409  20.0182          8
 6.00   0.0343     96.3360     55.9325 -15.25      2452.87     1.233     1.071      4.130     77.57773  19.5758          9
 3.50   0.0012    121.7236    788.9908 -22.68     67885.83     2.307     2.266      4.381     77.66557  15.9706         10
 3.50   0.0022    162.3457   1468.0594 -22.19     38408.49     2.184     2.099      4.260     77.61288  16.5889         11
 3.50   0.0003    193.4410    317.9619 -18.77     291070.6     2.614     2.557      4.478     77.65679  14.3900         12
 3.73   0.0096    170.3082    877.2081 -16.24     8761.845     1.853     1.720      4.146     77.61288  18.1935         13
 8.43   0.0614    170.5123    325.5009 -43.32     1372.165     0.501     0.499      3.007     77.55135  20.2065         14
 5.39   0.0031    234.7470    403.5798 -33.70      27208.6     4.602     3.412     16.316     77.64801  16.9632         15
 8.52   0.0787    192.3390   1350.3169 -46.02      1071.16     0.573     0.336      3.134     77.58652  20.4754         16
 7.62   0.0230    210.6147    827.2098 -11.67     3661.046     1.692     1.270      9.011     77.59531  19.1410         17
 6.46   0.0482    206.3976    548.9096 -11.00     1747.909     1.162     0.913      4.238     77.59531  19.9437         18
 5.54   0.0529    212.3253   1305.9001  15.99     1593.186     1.207     0.956      3.223     77.53377  20.0443         19
 5.45   0.0379    223.7165   1225.4967 -32.80     2221.166     1.133     1.061      3.830     77.54256  19.6835         20
 3.50   0.0008    259.5990    997.2290 -20.35     102987.5     2.457     2.395      4.439     77.59531  15.5180         21
 9.37   0.0266    230.0000    561.9872   0.00     3163.865     0.857     0.289      3.852     77.63045  19.2995         22
 3.50   0.0010    265.5631     67.4617  12.68     86868.53     2.379     2.335      4.395     77.63045  15.7028         23
 6.10   0.0244    255.1530    612.7513 -35.09     3463.057     1.715     1.351      6.890     77.65679  19.2013         24
 8.83   0.0585    243.3442    112.6688  45.53     1439.673     0.581     0.331      3.486     77.59531  20.1543         25
 3.50   0.0002    312.1686    439.1684 -15.50     355850.9     2.705     2.607      4.517     77.64801  14.1718         26
 3.72   0.0041    287.4911   1486.1422  -1.82      20347.9     2.021     1.975      4.155     77.57773  17.2787         27
 4.40   0.0196    281.8382   1522.0143  18.69     4293.576     1.568     1.414      3.694     77.65679  18.9680         28
 3.89   0.0056    302.8144    201.5877   6.89     15027.97     1.944     1.891      4.314     77.62167  17.6077         29
 7.93   0.0476    289.3437    514.9204  66.35     1771.387     0.928     0.695      4.878     77.60409  19.9292         30
 3.50   0.0014    318.4723    905.2948  -7.79     59679.64     2.338     2.258      4.373     77.58652  16.1104         31
 6.59   0.0449    293.7296   1327.4131  -1.64     1880.318     1.004     0.960      3.813     77.68313  19.8644         32
 3.50   0.0003    351.3069   1345.6638 -23.56     303471.6     2.628     2.568      4.463     77.60409  14.3447         33
 3.50   0.0003    351.2153    890.6124 -13.41     314592.9     2.631     2.571      4.450     77.63045  14.3056         34
 3.64   0.0085    321.6846    697.1141   7.04     9894.639     1.839     1.740      4.117     77.56894  18.0615         35
 7.01   0.0473    327.0966    595.3744  14.64     1780.947     1.033     0.756      4.575     77.60409  19.9234         36
 5.03   0.0125    346.1313    866.8199 -21.13     6773.448     1.691     1.617      4.820     77.66557  18.4730         37
 4.77   0.0153    355.4344    431.5809 -85.32     5507.667     1.780     1.651      4.983     77.63045  18.6976         38
 4.03   0.0082    367.8295    760.9108  22.87     10219.69     1.848     1.800      4.257     77.60409  18.0264         39
 4.82   0.0505    360.8949   1500.1207  43.64      1669.52     1.236     1.057      3.922     77.56894  19.9935         40
 4.73   0.0216    367.0470    442.7178  -9.05     3894.335     1.464     1.361      4.173     77.59531  19.0739         41
 3.50   0.0017    394.8083    231.3112  36.26     50254.33     2.265     2.204      4.353     77.63045  16.2971         42
 4.01   0.0103    397.8153    354.4453  68.60     8221.933     1.774     1.704      4.299     77.63923  18.2626         43
 4.29   0.0123    396.8724   1460.8997   9.72     6848.068     1.724     1.620      4.100     77.55135  18.4611         44
 6.23   0.0524    393.5096   1088.5342  83.01     1609.529     0.922     0.916      3.805     77.60409  20.0333         45
 3.50   0.0018    419.1950    433.1605  66.64     46151.15     2.241     2.225      4.350     77.63923  16.3895         46
 3.56   0.0038    415.3754    837.2552  12.49     22203.73     2.101     2.022      4.281     77.66557  17.1839         47
 4.37   0.0209    423.9159    926.2800 -40.75      4030.87     1.480     1.433      4.318     77.58652  19.0365         48
 3.76   0.0051    437.5066    251.9277   5.83      16438.8     1.969     1.898      4.319     77.58652  17.5103         49
 3.50   0.0006    460.6513    807.4163  -5.38       142650     2.479     2.390      4.470     77.65679  15.1643         50
 7.11   0.0727    432.4907   1421.9971  62.54     1158.635     1.090     0.655      3.684     77.59531  20.3901         51
 4.52   0.0158    449.7924     21.2016  74.12     5327.208     1.591     1.556      4.540     77.59531  18.7337         52
 4.41   0.0145    457.2684     34.4971  28.39     5831.644     1.675     1.566      4.359     77.60409  18.6355         53
 7.34   0.0199    467.6591    850.6986  25.02     4237.176     2.717     1.299     14.060     77.56894  18.9823         54
 6.62   0.0445    463.3746    468.4101 -50.36     1894.078     1.083     0.971      4.749     77.63045  19.8565         55
 5.30   0.0359    471.7219    734.9535 -62.67      2346.53     1.226     1.147      4.383     77.59531  19.6239         56
 6.46   0.0542    470.8155    254.0362  83.60     1554.958     0.927     0.757      3.829     77.65679  20.0707         57
 5.12   0.0292    477.5528    922.7881 -46.17       2885.5     1.395     1.305      3.894     77.65679  19.3994         58
 8.91   0.0825    477.5064   1276.5192 -45.77     1021.267     0.506     0.494      3.035     77.58652  20.5272         59
 6.13   0.0697    483.9977   1070.2220   1.14     1210.236     0.938     0.759      3.452     77.63045  20.3428         60
 4.00   0.0068    512.1588   1302.5399   5.76     12381.78     2.391     1.756      5.811     77.63045  17.8180         61
 5.48   0.0057    532.4893    518.7509  45.20      14852.5     2.976     2.462     11.139     77.57773  17.6205         62
 8.18   0.0350    514.7327   1460.2910  10.70     2404.484     1.419     0.674      7.678     77.59531  19.5974         63
 5.59   0.0517    539.9737    999.6816  68.50     1629.487     1.108     1.077      3.821     77.62167  20.0199         64
 3.50   0.0003    587.6174   1315.8351  21.37     326063.5     2.605     2.544      4.490     77.63923  14.2667         65
 5.62   0.0367    558.6874   1041.5004 -74.66     2291.938     1.346     1.004      3.899     77.53377  19.6495         66
 4.12   0.0114    572.2595   1242.7538  12.07      7378.12     1.696     1.636      4.266     77.62167  18.3801         67
 4.34   0.0087    581.6237    319.2104  76.10     9726.419     1.866     1.784      4.399     77.63045  18.0801         68
 4.12   0.0087    580.1006    144.8694  38.08     9670.917     1.834     1.754      4.313     77.58652  18.0863         69
 3.50   0.0002    630.7087    483.2369  17.07     402145.6     2.771     2.712      5.255     77.58652  14.0390         70
 9.63   0.0557    570.3286     45.6708  44.97     1512.589     0.574     0.335      3.441     77.56894  20.1007         71
 7.40   0.0654    574.0139   1337.2577  89.43     1289.512     0.735     0.690      4.412     77.64801  20.2739         72
 6.99   0.0175    596.4741    782.5552  81.14      4825.21     1.934     1.485      8.933     77.59531  18.8412         73
 6.01   0.0292   1000.9565    542.7247  -3.06     2886.691     1.286     1.204      5.081     77.60409  19.3990         74
 3.50   0.0007    880.0087   1592.4181  51.21     114496.9     2.445     2.380      4.372     77.61288  15.4030         75
 7.60   0.0204    880.1438    224.1437  84.07     4127.189     2.800     1.309     13.806     77.59531  19.0109         76
 6.12   0.0280    868.9868   1103.1886  31.65     3009.803     1.395     1.174      5.722     77.61288  19.3537         77
 3.50   0.0003    858.9574   1224.4263  25.75     294029.2     2.639     2.588      4.510     77.67435  14.3790         78
 7.62   0.0384    837.2239   1247.4917  -0.45       2195.1     1.009     0.732      5.350     77.60409  19.6964         79
 6.58   0.0706    836.4489    298.4424  15.66     1194.945     0.922     0.915      3.145     77.64801  20.3566         80
 4.06   0.0127    822.4698    654.3860  51.50     6659.677     1.749     1.649      4.154     77.68313  18.4914         81
 4.47   0.0138    802.7502   1378.4924 -50.56     6085.897     1.668     1.607      4.313     77.58652  18.5892         82
 3.88   0.0048    798.0847    695.6307 -88.77     17535.26     2.469     1.952      5.139     77.63045  17.4402         83
 5.71   0.0303    800.0585     41.0773  48.00     2782.458     1.263     1.136      4.339     77.60409  19.4389         84
 8.62   0.0358    774.6725   1427.0803 -73.05     2355.926     1.065     0.754      6.234     77.58652  19.6196         85
 7.26   0.0665    766.2867    391.8763  68.87     1267.127     0.957     0.687      3.779     77.56014  20.2929         86
 6.14   0.0551    742.5024    556.5078  87.83     1529.304     0.941     0.916      4.055     77.56014  20.0888         87
 3.50   0.0002    723.6040    404.8631   9.84     399579.2     2.661     2.628      4.586     77.68313  14.0460         88
 3.50   0.0012    726.1969    848.3800  15.37     68684.84     2.324     2.280      4.465     77.62167  15.9578         89
 7.85   0.0667    726.8041   1178.4011 -70.63     1263.354     0.758     0.446      3.721     77.61288  20.2962         90
 6.61   0.0599    715.1652    808.1205 -42.84     1407.573     0.834     0.679      3.958     77.61288  20.1788         91
 6.22   0.0517    708.2938   1163.8535  70.11     1629.997     0.949     0.690      3.826     77.59531  20.0195         92
 5.04   0.0317    702.1606    952.2911 -58.08     2654.934     1.311     1.266      4.301     77.57773  19.4899         93
 9.71   0.0530    703.5060   1338.5083  45.05     1589.403     0.509     0.491      3.052     77.56014  20.0469         94
 6.78   0.0437    685.1113    644.0930 -46.87     1928.761     1.109     1.105      3.810     77.56894  19.8368         95
 3.50   0.0013    648.0393   1464.2296  50.66     66819.22     2.308     2.287      4.349     77.65679  15.9877         96
 3.50   0.0014   1557.4830    487.5880  30.43     59719.11     2.223     2.198      4.346     77.63923  16.1097         97
 4.37   0.0081    639.2827    536.8463   4.93     10453.91     1.863     1.760      4.480     77.59531  18.0018         98
 8.56   0.0877    623.2075   1581.5868 -70.23     960.3437     0.750     0.448      3.544     77.57773  20.5939         99
 7.45   0.0755    605.1619    586.1762  46.13     1116.973     0.751     0.570      3.868     77.64801  20.4299        100
 5.56   0.0653   1584.3810   1108.8988  67.78     1290.567     0.932     0.696      3.615     77.59531  20.2730        101
 4.42   0.0227   1541.2722    134.9443  13.66     3707.224     1.483     1.348      4.155     77.58652  19.1274        102
 5.96   0.0489   1569.8834     92.4813 -14.03      1723.29     1.030     0.877      4.249     77.57773  19.9591        103
 3.50   0.0014   1563.1888    304.0692  33.60     60212.26     2.231     2.169      4.357     77.66557  16.1008        104
 5.24   0.0354   1566.0160     21.8608  69.12     2381.665     1.193     1.113      4.420     77.63045  19.6078        105
 3.50   0.0003    881.5714    183.9562  -7.91     314548.4     2.889     2.836      6.712     77.67435  14.3058        106
 8.28   0.0948   1560.5081    861.5000 -44.77     888.0672     0.504     0.496      3.024     77.53377  20.6789        107
 4.93   0.0048   1552.1603    682.0789 -14.57     17642.55     3.248     2.869     10.889     77.60409  17.4336        108
 5.65   0.0354   1542.0186    654.5374 -87.78     2384.906     1.286     1.050      4.049     77.64801  19.6063        109
 3.58   0.0026   1506.6364    269.2758  19.22     32515.89     2.078     2.048      4.235     77.61288  16.7698        110
 4.27   0.0102   1514.3198    392.6094 -65.38     8232.673     1.724     1.661      4.353     77.63923  18.2611        111
 4.40   0.0130    899.8454    302.7468  21.09      6504.39     1.705     1.644      4.274     77.63045  18.5170        112
 3.78   0.0055    929.3561   1178.3571  40.94     15315.61     1.998     1.955      4.308     77.64801  17.5872        113
 3.73   0.0028    984.3853    558.4161  48.22     29664.14     2.164     2.121      4.306     77.63045  16.8694        114
 6.45   0.0407    938.8971   1066.5717  -7.20     2072.412     1.046     0.888      4.299     77.57773  19.7588        115
 3.61   0.0025   1079.4897    512.1982  35.25     33657.59     2.200     2.174      4.274     77.59531  16.7323        116
 3.76   0.0043   1025.4875   1379.8679  70.20     19769.12     2.063     2.006      4.412     77.56894  17.3100        117
 7.59   0.0188   1365.9508   1134.3726  67.81     4475.502     1.646     1.268      9.877     77.66557  18.9229        118
 5.04   0.0321   1407.5771    308.1961 -68.88     2625.068     1.305     1.160      4.277     77.63045  19.5021        119
 4.24   0.0085   1081.4326   1148.1920  76.16     9903.369     1.879     1.827      4.521     77.63923  18.0605        120
 4.67   0.0336   1439.1356    619.1685  17.78      2507.48     1.290     1.159      3.946     77.63923  19.5519        121
 3.50   0.0006   1433.9310   1090.2480  32.64       145037     2.438     2.410      4.423     77.60409  15.1463        122
 3.88   0.0045   1418.8557   1126.1411 -87.77     18659.88     2.033     1.977      4.527     77.59531  17.3727        123
 4.44   0.0231   1434.6732    224.7623  43.14     3645.427     1.488     1.365      4.071     77.62167  19.1456        124
 5.82   0.0458   1415.0815   1386.3472  77.71     1840.898     1.153     0.910      4.328     77.57773  19.8874        125
 5.70   0.0511   1391.8909   1038.5494  87.37     1649.154     1.129     0.956      3.560     77.60409  20.0068        126
 3.50   0.0002   1365.8345   1159.0762   2.19     337303.6     2.779     2.730      5.985     77.61288  14.2299        127
 5.52   0.0323   1389.9965    713.2199  26.49      2608.86     1.441     1.139      4.320     77.62167  19.5089        128
 3.99   0.0093   1372.0872   1018.9006  73.62     9018.358     1.776     1.726      4.394     77.54256  18.1622        129
 4.18   0.0110   1388.3904   1428.3644  63.57     7684.873     1.780     1.678      4.342     77.63923  18.3359        130
 3.50   0.0010   1392.8549    114.4669  45.89     81283.84     2.350     2.328      4.418     77.60409  15.7750        131
 7.45   0.0131   1356.7125   1135.8651  34.68     6448.983     2.488     2.319     14.928     77.59531  18.5263        132
 4.06   0.0078   1104.0939    751.8116  10.97     10749.65     1.947     1.818      4.221     77.60409  17.9715        133
 4.39   0.0118   1107.1418    428.0562  49.52     7141.846     1.759     1.625      4.235     77.59531  18.4155        134
 7.11   0.0288   1307.2703   1035.9486  -5.67     2925.884     1.406     1.189      7.219     77.59531  19.3844        135
 5.37   0.0288   1307.1144    669.5201   1.91      2924.29     1.465     1.247      4.176     77.57773  19.3849        136
 7.79   0.0377   1119.6740    329.5378  76.50     2233.519     1.116     0.912      6.698     77.59531  19.6775        137
 3.76   0.0028   1319.6647    659.9721 -64.79     30320.03     2.234     2.113      4.323     77.63045  16.8457        138
 5.54   0.0200   1329.3555    656.0067 -89.98     4208.075     1.566     1.299      5.710     77.65679  18.9898        139
 3.50   0.0004   1298.0471    724.8810  10.30     190673.2     2.550     2.510      4.407     77.59531  14.8493        140
 7.82   0.0571   1293.1099    742.1282 -46.15     1475.658     0.848     0.674      4.782     77.58652  20.1275        141
 4.56   0.0253   1265.0479    807.7001  72.72     3330.231     1.509     1.370      4.006     77.51617  19.2438        142
 5.14   0.0075   1272.2990    610.1044 -50.32     11257.15     3.036     2.119      9.128     77.56894  17.9214        143
 3.82   0.0051   1129.5450    183.6320  22.84      16515.3     2.020     1.949      4.219     77.64801  17.5053        144
 4.49   0.0142   1157.4498    236.5468  12.32      5929.94     1.723     1.649      4.284     77.62167  18.6174        145
 4.62   0.0116   1291.0820    761.7897  88.46     7276.656     1.723     1.681      5.153     77.63045  18.3952        146
 4.52   0.0189   1277.5862   1331.1212   2.89      4461.99     1.602     1.428      4.315     77.65679  18.9262        147
 4.89   0.0282   1233.9238    304.7859  23.66     2993.209     1.288     1.172      4.240     77.68313  19.3597        148
 5.06   0.0086   1209.5433   1278.6290 -84.00     9780.482     3.687     2.463     12.189     77.65679  18.0741        149
 3.50   0.0001   1221.1451    995.1828 -15.36     612945.4     4.846     4.455      9.461     77.65679  13.5814        150
 7.34   0.0436   1193.8496    124.3472  27.47     1932.309     0.760     0.654      4.486     77.63045  19.8348        151
 3.50   0.0017   1164.8112   1299.7474  53.33     50887.11     2.294     2.228      4.330     77.67435  16.2835        152
 6.25   0.0446   1236.6519   1553.3611 -39.11     1892.442     1.017     0.891      4.906     77.63923  19.8574        153
 4.58   0.0086   1218.5134   1194.7633 -41.25     9816.297     1.842     1.815      5.167     77.62167  18.0701        154
 3.68   0.0056   1214.2277    513.0873 -14.40     15022.88     1.992     1.907      4.221     77.62167  17.6081        155
 6.58   0.0521   1206.8467    838.7767 -10.08     1619.658     1.080     0.946      4.680     77.65679  20.0264        156
 8.08   0.0455   1203.1272   1075.8750  44.11     1852.267     0.850     0.676      5.103     77.57773  19.8807        157
 7.57   0.0444   1071.5475   1219.0000  79.56     1901.573     1.262     0.627      5.249     77.68313  19.8522        158
 7.86   0.0543   1150.9735     99.3088  84.90     1551.955     0.742     0.680      4.087     77.60409  20.0728        159
 6.38   0.0503   1201.2463    339.3479  21.75     1676.642     0.988     0.879      4.208     77.64801  19.9889        160
 3.50   0.0003   1151.3188    693.8892 -30.42     290719.7     2.827     2.778      6.087     77.57773  14.3913        161
 6.27   0.0138   1172.6172    758.2498 -83.05     6109.983     2.325     2.091      9.418     77.64801  18.5849        162
 3.63   0.0027   1138.0608    148.1607  53.01     31604.34     2.241     2.192      4.389     77.63923  16.8006        163
 3.70   0.0028   1094.6279    778.1694  56.19     30536.21     2.188     2.100      4.296     77.64801  16.8380        164
 4.96   0.0261   1088.9498    642.6968  15.79     3224.951     1.412     1.265      4.068     77.53377  19.2787        165
 3.50   0.0020   1039.8876    633.0624  38.89     42974.64     2.281     2.203      4.270     77.58652  16.4670        166
 4.64   0.0099   1038.2603    525.3976  43.80     8510.633     1.796     1.748      4.350     77.68313  18.2251        167
 3.50   0.0002   1022.9846     50.2039  -5.55     474318.7     2.736     2.690      4.550     77.60409  13.8598        168
 7.00   0.0709   1001.1524   1555.1804  43.91     1188.646     0.762     0.572      3.525     77.64801  20.3624        169
 3.91   0.0049   1009.4083    813.7189  68.05     17033.39     1.966     1.965      4.290     77.62167  17.4717        170
 5.94   0.0351   1010.7754    344.7836   5.43      2399.55     1.216     1.162      3.988     77.62167  19.5997        171
