#   1 KRON_RADIUS            Kron apertures in units of A or B                         
#   2 Y_IMAGE                Object position along y                                    [pixel]
#   3 MAG_BEST               Best of MAG_AUTO and MAG_ISOCOR                            [mag]
#   4 FLUX_BEST              Best of FLUX_AUTO and FLUX_ISOCOR                          [count]
#   5 X_IMAGE                Object position along x                                    [pixel]
#   6 THETA_IMAGE            Position angle (CCW/x)                                     [deg]
#   7 A_IMAGE                Profile RMS along major axis                               [pixel]
#   8 B_IMAGE                Profile RMS along minor axis                               [pixel]
#   9 MAGERR_BEST            RMS error for MAG_BEST                                     [mag]
#  10 NUMBER                 Running object number                                     
#  11 FLUXERR_BEST           RMS error for BEST flux                                    [count]
 4.47     94.4127  18.6393     5811.617   1125.4513 -67.03     8.432     4.008   0.0725          1     387.8695
 3.50     47.1609  20.8645     748.5314     46.6974 -18.43     3.115     2.992   0.2318          2     159.7962
 3.50     33.0301  20.2488      1319.74    450.1791   3.93     1.743     1.661   0.0727          3      88.3307
 3.50      7.9031  18.0998     9551.363    753.4478   2.44     1.983     1.923   0.0116          4     102.4581
 6.18     12.8639  22.6600     143.2238    858.4266  50.98     1.289     0.732   0.6728          5     88.73129
 3.50      7.2113  25.6106     9.456909   1284.7981 -46.48     0.737     0.563   3.9877          6      34.7248
 0.00      6.0000  99.0000    -33.67798   1058.0139   0.00     0.847     0.289  99.0000          7     48.38072
 7.55      4.2469  22.3673     187.5312    947.4111  45.53     1.314     0.771   0.5853          8      101.064
 4.12      3.8348  22.4797     169.0916     72.4608 -16.44     1.246     1.182   0.4558          9     70.96505
 6.10      2.8667  23.0443     100.5231    936.5207 -10.63     1.625     1.134   1.1254         10     104.1744
 5.45      4.6532  24.8262     19.47656    706.7065 -47.69     0.565     0.339   1.9924         11     35.73153
 4.68      1.4142  24.7602     20.69775   1254.7991  -3.78     1.168     0.488   2.3797         12     45.35387
 0.00     20.2485  99.0000    -18.64709    234.9529  16.47     1.096     0.906  99.0000         13     51.91671
 6.38     27.8961  21.8247     309.1127    906.5863  84.86     1.356     1.278   0.4399         14     125.2021
 0.00     24.3722  99.0000    -18.06506    897.5001  53.33     1.032     0.802  99.0000         15     106.8632
 7.50     21.4723  26.5537     3.967651    123.0066 -32.35     0.789     0.316  15.6347         16      57.1208
 4.06     69.3732  20.0970     1517.746   1463.3916  74.90     3.177     2.756   0.1281         17     179.0542
 7.74     26.3235  24.3373     30.55493    417.3286 -44.76     0.571     0.337   1.7960         18     50.53201
 3.72     32.4382  22.7234     135.1002   1515.2990  30.41     1.107     0.846   0.4282         19     53.26542
 3.50     33.1804  24.4140     28.47095      7.1900  44.59     0.766     0.561   1.3629         20     35.73153
 3.50     47.1839  23.7974     50.23743   1049.4036  70.29     0.741     0.448   0.6307         21     29.17467
 8.32     47.9779  23.9532     43.52332    229.0076   1.06     0.613     0.605   1.9030         22     76.26447
 4.81     62.2807  22.0780     244.7942   1014.5557  61.95     1.392     1.123   0.4024         23     90.70773
 6.14     52.4638  25.3314     12.23035    204.7005   8.76     0.973     0.482   5.6953         24     64.14005
 6.35     63.3292  22.2417     210.5369    894.4313  32.57     1.490     1.316   0.6841         25     132.6298
 3.50     95.1854  18.4667     6812.572    917.0939  -9.20     2.432     1.965   0.0183         26     114.8608
 6.68     63.8519  22.6423     145.5702    889.1374  18.53     1.225     0.942   0.5112         27     68.51648
 3.99     65.5806  23.1622     90.17822    971.4410  42.08     1.049     0.908   0.6953         28     57.73833
 3.50     77.6456  23.0370     101.2091    183.8656  35.74     1.922     1.615   0.9982         29     93.02405
 4.01     80.3084  21.9423     277.3771    542.7675 -74.51     1.942     1.344   0.3774         30     96.39422
 3.50     94.6567  21.0657      621.925    347.2999   1.29     1.577     1.515   0.1395         31     79.89812
 6.42     88.6536  22.6293     147.3286   1026.2157  38.54     0.937     0.744   0.5890         32     79.89812
 3.75     93.2241  22.9378     110.8883    737.8329  -2.89     1.220     1.140   0.6442         33     65.77794
 8.20     87.6823  22.4476     174.1687   1076.8492 -12.12     1.079     0.416   0.5145         34     82.51842
 4.37    106.6409  21.3435     481.5066    974.6325 -73.93     2.125     1.886   0.2930         35     129.9283
 3.50    106.5787  21.1190     592.0977     47.9887 -15.76     1.548     1.459   0.1441         36     78.55521
 8.45    104.3943  21.5261     406.9659    265.9957  54.86     1.476     0.923   0.3919         37     146.8426
 9.66     94.4939  23.0192     102.8741   1248.5023  44.92     0.506     0.494   0.7751         38     73.42131
 3.50    100.2884  22.7421     132.7919    357.1915   0.39     1.135     0.906   0.4301         39     52.59538
 3.50     96.5149  23.6635     56.83301    590.4865 -44.94     0.510     0.489   0.5575         40     29.17467
 0.00     99.9511  99.0000    -56.38306    173.4704  86.25     0.780     0.498  99.0000         41     55.22676
 5.94    110.1582  22.7423     132.7667   1458.8864 -14.43     1.146     0.934   0.7547         42     92.25841
 4.28    115.3070  22.9276     111.9364    925.0088 -50.53     1.258     1.145   0.7444         43     76.72809
 3.70    125.7528  21.2663     516.9832    300.9926 -16.30     1.591     1.521   0.1796         44     85.47398
 4.21    118.2691  22.8492     120.3134     79.9862  35.99     1.594     1.331   0.8328         45     92.25841
 7.06    113.9025  23.8346     48.54688     66.6563 -18.40     0.921     0.676   1.8363         46     82.08752
 8.59    112.3366  23.3578     75.31348   1000.3244 -45.54     0.575     0.335   0.8056         47     55.86524
 3.50    151.1229  19.0599     3944.781     45.8490 -52.15     1.949     1.851   0.0369         48     133.8863
 3.50    212.4886  15.9071     71973.73    967.6542  40.01     3.048     2.888   0.0023         49     154.6074
 9.18    119.3316  23.3936     72.87195    231.3272 -45.20     0.574     0.335   0.8696         50     58.34934
 4.90    130.0126  22.7490     131.9431     55.4443  37.97     1.241     1.021   0.6862         51     83.37357
 0.00    133.5662  99.0000     -104.704   1498.7036  -0.10     1.148     0.959  99.0000         52     86.29984
 5.33    140.3865  22.7214     135.3495    218.2452 -66.34     1.301     1.032   0.7403         53     92.25841
 4.32    158.7005  17.5688     15576.15     50.5213  14.00     2.556     2.201   0.0155         54     222.5937
 7.56    131.6804  23.0266     102.1803   1315.2950  46.43     0.554     0.344   0.5296         55     49.82523
 4.48    152.9119  27.2416     2.105591    879.5300 -60.81     1.011     0.961  33.6470         56     65.23655
 3.72    173.7126  20.9387     699.0587    557.3240  47.42     2.364     2.321   0.2023         57      130.201
 4.23    183.8768  20.9262     707.1874   1263.0786  -7.93     2.523     2.381   0.2374         58     154.6074
 5.13    166.4995  22.2679     205.5173    746.5167 -74.63     1.407     1.236   0.5266         59     99.65047
 4.28    164.1927  23.4913     66.60315   1521.5858  74.81     1.105     0.950   1.0813         60     66.31491
 5.24    162.8947  23.9434     43.91687   1154.2748  52.79     0.950     0.930   1.8275         61     73.90276
 4.89    172.7050  27.7863     1.274902    945.0700 -51.52     1.571     1.253  86.3878         62     101.4143
 3.50    185.3256  20.1066     1504.407    378.2397 -28.54     1.786     1.762   0.0663         63     91.87319
 7.50    164.1903  22.8873     116.1698    759.0225  37.12     0.938     0.473   0.6818         64     72.93668
 7.24    168.6113  23.1976     87.29224   1158.9104  47.54     1.111     0.480   0.9717         65     78.10243
 3.94    174.5828  23.2688     81.74634    961.8307  82.06     0.977     0.930   0.7422         66     55.86524
 3.50    237.3644  16.4930     41955.52   1389.7841 -41.09     2.309     2.169   0.0030         67     117.3049
 6.87    181.0341  24.1736     35.52856    461.1556 -54.27     0.926     0.470   2.0595         68     67.37601
 6.16    196.4339  23.4095     71.81226   1066.2972 -20.88     2.031     1.821   2.6655         69     176.2594
 0.00    188.9588  20.6619     902.0411   1070.1791 -24.62     1.548     1.057   0.0980         70     81.37115
 3.50    206.1323  20.6434     917.6127     21.5627 -56.80     1.638     1.562   0.0992         71     83.79786
 3.50    201.2601  23.2558     82.72961    185.9180   6.51     1.443     1.361   0.9638         72     73.42131
 5.23    202.1462  23.3798     73.80701    412.4117  66.29     1.510     1.319   1.6157         73     109.8095
 4.88    201.9580  23.0152     103.2524   1294.5009 -85.51     1.212     0.838   0.7620         74      72.4488
 5.93    205.3313  23.2670     81.88367    353.9930  16.74     1.813     1.438   1.8989         75      143.174
 3.50    224.9422  19.3308     3073.896   1093.4563 -59.44     1.814     1.775   0.0335         76     94.91114
 3.99    218.7306  21.3606     474.0002   1020.6931  -7.62     2.094     1.983   0.2776         77     121.1715
 4.87    216.3218  21.3939     459.6812   1198.5570  55.51     1.841     1.567   0.2917         78     123.4908
 6.51    203.9402  23.7552     52.22803    452.2255  87.50     0.695     0.417   1.0795         79     51.91671
 4.60    268.1983  21.2036     547.7283    140.7266  65.34     5.964     2.061   0.4764         80     240.2855
 3.82    210.1299  23.1988     87.19434    908.8029  49.34     0.821     0.649   0.5031         81      40.3905
 3.50    223.1118  22.1439     230.3733   1178.3679  -5.05     1.281     1.210   0.3075         82     65.23655
 6.18    213.5688  23.4914     66.59656   1061.7803  21.01     0.736     0.449   0.8794         83     53.92712
 3.89    286.2726  19.5472     2518.377   1328.5978 -54.54     4.071     3.479   0.0941         84     218.3232
 7.11    232.5957  24.1281     37.04907    654.3945  19.87     2.685     1.375   5.9608         85     203.3525
 3.53    242.9650  20.5237     1024.538    566.6058  37.93     1.679     1.645   0.0919         86     86.70982
 3.55    236.5731  21.8757      294.917    836.9667   6.66     1.498     1.372   0.2825         87     76.72809
 3.50    258.8932  19.7904     2012.962   1426.9111 -51.38     2.259     1.731   0.0560         88     103.8334
 4.05    234.9387  22.8266     122.8412    880.2339 -62.63     1.346     1.177   0.6742         89     76.26447
 5.69    244.0083  26.1572     5.716309    660.8113  37.74     2.162     1.852  32.2795         90     169.9075
 3.50    247.6646  20.8243     776.7517    577.4250  67.60     1.633     1.559   0.1154         91     82.51842
 6.01    254.1846  21.0552     627.9637   1369.7998 -47.94     2.427     1.671   0.3131         92     181.0241
 6.17    241.2870  22.2040     217.9781    369.2222  30.13     1.736     1.378   0.7121         93     142.9261
 7.66    228.4811  24.7464     20.96167    906.4860  44.84     0.514     0.484   3.0230         94     58.34934
 7.03    242.2005  23.0398     100.9424    966.9060 -61.08     1.771     0.956   1.4806         95     137.6166
 4.36    249.6382  23.1162     94.08362   1163.8445 -84.59     1.850     0.892   0.9673         96     83.79786
 6.57    255.1234  21.9132      284.917     76.2674 -83.10     2.133     1.143   0.5832         97     152.9933
 6.82    243.4088  22.4155     179.3875   1339.8333  80.45     1.073     0.852   0.5880         98     97.12727
 0.00    251.5225  99.0000    -5.563843    914.5157  22.95     1.473     1.146  99.0000         99     67.37601
 6.16    261.7776  23.8190     49.25085    410.9438 -50.42     1.595     1.170   2.7670        100      125.485
 4.50    296.8800  20.6900     878.9866    375.0334  30.08     5.932     2.233   0.3014        101     243.9475
 3.81    279.1085  21.3307     487.1973   1128.7777 -37.13     2.416     1.730   0.2601        102     116.6987
 4.37    264.9361  22.8085     124.9086    271.6232 -73.63     1.138     0.946   0.5812        103     66.84756
 6.46    263.5041  25.6861     8.822144    721.2064 -89.49     0.987     0.733  10.0516        104     81.65434
 3.50    281.3364  21.2600     519.9844    955.4014 -28.15     1.574     1.506   0.1659        105       79.453
 0.00    266.9327  99.0000    -18.64294    767.3180 -16.25     0.981     0.732  99.0000        106       43.762
 3.50    286.3484  21.7515     330.6669    743.6095  40.15     1.460     1.383   0.2458        107     74.85639
 0.00    278.8119  99.0000    -5.668457   1454.3896 -71.06     0.759     0.445  99.0000        108     64.69062
 6.29    279.6088  27.6460     1.450806    884.7463  18.33     0.745     0.451  40.3671        109     53.92712
 3.73    313.6259  20.8830     735.8607    792.7342  28.19     2.366     2.017   0.1793        110     121.4638
 0.00    289.1764  99.0000    -54.10059   1177.8871  42.69     0.851     0.670  99.0000        111     82.51842
 7.07    292.0175  26.2682     5.161011   1277.2856  87.01     0.742     0.692  16.0479        112     76.26447
 5.13    298.8221  26.6405      3.66272    863.1149  17.37     1.474     1.048  28.4717        113      96.0256
 3.50    374.0452  16.4497     43664.58   1263.0072 -33.49     2.333     2.210   0.0029        114      117.908
 0.00    315.0114  20.6464     915.0235    803.5080  31.74     1.723     1.262   0.1128        115     95.01321
 3.50    338.2123  19.2393     3343.994    596.3755 -66.87     1.875     1.854   0.0317        116     97.49172
 3.50    332.7775  20.2783     1284.313    789.3983 -34.10     1.680     1.646   0.0730        117     86.29984
 6.26    311.5056  23.9322     44.37219   1549.0146  -1.35     0.805     0.500   1.4281        118     58.34934
 0.00    317.2074  99.0000    -89.94556   1061.6068 -71.74     0.763     0.449  99.0000        119     71.46306
 0.00    323.1175  99.0000    -96.30786    833.2548  -4.62     1.149     1.073  99.0000        120      82.9471
 5.46    323.2687  22.3645     188.0248    289.3503  -5.53     1.242     1.080   0.5525        121     95.65556
 3.50    328.8228  22.2131     216.1566    720.6425 -72.46     1.375     1.253   0.3385        122     67.37601
 3.50    335.3305  23.0090     103.8517   1146.0575 -32.82     2.232     1.734   1.0822        123     103.4913
 6.41    327.7767  22.8558     119.5807    157.4338  64.09     1.391     0.861   0.9492        124     104.5143
 0.00    322.0162  99.0000    -63.20642   1454.0000  90.00     0.864     0.289  99.0000        125     58.95401
 0.00    335.9540  99.0000    -152.3483   1038.2914 -51.54     1.658     1.399  99.0000        126     129.6551
 5.32    334.7170  21.8357     305.9933    661.8060   3.32     1.727     1.269   0.4185        127      117.908
 3.50    361.4441  20.9948     663.8601    708.8192 -68.97     2.479     2.197   0.1987        128     121.4638
 3.50    329.3398  24.6527     22.85168    220.3325 -45.30     0.580     0.332   0.9804        129     20.62961
 4.02    375.0766  20.4073     1140.433   1364.3392   5.19     3.340     2.486   0.1646        130      172.805
 6.59    349.8664  24.1490     36.33997   1576.3282 -74.94     1.358     0.321   1.9496        131     65.23655
 3.50    347.4366  24.0014     41.63477   1599.3663  84.48     0.950     0.617   0.9058        132      34.7248
 5.25    348.1754  23.9958     41.85034     40.1509  47.67     0.757     0.568   1.3472        133     51.91671
 3.50    363.7216  22.0069     261.3719    504.4440  69.04     1.459     1.405   0.3149        134     75.79802
 4.73    360.6756  22.6989      138.175    640.8969 -84.53     1.210     1.133   0.6619        135     84.22002
 7.26    359.7431  23.2420      83.7926   1278.9045 -66.17     1.174     1.052   1.5628        136     120.5847
 5.16    357.1693  23.5210     64.80652   1291.4176  69.78     0.750     0.447   0.7333        137       43.762
 6.49    357.3419  24.0826     38.63403   1050.6553 -12.61     1.135     0.614   2.2707        138     80.78101
 7.49    363.0229  24.2019      34.6123     99.2650  89.07     1.168     0.847   3.4656        139     110.4535
 7.33    359.0027  23.2704     81.62854   1095.3845 -89.96     0.875     0.486   0.9441        140     70.96505
 7.56    369.7059  22.4347      176.249   1341.3179  34.94     2.012     1.027   0.9996        141     162.2192
 8.28    365.7765  22.4023     181.5854   1284.6234 -65.85     1.036     0.935   0.7282        142     121.7555
 4.23    451.0447  20.6199     937.6815   1220.1050  54.56     7.010     2.619   0.3129        143     270.1612
 6.71    368.1672  25.4242     11.22815    268.3489 -52.80     1.060     0.678   8.1865        144     84.64007
 3.92    401.3127  20.3460     1206.724    825.4194  45.88     3.281     2.709   0.1574        145     174.8453
 3.55    389.2865  20.6163     940.7723   1463.5734  -5.81     1.789     1.699   0.1061        146     91.87319
 6.34    380.2635  21.5599     394.5055    959.4734 -67.00     2.181     1.119   0.4049        147     147.0839
 7.87    368.8943  23.3405     76.52319    643.5867  27.32     1.151     0.577   1.3363        148     94.16084
 3.72    377.3903  22.4102     180.2621    163.5931  83.29     1.331     1.253   0.4365        149      72.4488
 3.89    385.7827  22.2292      212.969    867.8937  84.36     1.357     1.232   0.3769        150     73.90276
 6.27    377.7131  24.4551     27.41382    430.5041 -24.91     1.601     0.716   3.9617        151     100.0057
 0.00    383.5173  99.0000    -92.09082   1278.0845  88.46     1.306     1.166  99.0000        152     117.3049
 3.55    392.8902  21.7748     323.6606   1317.9773  52.61     1.645     1.444   0.2769        153     82.51842
 3.50    413.7154  19.5371     2541.888     67.4630 -60.35     1.877     1.839   0.0412        154     96.39422
 3.50    417.2204  19.1909     3496.575   1308.3070  17.11     1.920     1.876   0.0307        155     98.93612
 5.35    391.8077  26.9160     2.841797   1206.6018 -76.03     1.191     0.958  32.8223        156      85.8879
 3.50    719.8947  17.7213     13535.69    199.2038 -41.88    13.551    10.306   0.0495        157     617.3965
 5.07    393.7631  23.1143     94.24915     18.9677  -1.50     0.688     0.425   0.4654        158      40.3905
 3.50    458.0837  17.7785     12841.27     12.6700 -49.85     2.253     2.053   0.0095        159     112.6787
 3.92    413.4766  23.3857     73.40356    665.7608  68.88     1.487     0.880   0.9890        160     66.84756
 0.00    416.9565  99.0000    -66.85034   1158.3895  81.84     1.470     1.033  99.0000        161     64.69062
 5.02    410.1406  23.6766     56.14893    750.1879   9.17     1.114     0.725   1.3031        162     67.37601
 0.00    421.2555  99.0000    -137.9103    102.5200  61.15     1.205     1.020  99.0000        163     93.40452
 0.00    419.6847  23.0610     98.99202    889.6652 -66.61     0.907     0.718   0.5473        164     49.88751
 6.45    421.7512  22.3613     188.5674    893.2390 -21.82     1.314     0.898   0.5941        165      103.148
 6.55    425.8313  23.2232     85.25757    962.7754 -80.47     1.045     0.847   1.1554        166     90.70773
 4.90    439.7298  22.6824     140.2964    908.9675 -25.61     1.890     1.699   1.0204        167     131.8252
 3.50    466.1190  18.4513     6910.202   1075.1609 -32.82     2.018     1.954   0.0161        168     102.4581
 0.00    428.7175  99.0000    -69.46472   1431.8264 -31.22     0.864     0.605  99.0000        169     60.73192
 8.66    432.2888  25.4673     10.79163   1516.0232  -8.46     0.723     0.673   9.1282        170     90.70773
 0.00    433.7692  99.0000    -25.10645    415.6180  72.67     0.747     0.453  99.0000        171     60.14512
 3.50    439.5482  22.5450     159.2234    815.4628  33.56     1.225     1.095   0.4102        172     60.14512
 3.89    449.0450  23.9027     45.59485    290.8685 -32.56     1.440     1.299   1.9241        173     80.78101
 3.96    450.0580  21.8380     305.3431    174.6930   9.52     1.794     1.456   0.3402        174     95.65556
 0.00    448.5518  99.0000    -13.72742   1378.3848 -62.47     1.098     0.709  99.0000        175     67.37601
 0.00    452.0868  99.0000    -64.69482    966.7126  51.79     1.085     0.975  99.0000        176     101.4143
 0.00    457.6748  99.0000    -89.90662   1159.9452  81.80     1.617     1.344  99.0000        177     117.6069
 7.48    445.6780  23.9428     43.94336   1485.3439  44.05     0.577     0.333   1.1774        178     47.64204
 8.33    445.6734  25.0100     16.44385    376.6509 -44.08     0.581     0.331   3.6047        179     54.58081
 3.94    462.5902  22.2248      213.832    275.6967   0.35     1.827     1.463   0.4914        180     96.76144
 6.02    454.2875  25.2085     13.69568    478.9831 -14.32     0.732     0.666   5.0420        181     63.58472
 4.32    465.1969  23.3912     73.03186   1190.5952 -13.54     1.366     1.198   1.2398        182     83.37357
 5.75    462.4704  23.8131     49.51843   1091.8141   0.80     1.161     0.967   1.9893        183     90.70773
 0.00    459.6889  99.0000    -14.94556   1099.6337 -42.76     0.581     0.330  99.0000        184     51.91671
 0.00    462.9705  99.0000    -58.38586   1263.0303 -45.42     0.898     0.532  99.0000        185     65.77794
 3.50    488.4069  20.3904      1158.32    574.1901  14.25     1.761     1.641   0.0839        186     89.52711
 0.00    473.1105  99.0000     -56.5498    250.7760  62.62     1.279     0.550  99.0000        187     68.93706
 3.92    478.8407  24.1554     36.12646   1017.6990  32.97     1.410     1.333   2.4546        188     81.65434
 0.00    474.3923  99.0000    -66.53809   1138.5402  20.56     1.229     0.936  99.0000        189       79.453
 0.00    476.2465  99.0000    -3.739014   1162.2501  71.10     0.859     0.351  99.0000        190     67.90035
 6.33    479.8654  23.7546     52.25806   1571.2762 -17.61     1.048     0.546   1.4538        191      69.9584
 0.00    478.6742  99.0000    -21.30872    219.6721 -44.91     0.572     0.336  99.0000        192     29.17467
 3.50    505.4083  20.3749     1174.979   1142.3480 -37.17     1.754     1.707   0.0842        193     91.09788
 3.50    557.4858  19.4579     2734.158   1456.4041 -85.58     1.868     1.858   0.0386        194     97.12727
 3.50    497.8973  24.9033     18.14209    604.8098  73.73     1.557     1.321   4.4810        195     74.85639
 3.94    489.5105  25.1564        14.37    769.5135 -45.64     0.501     0.498   2.2049        196     29.17467
 6.09    509.2844  22.8195     123.6564    999.6625  34.56     1.878     1.755   1.4456        197     164.6065
 0.00    500.9969  99.0000    -298.4427   1011.0789  -7.59     1.946     1.093  99.0000        198     130.4731
 3.88    506.7611  24.2433     33.31885    538.5916 -46.71     1.331     1.280   2.4858        199     76.26447
 4.64    536.8422  20.3863     1162.732    353.0277  -6.58     2.927     2.803   0.1851        200     198.2304
 4.43    530.4689  21.6682     357.0375   1006.4338 -32.62     3.333     2.123   0.5324        201      175.048
 4.34    532.7872  18.5541     6285.714    671.9299  67.38     2.482     1.690   0.0270        202     156.3692
 5.77    515.0647  22.5951     152.0378   1524.5029  43.62     1.155     1.062   0.6753        203     94.53674
 0.00    513.0201  99.0000    -25.29761    164.0000  90.00     0.859     0.289  99.0000        204     45.35387
 3.50    547.5416  19.4962     2639.432    374.1339 -74.44     1.992     1.893   0.0419        205     101.7634
 4.39    518.2790  24.2636     32.70142   1431.6025  -7.67     0.981     0.919   2.0553        206     61.88882
 5.07    539.9126  18.5123     6532.315    674.2069 -44.53     2.487     1.668   0.0261        207     156.8044
 3.50    532.7383  23.2175     85.70142    654.4314 -13.30     1.289     1.121   0.7842        208     61.88882
 3.50    561.8504  18.8969     4584.052    583.2339  25.76     1.888     1.857   0.0233        209     98.21658
 8.60    524.7182  24.3191     31.07092   1374.9868  -0.82     0.679     0.450   2.4978        210     71.46306
 8.08    525.6044  24.1365     36.76147    331.1867 -19.31     0.762     0.444   2.1111        211     71.46306
 0.00    528.8715  99.0000    -34.97717    229.1235 -49.93     0.753     0.572  99.0000        212      57.1208
 0.00    533.1379  99.0000    -153.5232   1227.7197 -14.57     1.024     0.751  99.0000        213       79.453
 3.50    566.7295  19.2213      3400.16    956.1602 -21.55     1.898     1.874   0.0315        214       98.577
 5.97    536.7968  23.2564     82.68445    468.3878 -71.16     0.767     0.443   0.7083        215     53.92712
 9.26    541.7950  24.2041     34.54309   1099.5922  70.86     0.771     0.446   2.5119        216     79.89812
 3.50    573.1076  19.2073     3444.137   1028.6041 -44.41     1.924     1.902   0.0315        217     100.0057
 0.00    556.3446  99.0000    -67.07935   1073.6241 -45.92     1.536     1.400  99.0000        218     108.5099
 3.50    549.0526  22.9936     105.3325    756.0723  61.77     1.201     1.104   0.6140        219     59.55255
 5.15    553.8810  23.1254     93.29187      3.6394  32.48     1.065     0.961   0.8261        220     70.96505
 8.21    546.5253  23.5992     60.29858   1397.5427 -59.29     0.500     0.498   1.0938        221     60.73192
 0.00    556.8666  99.0000    -19.83984    271.1406  47.75     0.831     0.664  99.0000        222     38.59446
 0.00    554.3266  99.0000    -82.21582   1164.6796  45.30     0.569     0.338  99.0000        223       43.762
 4.41    570.3473  22.6547     143.9215   1513.9795 -34.99     1.495     1.249   0.6845        224     90.70773
 6.45    562.5316  24.1642     35.83484    231.6833 -32.09     0.947     0.678   2.3393        225     77.18892
 4.08    579.8500  21.4653     430.3944   1365.8766  51.11     1.601     1.546   0.2395        226     94.91114
 0.00    562.2994  99.0000    -80.98901    757.6545  42.74     0.567     0.338  99.0000        227       43.762
 7.26    568.9766  22.2427     210.3406   1328.5712 -29.92     1.048     0.663   0.4683        228     90.70773
 3.50    664.6186  16.0763      61585.8   1486.7719 -44.51     2.438     2.292   0.0022        229     122.6262
 0.00    585.4757  99.0000    -42.42725    272.9999  75.25     1.681     1.447  99.0000        230     129.9283
 6.57    584.7122  22.0220     257.7573   1527.9791 -46.52     1.663     1.287   0.6053        231     143.6686
 8.38    575.5018  22.7546     131.2667    629.9894  -0.56     0.821     0.500   0.6536        232     79.00538
 4.68    613.2316  20.4031     1144.836    572.2295  76.04     2.753     2.396   0.1699        233     179.0542
 4.98    596.0724  23.2649     82.04565   1054.8129 -30.04     1.526     1.374   1.4276        234     107.8542
 4.76    984.0365  22.6584      143.428    173.7719 -28.46     1.311     1.117   0.6503        235      85.8879
 6.65   1598.0112  22.4461     174.4067   1445.3649 -38.15     1.007     0.627   0.4419        236     70.96505
 4.75   1598.7107  24.8391     19.24609   1307.6581 -42.20     0.561     0.340   1.6462        237     29.17467
 0.00   1595.3134  99.0000    -59.43018    257.7211  45.02     0.964     0.740  99.0000        238     96.39422
 0.00   1594.8629  99.0000    -19.88501    335.9893  84.75     0.925     0.751  99.0000        239     64.14005
 4.51   1583.5969  20.0608     1569.277    831.3826 -77.94     4.143     3.372   0.1723        240     248.9838
 7.19   1589.6140  21.7472     331.9924   1460.7354  81.48     1.113     0.952   0.3655        241     111.7305
 0.00   1590.3269  99.0000    -62.06409   1530.3248 -45.10     0.571     0.337  99.0000        242     58.34934
 3.50   1584.3572  22.4782     169.3177    908.5189  57.80     1.212     0.847   0.3373        243     52.59538
 4.41   1583.1919  23.6616     56.93201    370.4655  39.27     1.044     0.833   1.1585        244     60.73192
 6.72    849.1667  22.8775     117.2198   1509.8450 -82.14     1.947     0.693   1.0812        245     116.6987
 0.00    844.4033  99.0000    -275.8627     98.9329 -81.96     3.650     1.456  99.0000        246     156.2049
 3.50    874.4470  21.8986     288.7832     39.4187  21.25     1.629     1.579   0.3119        247      82.9471
 3.50    846.2758  22.8305     122.4061   1142.0671  13.92     1.141     1.019   0.4956        248     55.86524
 3.50    874.3253  22.8526     119.9358    845.9553 -33.12     2.015     1.267   0.7664        249     84.64007
 4.32    848.7893  22.6746     141.3036    646.7096 -87.03     2.307     2.031   1.0714        250     139.4089
 7.46    839.3712  23.4095     71.81323   1520.2462 -11.74     1.575     0.369   1.2736        251     84.22002
 0.00    835.0080  99.0000    -385.3031   1371.5316  77.70     1.464     1.244  99.0000        252     135.5393
 6.67    836.5049  23.6901      55.4574    955.9969 -32.71     0.780     0.319   0.9330        253     47.64204
 0.00    826.0537  99.0000   -0.3950195    342.8156 -42.75     1.480     0.902  99.0000        254     102.1113
 4.46    823.0322  23.6537      57.3501   1599.5962 -88.85     0.777     0.491   0.6952        255     36.71066
 3.50    879.3613  19.8209     1957.201   1341.0470 -23.46     1.995     1.894   0.0559        256     100.7125
 9.08    821.5098  23.1403     92.02112   1332.4580 -48.46     0.506     0.492   0.8013        257     67.90035
 4.33    818.7234  22.0604      248.804   1030.1981  65.07     1.415     1.334   0.3856        258      88.3307
 7.19    819.6550  23.5207     64.82397    524.6809 -46.13     0.576     0.334   0.7728        259      46.1292
 4.44    816.8698  23.6558     57.23755    819.4221 -28.82     1.298     1.270   1.6217        260     85.47398
 0.00    794.0475  99.0000    -140.1656    434.8087  54.25     1.669     1.305  99.0000        261      136.322
 0.00    795.5040  99.0000    -60.71716   1284.5521 -66.87     0.501     0.497  99.0000        262     60.73192
 5.06    793.0139  22.6222     148.2867    938.2761 -54.24     1.720     1.274   0.8089        263     110.4535
 7.39    789.0296  22.3974     182.4038    868.1213  58.74     1.744     1.081   0.8998        264     151.1274
 3.83    792.0107  24.0651     39.25989   1464.2678  47.29     0.914     0.809   1.3783        265     49.82523
 3.50    786.9997  19.2216     3399.187    527.5715 -38.55     1.969     1.885   0.0322        266     100.7125
 3.50    776.6987  17.1633     22629.63    727.8635 -35.58     2.282     2.165   0.0056        267     116.0893
 6.07    786.7769  22.3250     194.9796   1107.9977  75.71     1.210     0.960   0.5389        268     96.76144
 3.82    786.9265  22.9033     114.4634    218.9024 -80.94     1.292     1.112   0.6492        269     68.42067
 5.55    784.4888  23.0080     103.9482    374.6701 -23.43     1.576     0.867   1.0109        270     96.76144
 3.86    784.8297  23.8213     49.14563    184.4231  -6.24     1.299     1.102   1.5459        271      69.9584
 3.96    780.7413  21.6093     376.9528    992.9757 -25.27     1.582     1.477   0.2602        272     90.31591
 3.50    770.7085  18.5579     6263.925    369.4375 -84.39     2.068     1.995   0.0185        273     106.5308
 6.19    780.1841  23.3655     74.78198    127.0010 -89.88     0.981     0.750   1.1473        274     79.00538
 7.53    787.2905  23.9593     43.27759   1377.4557  24.71     1.171     0.938   2.9512        275     117.6069
 0.00    765.7124  99.0000    -87.70251   1408.9180  84.25     1.596     1.028  99.0000        276      118.807
 6.57    762.4935  22.6942     138.7758   1360.3601  34.12     1.197     0.857   0.7714        277       98.577
 0.00    760.6926  99.0000     -23.2793   1040.5757  31.12     0.967     0.545  99.0000        278     66.84756
 0.00    758.1440  99.0000    -28.59692   1065.5687 -12.62     0.874     0.617  99.0000        279     65.77794
 4.26    756.4565  27.0010      2.62793    889.9158 -84.94     1.045     0.997  26.5061        280     64.14005
 0.00    754.4973  99.0000    -57.85046   1275.8314  50.13     1.099     0.737  99.0000        281     110.7741
 0.00   1401.5085  99.0000    -2.567627   1083.4974 -44.93     0.513     0.487  99.0000        282     47.64204
 5.68    735.3345  22.2840      202.479   1080.7650  53.44     1.091     0.867   0.4426        283     82.51842
 5.86    731.1986  25.7197     8.552734   1468.8861  60.31     1.318     0.892  11.9563        284     94.16084
 0.00    731.9658  99.0000    -8.500977   1340.0000  90.00     0.853     0.289  99.0000        285      34.7248
 3.68    728.3334  22.2788      203.462    127.9870  69.34     2.006     1.710   0.5432        286     101.7634
 3.50    727.3524  23.3689     74.54529    624.3361 -11.04     1.463     1.326   1.0626        287     72.93668
 5.08    724.2869  21.2794     510.8097    970.7228 -81.69     2.769     1.694   0.3504        288     164.8218
 5.61    741.9032  23.1555     90.73645    918.6675 -43.74     2.264     1.568   1.8858        289     157.5612
 6.76    725.8743  23.1307     92.84021   1433.8495 -46.55     1.345     0.907   1.2920        290     110.4535
 6.52    723.4359  24.6785     22.31604   1319.2839  -8.81     1.019     0.476   3.2531        291     66.84756
 3.50    719.7520  23.7796     51.06775    659.0257  50.68     1.155     1.118   1.2408        292     58.34934
 0.00    719.3348  99.0000    -59.37354    725.3120 -46.10     0.569     0.338  99.0000        293     29.17467
 0.00    742.9020  99.0000    -50.09436   1432.5208  79.27     1.277     0.997  99.0000        294     111.0938
 7.52    742.6771  21.7416      333.709   1293.7584 -70.09     1.441     1.018   0.4428        295     136.0616
 3.50    709.9128  20.9710     678.5698   1354.5731 -74.25     1.596     1.544   0.1300        296     81.21884
 3.95    708.1457  23.6788     56.03918    403.5540  16.32     1.376     1.079   1.3753        297     70.96505
 6.56    708.4860  24.4090     28.60242    778.0148  31.86     0.805     0.310   1.8089        298     47.64204
 0.00    706.4850  99.0000    -87.88123    848.4735  48.21     0.502     0.497  99.0000        299     41.25921
 3.68    702.3450  21.6712     356.0587   1040.3937  58.64     1.597     1.494   0.2569        300     84.22002
 3.50    698.0961  20.1520     1442.782     96.7310  -5.81     1.785     1.718   0.0686        301     91.09788
 7.93    702.2547  24.5481     25.16187     14.0408   4.23     0.728     0.692   3.5984        302     83.37357
 7.82    700.7561  27.2690     2.053101     19.3754 -73.23     0.979     0.643  48.5969        303     91.87319
 6.75    698.4558  23.2126     86.08789    910.0122 -63.26     1.034     0.659   1.0624        304     84.22002
 6.49    688.5469  23.3901     73.10901   1185.9166 -21.70     1.719     1.036   1.9178        305     129.1068
 5.90    684.6528  21.8839     292.7141    494.2355  33.95     1.699     1.579   0.5349        306     144.1615
 4.30   1577.2255  21.5801     387.2131    509.3104  76.48     1.886     1.748   0.3256        307     116.0893
 0.00    678.6743  99.0000    -38.00159    943.0048  28.15     0.912     0.211  99.0000        308     47.64204
 5.95    674.3161  21.7246     338.9629   1442.8916 -53.65     1.764     1.634   0.4804        309     149.9495
 3.50    668.5950  20.1285      1474.29   1090.3999 -58.85     2.110     1.758   0.0737        310     100.0057
 3.50    671.7319  24.0341     40.39771    758.1774  10.12     1.401     1.121   1.7683        311     65.77794
 3.98    672.6792  24.7793     20.33667   1570.6760 -44.84     0.568     0.338   1.5580        312     29.17467
 6.41    671.0736  22.2550     207.9783    456.1226 -20.71     1.629     1.121   0.6756        313     129.3812
 4.97    668.2959  21.5155     410.9653    350.3431 -58.60     1.548     1.311   0.2789        314     105.5274
 6.05    667.7723  21.4282     445.3873   1307.7014 -25.72     1.778     1.336   0.3393        315     139.1543
 4.80    686.0467  24.7578     20.74304   1360.5156 -88.39     0.789     0.499   2.2047        316     42.11001
 5.72    661.6709  19.8455     1913.432    316.3075   7.18     1.640     1.409   0.0581        317     102.3842
 3.50    654.2615  21.0215     647.7305    312.4706  51.26     1.703     1.595   0.1461        318     87.11787
 3.92    682.3065  23.8138     49.48572   1072.2152  10.46     1.174     1.036   1.4076        319     64.14005
 0.00    658.6656  99.0000    -119.8501    922.3510 -23.92     1.183     0.933  99.0000        320     106.8632
 3.50    657.1321  26.0979     6.037476    686.3115 -17.86     0.938     0.656   7.4216        321     41.25921
 3.56    652.6425  21.0780     614.9073     16.4175 -19.14     1.643     1.549   0.1495        322     84.64007
 0.00    648.4801  99.0000    -24.84192     83.8654  69.42     1.058     0.824  99.0000        323     87.52401
 4.29    643.3030  21.8115     312.9001    165.2615  23.80     1.448     1.367   0.3148        324     90.70773
 4.06    636.0479  20.6084     947.6218    871.1270 -57.28     2.848     2.377   0.1801        325     157.1104
 5.96    641.0565  20.8114     786.0037    220.5041  32.30     1.877     1.739   0.2229        326     161.3423
 4.36    636.1115  23.2779     81.06628    713.3629  76.13     1.181     1.097   1.0028        327     74.85639
 6.57    633.0480  22.4565     172.7388    398.3068 -88.64     0.725     0.673   0.4334        328     68.93706
 3.85    735.7529  24.3142     31.21155    372.6208 -53.84     1.467     1.395   2.8260        329     81.21884
 3.50    628.0223  22.4161     179.2904   1540.7615 -39.07     1.307     1.128   0.3885        330     64.14005
 0.00    626.0219  99.0000    -25.64575    984.0187  43.26     1.352     1.126  99.0000        331      69.9584
 8.55   1586.3198  23.8352     48.51929     49.6663  44.36     0.572     0.336   1.2504        332     55.86524
 7.80    620.4565  24.1609     35.94653    135.9588  31.75     0.803     0.310   1.8348        333     60.73192
 4.11    615.7855  21.7911     318.8378    191.3643 -89.16     1.966     1.820   0.3954        334     116.0893
 3.94    611.6806  20.7755     812.4901    588.6849  12.48     2.447     1.458   0.1485        335     111.0938
 4.21    613.7873  23.5117     65.35974   1535.5619  68.99     0.727     0.452   0.5937        336     35.73153
 7.56    612.9899  23.1032      95.2179    971.5016 -57.83     0.795     0.314   0.6655        337     58.34934
 5.06    607.8281  22.6014     151.1539    299.9239 -10.12     2.002     0.667   0.6200        338     86.29984
 8.00    606.4014  22.9640     108.2423   1380.7959 -18.61     0.753     0.451   0.7019        339      69.9584
 3.50    602.5517  21.4791     424.9642   1580.4075 -11.24     1.526     1.340   0.1901        340      74.3811
 8.21   1594.5544  22.7771     128.5729    953.4969  16.63     0.500     0.497   0.5130        341     60.73192
 7.77    597.6989  23.0691     98.26038     31.4397  82.19     0.977     0.483   0.8781        342       79.453
 6.96    597.3018  22.5416     159.7178    442.1967   6.84     1.194     0.614   0.6060        343     89.13009
 0.00    589.9781  99.0000    -14.41431    260.5208  32.50     0.983     0.607  99.0000        344     76.26447
 0.00   1581.2156  99.0000    -29.97644    263.3687   9.48     0.930     0.780  99.0000        345     100.7125
 4.31   1574.4686  22.5558     157.6399     28.0613  10.92     1.600     1.328   0.6461        346     93.78344
 3.50   1571.2089  23.3531     75.64209    429.6039  -1.45     1.361     1.146   0.9366        347     65.23655
 4.07   1545.4407  22.4586     172.4088    665.0071  51.81     1.760     1.585   0.6410        348     101.7634
 0.00   1590.3119  99.0000    -28.02441    264.9013  52.87     1.742     0.950  99.0000        349     153.6871
 3.86   1531.7686  19.9746     1698.833    868.0372 -65.16     1.927     1.713   0.0877        350     137.1407
 0.00   1560.0084  99.0000    -93.64612    253.0228 -89.67     0.637     0.610  99.0000        351     65.77794
 0.00   1576.2517  99.0000    -51.18079     70.2120 -63.74     1.159     0.657  99.0000        352     63.58472
 4.39   1524.4141  24.2132     34.25586    803.2822 -86.80     1.411     1.238   2.7359        353     86.29984
 5.13   1455.8646  22.6611     143.0715    129.3153  67.02     2.099     1.448   1.0148        354     133.6951
 3.50   1566.6180  21.0454     633.6605     19.5467 -47.25     2.257     1.870   0.1831        355     106.8632
 0.00   1551.2915  99.0000    -189.4182    216.9980 -24.69     1.282     0.851  99.0000        356     108.5099
 3.50   1559.4353  20.4730     1073.482   1362.0237  63.78     1.908     1.873   0.0997        357       98.577
 4.31   1553.7059  22.8091     124.8456   1074.0826  52.81     1.434     1.188   0.7326        358     84.22002
 6.59   1562.3291  22.5807     154.0718    285.7401  -1.76     1.447     0.688   0.6948        359       98.577
 3.50   1510.2600  18.1358     9240.229   1281.9120 -47.62     2.346     2.315   0.0143        360     121.4638
 0.00   1546.0299  99.0000    -74.08154   1237.0082  -0.53     1.222     0.970  99.0000        361     72.93668
 0.00   1554.4752  99.0000    -149.0854    637.1225  -4.50     1.289     0.929  99.0000        362     102.8036
 4.46   1526.8496  23.9507     43.62402    958.9269 -73.15     1.089     0.843   1.5549        363     62.45924
 5.69   1515.7474  23.3105     78.66785   1038.1201 -12.16     1.481     1.190   1.5599        364      112.993
 6.25   1511.4946  24.3182     31.09827      8.4691 -89.95     1.014     0.499   2.3529        365     67.37601
 0.00   1548.0656  99.0000     -92.9043    437.2470  77.07     1.824     1.148  99.0000        366      140.927
 0.00   1555.9697  99.0000    -21.59363    309.0487  31.62     1.672     1.255  99.0000        367     128.5563
 3.50    839.5729  16.4324     44364.68    275.3863 -32.69     2.446     2.276   0.0030        368     123.2033
 5.87   1510.1105  21.9905     265.3273    983.2292 -68.91     1.098     0.911   0.3615        369      88.3307
 0.00   1533.7628  99.0000    -52.57593    686.9981  -0.08     0.695     0.425  99.0000        370     63.02449
 3.50   1534.6948  17.9970     10500.01    875.6373 -44.06     2.005     1.951   0.0246        371     238.1198
 4.24   1512.8563  21.1480     576.5218    594.0773 -50.41     1.814     1.450   0.2103        372     111.6216
 4.85   1534.8787  23.5039     65.83472    113.2209  19.20     1.348     1.120   1.4703        373     89.13009
 3.60   1522.7526  25.1263     14.77319   1514.9204  -8.52     1.603     1.427   5.9705        374     81.21884
 5.48   1520.4866  18.9877     4216.267    587.4318 -45.64     2.188     1.674   0.0356        375     138.3602
 5.10   1509.5151  23.6861     55.66211    525.4976 -21.54     0.945     0.893   1.3748        376     70.46352
 3.50    849.8386  18.5217     6476.158    214.7959 -89.16     2.086     2.009   0.0180        377     107.5249
 3.50    873.5165  21.2597     520.1508    448.0450  54.34     1.699     1.602   0.1802        378     86.29984
 5.10   1460.2817  19.1271     3708.027    123.9003 -73.87     1.447     1.419   0.0331        379     113.0989
 3.89   1504.7812  23.9150     45.08105   1361.0045  -3.68     1.441     1.306   1.9247        380     79.89812
 4.77    862.8785  24.9839     16.84387    655.4520  10.53     1.004     0.867   4.3100        381     66.84756
 4.40    875.8676  21.9331     279.7313   1085.1508  -7.33     1.491     1.353   0.3626        382     93.40452
 0.00   1473.4630  99.0000    -43.87988    568.0322 -59.21     1.056     1.047  99.0000        383     129.6551
 3.89    864.6418  25.2508     13.17322    523.1866 -14.76     1.130     1.039   5.2419        384     63.58472
 4.51   1473.0681  22.3484     190.8313   1563.4991  15.07     2.439     2.174   0.8812        385     154.8366
 9.04   1483.5951  24.1153     37.48853    831.2081 -18.79     0.762     0.449   2.2493        386     77.64702
 4.02   1462.1167  23.3488     75.94067    597.6520  -7.33     1.521     1.215   1.1677        387     81.65434
 0.00   1482.0107  99.0000    -31.69287   1409.4650 -87.70     1.119     0.930  99.0000        388     51.91671
 0.00   1480.3177  99.0000    -108.2961     23.5609 -30.65     0.938     0.537  99.0000        389     84.22002
 6.35   1433.6267  27.0651     2.477295    891.0014 -21.66     1.277     0.953  45.5186        390     103.8334
 0.00   1471.6377  99.0000    -163.5118   1550.5687  -7.35     1.047     0.641  99.0000        391     93.02405
 5.04   1410.3209  22.8303     122.4233   1507.6195 -53.65     0.967     0.869   0.6161        392     69.44961
 0.00   1396.3572  99.0000    -49.64294    558.1595 -53.28     1.109     0.913  99.0000        393     102.8036
 3.50   1464.3440  23.7605     51.97693    882.2447   2.22     1.485     1.255   1.4827        394     70.96505
 0.00   1454.9135  99.0000    -92.89673    717.7418  89.13     1.675     1.547  99.0000        395     114.8608
 3.50   1464.5929  23.6594     57.04785    222.6826  82.83     1.026     0.645   0.7854        396     41.25921
 6.65   1467.0140  23.0809     97.19067     55.5362 -53.29     1.517     1.263   1.5348        397     137.3587
 7.00   1472.4838  28.8478    0.4796143   1213.5007 -43.03     0.502     0.498 107.8768        398     47.64204
 3.50   1461.2921  18.9128     4517.377    251.0937   1.15     2.202     2.129   0.0273        399      113.619
 3.50   1465.8066  17.9116     11359.68    533.8480  73.53     2.604     2.391   0.0125        400     130.4731
 3.87   1451.3909  24.9650     17.14014   1206.5895 -40.76     1.049     0.842   3.4582        401     54.58081
 0.00    887.7533  99.0000     -72.5426    689.4931 -73.17     1.761     1.318  99.0000        402     97.12727
 3.50    879.7380  17.2681     20547.12    165.7873 -75.27     2.291     2.231   0.0062        403     118.2084
 5.83   1454.0531  23.7568     52.15161   1034.4991  89.46     0.795     0.500   1.1633        404     55.86524
 3.50    862.1480  15.1033       150894   1395.6820 -50.46     4.386     4.092   0.0016        405     221.8682
 4.23    867.5311  26.6212     3.728271   1057.9016  57.14     1.167     0.815  17.6905        406     60.73192
 4.68   1417.8381  22.4373     175.8275    691.1601  80.33     2.607     2.052   0.9965        407     161.3423
 5.12    895.6939  23.3885      73.2124   1171.3042  45.11     0.552     0.345   0.4997        408     33.68801
 4.31    900.5183  24.2795     32.22632    299.5195 -45.08     0.508     0.492   1.0992        409     32.61827
 4.13   1438.8507  25.0402      15.9928    959.9644  50.16     1.434     1.195   5.5448        410     81.65434
 7.64   1419.5228  23.1965     87.37402   1083.0508  31.94     1.422     0.938   1.6217        411     130.4731
 3.55   1419.7631  21.1991     550.0118   1049.8881 -25.01     1.909     1.715   0.1896        412      96.0256
 7.57   1390.4725  23.8927     46.01733    805.4818 -40.25     0.501     0.498   1.3184        413     55.86524
 0.00   1425.6345  99.0000    -15.07129    837.3907 -47.92     1.018     0.876  99.0000        414     76.72809
 4.10   1413.1150  19.5716     2462.355    966.2263 -15.41     1.850     1.510   0.0559        415     126.6446
 3.50   1415.7566  18.8679     4708.171    953.6645 -38.58     2.233     2.178   0.0267        416     115.7834
 6.93   1388.0636  22.0183     258.6351    402.1930 -88.50     1.402     1.095   0.5386        417     128.2801
 3.50   1384.8019  18.2140     8598.139    907.4203 -43.53     2.302     2.269   0.0151        418     119.6991
 5.71   1404.0055  24.4011     28.81189    754.0024  48.42     1.513     1.204   4.2826        419      113.619
 0.00    905.8369  99.0000    -183.6401   1518.7594  60.60     1.419     0.767  99.0000        420      112.993
 3.50   1371.6240  22.7088      136.922   1249.4401   5.81     1.274     1.008   0.4531        421      57.1208
 6.53    920.5975  22.7747     128.8639    854.4276  57.35     1.085     0.947   0.8277        422     98.21658
 4.59   1366.4231  23.6914     55.39087    332.8526  58.06     1.508     1.443   1.9746        423     100.7125
 4.10    916.5317  22.6102     149.9402   1146.2092 -33.66     1.482     1.187   0.5851        424     80.78101
 3.50   1398.2227  17.3556     18956.21    899.3804  55.11     2.059     2.021   0.0139        425     242.6625
 3.50   1307.5990  20.9717     678.1185    133.4513  29.25     1.825     1.703   0.1471        426     91.87319
 4.29    915.4589  21.1088     597.6761    936.3211  82.71     2.810     2.016   0.2772        427     152.5289
 3.50   1348.5779  24.0449     39.99805    206.7708  18.76     0.723     0.460   0.8556        428     31.51225
 0.00   1376.2065  99.0000    -20.78137    522.3862 -33.82     0.717     0.647  99.0000        429      74.3811
 4.62    921.2342  26.0380     6.379639    225.2704  21.61     0.965     0.827  10.5353        430     61.88882
 0.00   1376.1886  99.0000    -113.0736    568.6592  33.54     2.026     1.514  99.0000        431     138.1311
 6.10   1381.5914  23.6308     58.57202    940.4048 -46.23     1.020     0.859   1.6001        432     86.29984
 6.56   1369.0570  24.1577     36.05151   1364.4938 -89.04     0.792     0.500   1.8643        433     61.88882
 4.10    922.6752  21.9310     280.2733    506.2149  46.75     1.555     1.449   0.3515        434     90.70773
 3.50   1366.7965  19.5352     2546.366   1439.1449 -11.98     2.141     2.043   0.0468        435     109.8095
 0.00    938.3269  99.0000    -26.31079    622.8256 -57.53     1.405     1.162  99.0000        436     113.3064
 7.13   1371.5240  23.1217     93.61169   1047.5117  18.94     0.993     0.403   0.7877        437     67.90035
 5.82    928.0559  25.2724     12.91321    856.1138 -80.37     1.242     1.086   8.4995        438      101.064
 4.16   1364.6201  23.1907     87.84485   1493.9623 -78.33     1.247     1.131   0.9136        439     73.90276
 3.50    919.0305  18.1306     9284.492    620.1516 -59.56     2.179     2.107   0.0131        440     112.3635
 3.88   1361.1562  24.9023     18.15881    521.5701 -66.89     1.373     1.303   4.6437        441     77.64702
 5.20   1364.8397  23.3495     75.89185   1175.5447   6.53     1.536     1.137   1.4612        442     102.1113
 0.00    929.1722  99.0000     -77.8114    112.3968  11.58     1.347     0.695  99.0000        443     80.34077
 5.51    926.3683  25.7241     8.518677    693.5194 -20.12     0.930     0.828   9.1735        444     71.95762
 3.50   1350.0790  22.7889     127.1904   1493.9451  55.23     1.524     1.486   0.6784        445       79.453
 4.30    934.1721  22.5386     160.1581   1019.4662  14.71     1.063     0.717   0.3745        446     55.22676
 6.19    932.8015  22.8826     116.6721    530.5983  71.19     0.752     0.450   0.5020        447     53.92712
 3.50   1311.8887  22.4175     179.0569   1231.8870 -35.25     1.778     1.456   0.5057        448     83.37357
 3.50   1244.0924  18.0841     9690.786    570.3313 -22.79     2.337     2.254   0.0134        449     119.4025
 4.13    931.8657  20.4040     1143.923    944.4788 -76.67     4.628     2.472   0.1984        450     209.0286
 4.54   1306.2303  21.8117     312.8507    724.1013 -72.57     2.117     1.572   0.4317        451     124.3494
 0.00   1331.9374  99.0000    -12.98621   1453.0000  90.00     0.842     0.289  99.0000        452     46.89172
 5.99   1301.7611  21.6568     360.8092    942.3810  28.47     1.510     1.278   0.3760        453     124.9185
 0.00    934.9901  99.0000    -36.21741    803.1639  33.05     0.809     0.504  99.0000        454     42.94395
 3.50   1248.2002  20.0986     1515.576     37.7628  78.36     1.959     1.901   0.0719        455     100.3597
 4.40   1325.2061  22.9828      106.386   1202.4988 -15.09     1.226     1.129   0.7832        456     76.72809
 6.10   1326.3965  22.9066     114.1224    702.1823  18.69     0.766     0.447   0.5132        457     53.92712
 0.00   1329.9893  99.0000    -75.99036    775.4835 -57.84     0.795     0.313  99.0000        458     60.73192
 5.15   1275.7538  23.7400     52.96863    942.2804  43.18     1.311     0.668   1.4753        459     71.95762
 6.21   1310.4795  26.8549     3.006348   1420.0291  -1.59     0.807     0.499  20.8571        460     57.73833
 3.50   1311.4575  17.6344      14663.8    923.7183 -45.83     2.407     2.300   0.0091        461     122.6262
 6.65   1303.5713  22.7784      128.424    953.4283  26.52     1.155     0.851   0.8336        462       98.577
 6.41   1258.7173  23.3923     72.96179    468.3109  39.53     1.124     0.878   1.4183        463     95.28407
 0.00   1300.9634  99.0000    -146.6115   1554.5389 -29.37     1.254     0.624  99.0000        464     83.79786
 0.00    972.1663  99.0000     -32.3689   1261.3557 -36.21     1.343     0.829  99.0000        465     85.05805
 5.05   1253.9293  23.9505     43.63232    805.5657 -58.58     0.807     0.307   0.8894        466     35.73153
 3.66   1277.4868  21.4271      445.824    260.6229   5.60     1.835     1.750   0.2384        467     97.85482
 4.50   1270.3066  23.1194     93.80786    755.5483  -5.90     1.289     1.151   0.9453        468     81.65434
 8.69   1255.3307  23.7593     52.03125   1207.6758  45.29     0.572     0.336   1.2051        469     57.73833
 0.00    974.6508  99.0000    -152.7722   1167.7118  71.62     1.331     0.927  99.0000        470     105.8629
 4.16   1278.8495  22.4884     167.7465   1141.6589 -37.54     1.558     1.437   0.5923        471     91.48636
 3.77   1275.0731  21.9227     282.4349    569.6889  32.25     1.751     1.563   0.3562        472     92.64202
 0.00   1252.0199  99.0000    -120.0322   1423.5256 -27.29     1.501     1.105  99.0000        473     126.6105
 7.47   1268.5126  23.3569        75.38   1312.4094  26.43     1.161     0.885   1.6234        474     112.6787
 3.50   1251.1924  21.2529      523.421    492.3547  12.21     1.768     1.718   0.1898        475     91.48636
 0.00    967.3333  99.0000    -18.82825    476.6846  45.86     0.569     0.337  99.0000        476       43.762
 4.17   1267.2521  23.9867     42.20081   1407.9072 -16.65     1.530     1.278   2.2731        477      88.3307
 0.00   1260.9121  99.0000    -37.71436   1422.5894 -75.42     1.349     1.057  99.0000        478     86.70982
 3.59   1234.7123  25.8575     7.533569    711.5583  59.52     1.625     1.345  11.5177        479     79.89812
 3.50   1238.3600  20.9099     717.8888   1246.0221 -14.32     1.855     1.784   0.1436        480     94.91114
 3.50    936.5521  20.7033     868.3411    842.1199  74.45     1.720     1.673   0.1100        481     87.92828
 3.74   1241.5107  21.2196     539.6942    865.0555  66.92     1.791     1.630   0.1925        482     95.65556
 3.50   1228.7976  19.3450     3033.955   1333.7159 -77.34     2.063     2.021   0.0384        483     107.1946
 4.52   1178.4353  21.1026     601.1105   1464.3932  -0.53     3.511     1.725   0.3013        484     166.7471
 0.00   1232.8136  99.0000    -188.7981   1542.4172 -40.92     1.187     1.079  99.0000        485     110.4535
 3.50   1236.9219  20.2913      1269.07    384.1447 -87.38     1.968     1.917   0.0862        486     100.7125
 0.00    943.6912  99.0000    -15.27136    869.3198  44.41     0.561     0.342  99.0000        487     20.62961
 3.50   1213.9702  17.1611     22675.34   1194.7819 -41.78     2.461     2.334   0.0060        488      125.485
 0.00   1234.2408  99.0000    -180.0446   1465.8170  18.76     1.092     0.905  99.0000        489     89.13009
 3.50   1228.7915  21.6574     360.6224    319.0116  26.13     1.803     1.719   0.2801        490     93.02405
 8.74    958.4910  23.3475     76.03491   1350.4940 -44.86     0.504     0.495   0.9318        491     65.23655
 6.31   1128.9634  23.2722     81.49255   1354.0076 -43.37     0.916     0.531   0.8766        492     65.77794
 0.00   1219.7965  99.0000    -41.26245    904.7841  44.69     0.931     0.457  99.0000        493     79.00538
 3.50   1205.4482  23.7918     50.49829    117.0941  22.46     1.346     1.253   1.4376        494     66.84756
 5.19   1208.4337  22.3588     189.0087    490.4267  87.59     2.133     1.345   0.7559        495     131.5559
 4.62   1224.3573  23.8221     49.11096    425.1234   5.03     1.454     1.301   2.1152        496     95.65556
 5.35    974.3796  22.7981     126.1073    282.6032   0.53     0.960     0.681   0.5571        497     64.69062
 5.18   1212.8921  22.9041     114.3854   1112.3815  56.57     1.345     0.839   0.7711        498     81.21884
 0.00   1188.6272  99.0000    -347.8643    585.7938  52.61     2.463     1.577  99.0000        499      208.519
 6.07   1199.9415  25.7586     8.252319    834.9534  46.02     0.909     0.534   8.2940        500     63.02449
 3.50   1193.6270  19.5528      2505.47   1031.1660 -11.24     2.067     2.036   0.0465        501     107.1946
 0.00   1198.4917  99.0000    -25.56616    463.5009 -18.77     0.959     0.416  99.0000        502     75.32867
 0.00   1022.6279  99.0000    -82.12561    396.6944 -47.69     0.581     0.330  99.0000        503     38.59446
 4.22   1203.2529  21.9571     273.6327   1349.7855 -12.43     1.353     1.299   0.3309        504     83.37357
 3.50    942.4642  18.7341     5325.588    689.6323  32.22     2.533     2.047   0.0243        505     119.1051
 7.41    971.1232  21.8900     291.0806    130.4357 -61.39     1.065     0.702   0.3624        506     97.12727
 6.26   1188.7766  21.5170     410.4069   1456.8196  24.64     2.192     1.385   0.4321        507     163.3087
 3.50   1178.9105  21.0721     618.2172      6.1461  48.76     1.720     1.691   0.1559        508     88.73129
 3.81   1040.5870  22.5541     157.8878     23.0064 -43.65     1.603     1.515   0.6076        509      88.3307
 3.50   1160.0333  23.8576     47.52722   1196.0551 -38.92     1.151     0.983   1.2322        510     53.92712
 0.00   1185.4515  99.0000    -101.5448    284.1159  34.06     1.307     1.197  99.0000        511     89.52711
 3.50   1153.9246  20.7372     841.6141    195.1328 -89.96     1.798     1.764   0.1195        512     92.64202
 6.85   1175.1505  22.7999     125.9066   1044.8020   1.74     1.543     0.850   1.0013        513     116.0893
 3.83   1040.1049  22.0875     242.6588   1084.2731  18.06     1.590     1.502   0.3917        514     87.52401
 6.03   1172.9836  24.0186     40.97839    848.0000  90.00     0.830     0.289   1.1811        515     44.56504
 0.00   1146.8975  99.0000     -17.8313    390.9275  63.42     1.197     0.942  99.0000        516     89.92237
 3.50   1042.6750  21.0264     644.8328    424.1342 -27.61     1.907     1.706   0.1579        517     93.78344
 3.92   1027.2858  20.8966     726.7334    607.5982  -0.54     2.937     2.334   0.2283        518     152.7613
 3.51   1139.1234  24.0021     41.60535    312.2096  46.20     1.224     1.071   1.5545        519     59.55255
 0.00   1123.6833  99.0000    -7.413208    767.2013  55.10     1.273     1.129  99.0000        520     61.88882
 6.78   1167.6044  22.9672     107.9274    432.6160 -31.44     1.285     0.777   1.0099        521     100.3597
 0.00   1150.4957  99.0000    -72.56104    484.0085 -32.41     0.788     0.317  99.0000        522     60.73192
 0.00   1141.5033  99.0000    -115.8014    430.0066 -32.03     0.799     0.313  99.0000        523     60.73192
 3.50   1130.1757  19.0470     3992.106    620.7014 -31.00     2.285     2.082   0.0313        524     115.1691
 3.50   1125.2101  20.7525     829.8391     68.9930  52.07     5.415     2.742   0.2634        525     201.2488
 4.39   1132.3076  26.9671     2.711182    292.9208 -10.90     0.738     0.664  18.7831        526     46.89172
 0.00   1078.0590  99.0000    -80.45093    856.2999 -83.86     1.492     1.167  99.0000        527     116.3944
 0.00   1074.3591  99.0000    -55.32153    142.3772  28.88     2.176     1.744  99.0000        528     128.8318
 0.00   1049.9124  99.0000    -254.9567    312.5385  88.08     1.588     1.260  99.0000        529     122.6262
 0.00   1113.2792  99.0000    -38.75977    602.0090  -4.38     0.729     0.673  99.0000        530     67.37601
 0.00   1015.5732  99.0000    -3.120728    821.2109 -51.95     0.976     0.940  99.0000        531     49.82523
 3.50   1110.8773  21.2215     538.7456   1267.7404  56.34     1.736     1.704   0.1805        532     89.52711
 0.00   1049.1709  99.0000    -186.8053    226.7189 -59.01     1.401     1.077  99.0000        533     101.4143
 4.66   1100.0394  22.0472     251.8286   1452.0444 -78.85     1.388     1.168   0.3861        534     89.52711
 3.50   1094.7350  20.2743     1289.048     15.9221 -65.02     1.808     1.768   0.0790        535     93.78344
 0.00   1064.2007  99.0000    -25.84692    531.8288   7.78     1.540     0.811  99.0000        536      112.993
 0.00   1059.7367  99.0000    -85.78149    958.4913  19.81     1.245     1.140  99.0000        537      82.9471
 0.00   1081.6238  99.0000    -16.12842    306.5401  16.03     0.965     0.794  99.0000        538     46.89172
 0.00   1079.7250  99.0000    -47.27026   1051.5647 -80.02     1.009     0.471  99.0000        539     64.69062
 4.90   1084.5737  23.1581      90.5271    386.4814   0.40     1.334     1.222   1.1068        540     92.25841
 6.78   1080.8109  26.8028     3.154175    704.9886  37.14     0.943     0.468  23.0160        541     66.84756
 7.37   1053.6665  24.2801     32.20789   1403.6602 -44.74     0.580     0.332   1.5554        542      46.1292
 0.00   1081.5771  99.0000    -105.7319   1122.1453 -25.85     1.191     1.044  99.0000        543     111.7305
 3.50   1090.1770  20.5672     984.2932    792.3015  63.20     1.883     1.847   0.1072        544     97.12727
 7.02   1091.0970  23.3659     74.75488   1428.7511  -9.67     1.161     0.723   1.4057        545     96.76144
 5.39   1093.0427  24.2205     34.02466    676.9826 -59.68     0.804     0.781   2.0648        546     64.69062
 0.00   1078.6747  99.0000    -7.887939    911.2928  46.86     0.556     0.343  99.0000        547     45.35387
 3.50   1069.8640  22.2488     209.1636     62.4995  -6.69     1.637     1.484   0.4284        548     82.51842
 0.00   1030.6969  99.0000     -31.9071    848.0089 -75.49     1.870     1.176  99.0000        549      88.3307
 6.53   1069.3798  22.9933     105.3624   1185.4484  69.10     1.737     0.719   1.1252        550     109.1616
 3.50   1057.6855  20.5443     1005.239    239.4490  84.41     1.867     1.816   0.1037        551      96.0256
 3.63   1063.6155  23.1582     90.51685    862.4768 -21.97     1.831     1.466   1.0403        552     86.70982
 4.57   1062.9104  23.4724     67.77026   1335.6189  14.61     1.008     0.727   0.9447        553     58.95401
 3.50   1011.1583  23.1202     93.74219    374.5453 -25.62     1.452     1.381   0.8562        554     73.90276
 4.31   1047.3929  20.6033     952.1011   1382.6086 -68.67     3.761     2.809   0.2392        555     209.7062
 4.70   1053.7889  26.7310     3.369873   1320.4387  85.32     1.709     1.055  30.4661        556     94.53674
 3.84   1006.3179  22.3372     192.8066   1353.1570   4.46     1.708     1.638   0.5388        557     95.65556
 0.00   1063.1918  99.0000    -64.00281    934.9999 -59.55     0.821     0.507  99.0000        558     82.51842
 3.56   1030.4066  21.5378     402.6215    766.0451 -56.04     1.688     1.629   0.2361        559     87.52401
 3.50   1036.8479  22.3648      187.972    207.8894  43.17     1.552     1.414   0.4486        560     77.64702
 3.69   1020.0496  22.4921     167.1697    502.3459 -20.93     1.648     1.467   0.5633        561     86.70982
 0.00   1035.4869  99.0000    -55.79077    622.2975 -66.71     0.932     0.821  99.0000        562     89.52711
 6.81   1029.6265  24.9222     17.82849   1367.2620 -16.37     0.721     0.458   3.5171        563     57.73833
 3.50   1021.1165  20.9508     691.3376    106.2325  40.85     1.782     1.715   0.1443        564     91.87319
 4.04   1029.1187  22.0504     251.0894    310.2960  12.18     1.667     1.531   0.4153        565      96.0256
 0.00   1009.3348  99.0000    -87.93628    219.6961  46.57     0.565     0.339  99.0000        566     47.64204
 5.23   1008.8175  23.2675     81.84607    186.4417  40.28     1.058     0.713   0.9010        567     67.90035
 3.50   1001.1121  19.2179      3410.75    997.8738  72.15     2.031     2.012   0.0335        568     105.1908
 7.40   1002.5422  25.3073     12.50525    291.9825 -63.87     1.043     0.663   7.9113        569     91.09788
 0.00    999.2411  99.0000    -36.33289   1446.3911  18.60     1.237     1.138  99.0000        570     87.11787
 3.50    995.0240  20.1582     1434.599    144.7581  70.78     1.800     1.739   0.0704        571     93.02405
 0.00    992.0427  99.0000    -72.16223   1077.4990  29.63     0.991     0.667  99.0000        572     82.51842
 3.50    986.8708  22.4859     168.1217    729.9510 -35.59     1.513     1.406   0.4956        573     76.72809
