#   1 KRON_RADIUS            Kron apertures in units of A or B                         
#   2 Y_IMAGE                Object position along y                                    [pixel]
#   3 MAG_BEST               Best of MAG_AUTO and MAG_ISOCOR                            [mag]
#   4 FLUX_BEST              Best of FLUX_AUTO and FLUX_ISOCOR                          [count]
#   5 X_IMAGE                Object position along x                                    [pixel]
#   6 THETA_IMAGE            Position angle (CCW/x)                                     [deg]
#   7 A_IMAGE                Profile RMS along major axis                               [pixel]
#   8 B_IMAGE                Profile RMS along minor axis                               [pixel]
#   9 MAGERR_BEST            RMS error for MAG_BEST                                     [mag]
#  10 NUMBER                 Running object number                                     
#  11 FLUXERR_BEST           RMS error for BEST flux                                    [count]
 4.35     53.0761  16.4717     42785.84     63.6156   3.16     4.592     4.073   0.0086          1      340.727
 3.92     16.5094  18.6611     5696.116    984.8414 -83.95     3.666     1.856   0.0354          2     185.5832
 4.22     17.7176  19.1056     3782.435     91.1998  -3.81     1.747     1.724   0.0381          3     132.6158
 3.50     14.7234  18.0727     9792.682   1445.5381 -51.67     1.979     1.966   0.0139          4     125.7272
 3.94     24.5798  20.9716     678.1824    367.1608  47.33     1.418     0.833   0.1269          5     79.25313
 3.50     59.7903  16.3876      46233.8   1078.2528  41.11     2.422     2.360   0.0036          6     152.1027
 3.50     80.1555  16.4217     44803.31    537.4584  -5.36     2.379     2.363   0.0037          7     150.7199
 4.41     75.1596  19.9932     1670.051    127.4336  -3.96     1.642     1.477   0.0807          8     124.0508
 3.50    121.7140  15.9929     66505.84    788.9751 -30.72     2.477     2.450   0.0025          9     155.8421
 7.55     82.2019  21.5721     390.0963    421.3208 -29.79     0.727     0.638   0.2611         10     93.77357
 4.48     96.3192  19.6061     2385.489     55.8991 -28.59     1.568     1.396   0.0545         11      119.757
 7.23     89.5114  20.5718     980.1024    376.3397 -11.82     1.109     0.883   0.1421         12     128.2008
 5.53     93.6526  23.2959     79.73315   1047.2646  49.95     0.551     0.343   0.6074         13     44.59823
 7.24    117.0107  24.2373     33.50171    452.2246 -89.50     0.672     0.417   2.2000         14     67.86832
 3.50    162.3631  16.6193     37348.94   1468.0619 -38.60     2.333     2.289   0.0043         15     146.4933
 3.74    170.3269  18.2434     8368.279    877.1562 -20.84     2.076     1.959   0.0177         16     136.5057
 6.15    164.6801  20.8105     786.6927   1445.7670   1.43     1.117     0.819   0.1488         17     107.7959
 5.98    166.7937  21.0845     611.2312    104.3359 -70.54     0.958     0.664   0.1532         18     86.21245
 8.40    169.3878  21.8805     293.6244   1367.1930  18.98     0.760     0.444   0.3211         19     86.81745
 7.81    178.4733  22.2638     206.2887    574.5372 -47.61     0.503     0.495   0.3884         20     73.78065
 6.04    192.5125  20.4004     1147.776   1350.6089 -46.13     1.345     1.047   0.1225         21     129.4198
 5.82    210.2050  18.8103     4964.413    826.7244  -9.62     3.093     2.058   0.0584         22     266.8058
 4.71    206.2772  19.9049     1811.533    548.8275  67.73     1.490     1.249   0.0699         23     116.6574
 4.28    212.2492  20.0173     1633.375   1305.9180  35.16     1.557     1.396   0.0761         24      114.392
 6.01    229.0811  18.8909     4609.388    562.2142   5.12     2.787     2.140   0.0625         25     265.2317
 3.50    259.5902  15.3349     121909.6    997.2166  -5.34     2.567     2.511   0.0014         26     161.4509
 6.36    209.5165  22.9449     110.1688   1226.4760  47.57     0.501     0.498   0.5705         27      57.8783
 8.03    209.6646  21.8495     302.1293    684.3248  45.47     0.574     0.335   0.2383         28     66.30792
 3.50    223.6874  19.9943      1668.32   1225.4329 -20.57     1.526     1.334   0.0592         29     90.93987
 3.50    265.5750  15.7251     85107.61     67.4363  23.25     2.521     2.500   0.0021         30     161.1264
 6.86    222.0241  20.9686     680.0658    774.9658  42.61     0.796     0.776   0.1584         31     99.19841
 5.37    243.9678  20.2267     1346.898    112.7747  60.17     1.669     1.178   0.1101         32     136.5057
 4.20    255.0830  19.0792     3875.412    612.6425 -10.07     2.406     1.927   0.0459         33     163.7046
 3.50    287.4959  17.3150     19678.93   1486.1455 -21.89     2.200     2.111   0.0075         34     136.1217
 3.93    281.9188  18.9618     4317.872   1521.9924  -7.51     1.742     1.687   0.0308         35     122.3514
 3.64    302.7955  17.6305     14716.93    201.6064 -18.90     2.147     2.093   0.0104         36      141.032
 6.75    292.7825  20.5555     994.9463   1476.2543 -33.47     0.967     0.830   0.1187         37     108.7627
 3.64    321.6673  18.0670     9844.913    697.1133   7.98     2.136     2.026   0.0151         38     137.2704
 5.58    301.8019  21.0349     639.7925    562.6378  12.84     1.362     0.775   0.1771         39     104.3416
 6.42    327.4525  19.8047     1986.723    595.1927 -74.56     1.521     1.295   0.0893         40     163.3845
 8.75    322.3300  21.0124     653.2092    639.1661 -12.92     1.100     0.411   0.1768         41     106.3292
 3.88    367.7903  18.0439     10056.06    760.9296 -31.18     2.118     1.987   0.0156         42     144.3336
 4.50    349.5560  20.8695     745.0507     54.4217  -8.97     1.724     1.072   0.1641         43     112.5469
 4.28    360.8574  19.9389     1755.656   1500.1417  26.84     1.559     1.376   0.0710         44     114.8487
 3.50    394.8527  16.3171     49334.75    231.3119  56.18     2.481     2.350   0.0034         45     153.8137
 6.36    380.3160  21.4741      426.915      1.4190  87.34     1.266     0.490   0.1930         46      75.8791
 3.50    397.7925  18.3453     7618.521    354.3903  50.55     2.040     1.913   0.0179         47     125.3102
 3.61    396.8803  18.4696      6794.64   1460.9519  11.57     1.997     1.799   0.0200         48     124.8918
 4.30    393.7094  20.0526     1581.133   1088.5785  72.26     1.476     1.300   0.0737         49     107.3092
 5.73    413.0342  20.5699     981.8434      1.8160  86.56     2.186     0.875   0.1285         50     116.2079
 9.08    395.7974  21.3069     498.0201    626.4155 -71.76     0.761     0.454   0.2081         51      95.4334
 3.50    437.5338  17.5520     15819.42    251.9062  -3.41     2.185     2.125   0.0093         52     136.1217
 5.68    420.2739  20.5938     960.4413    159.0850  -7.92     1.694     1.092   0.1582         53     139.9141
 3.50    460.6571  15.1819     140363.2    807.4001  -6.26     2.604     2.515   0.0013         54     163.0638
 5.04    432.4406  20.4041     1143.819   1422.1628  47.40     1.444     1.265   0.1082         55     113.9473
 7.71    427.1245  21.8198     310.5258    433.6820   0.98     1.559     0.329   0.1626         56     46.49479
 4.23    449.6169  18.7303     5344.279     21.3220 -74.14     1.977     1.846   0.0298         57     146.8502
 5.08    439.7754  21.2695     515.4636    305.7711  44.23     1.065     0.762   0.1751         58     83.12138
 6.34    444.2969  20.7264     850.0388    122.5360 -53.60     1.247     0.856   0.1496         59     117.1053
 4.31    457.3157  18.6292     5865.944     34.5039 -50.59     1.926     1.899   0.0275         60     148.6216
 5.20    467.2097  18.3646     7484.664    849.8481  22.62     5.042     1.902   0.0424         61     291.9127
 4.99    463.3731  19.9792     1691.735    468.0524 -11.48     1.585     1.487   0.0886         62      138.031
 4.76    471.5055  19.7279     2132.339    734.9928  75.93     1.661     1.558   0.0716         63     140.6604
 4.64    470.9930  20.0758     1547.747    254.0508  81.26     1.580     1.381   0.0879         64     125.3102
 4.57    477.6005  19.4097     2858.419    922.8333 -26.05     1.755     1.553   0.0513         65     134.9632
 3.50    477.5716  20.6262     932.2125   1276.2678 -70.77     1.351     1.163   0.0931         66     79.91084
 4.56    483.7100  20.3470     1205.549   1070.1748 -64.27     1.311     1.252   0.0949         67     105.3401
 5.73    495.4494  19.5504     2511.011     82.4905  59.85     2.032     1.487   0.0782         68     180.7249
 7.37    494.2784  19.7394     2109.878   1189.0267 -57.81     2.135     1.255   0.1126         69     218.7252
 7.61    481.4957  22.5013     165.7566    682.4514  76.42     0.500     0.497   0.4644         70     70.88615
 4.66    530.8340  18.1510     9111.812    519.0797  23.79     4.232     2.365   0.0267         71     224.0727
 9.16    491.5052  21.3607     473.9534    840.4949  44.99     0.502     0.498   0.1933         72      84.3714
 6.86    502.8146  20.4072     1140.541    762.1321 -76.49     1.438     1.154   0.1522         73     159.8217
 5.62    514.6791  19.3088     3136.686   1460.5062  33.08     2.939     1.497   0.0742         74     214.3745
 4.87    501.1110  21.2769     511.9551    863.8115  56.72     0.984     0.798   0.1653         75     77.92105
 6.18    513.5325  20.8641     748.7936   1178.6989 -75.50     1.119     0.911   0.1646         76     113.4732
 8.11    518.3926  21.3980     457.9242    642.0172  -0.38     0.893     0.488   0.2315         77     97.60262
 3.55    539.9919  20.1610     1430.907    999.8556 -16.36     1.458     1.302   0.0668         78     88.01499
 3.84    558.5294  19.6988     2190.144   1041.7600 -40.61     1.726     1.463   0.0546         79      110.197
 3.82    580.0692  18.1135     9432.088    144.9193  80.66     2.006     1.926   0.0157         80     136.5057
 3.72    581.6051  18.1103     9459.828    319.2840  81.21     2.067     1.963   0.0156         81     136.1217
 4.91    570.6909  19.9876     1678.674     45.6481  49.17     1.819     1.369   0.0910         82     140.6604
 0.00    558.4872  99.0000    -39.97351   1014.4709  50.10     0.501     0.498  99.0000         83     67.86832
 6.25    570.2560  20.2393     1331.318   1446.6609 -13.69     1.872     1.116   0.1335         84     163.7046
 5.59    596.4774  18.5484     6318.992    782.5620 -63.92     3.171     2.585   0.0498         85     289.9336
 5.59    583.8234  21.1212      590.916     75.9971  82.67     0.951     0.748   0.1596         86     86.81745
 4.89   1001.2191  19.4638     2719.545    542.7368 -86.65     1.811     1.613   0.0607         87     152.1027
 5.10   1598.1549  21.0238     646.3673    654.4977 -59.77     1.563     0.709   0.1354         88     80.56319
 7.18   1599.7539  22.7247     134.9324     18.0441   2.33     0.673     0.430   0.4585         89     56.96678
 0.00   1576.4854  99.0000    -6.165161    157.4998  44.55     0.507     0.493  99.0000         90     66.30792
 3.82   1552.1312  17.1071     23831.81    682.1388 -11.09     4.029     3.595   0.0120         91     263.6482
 7.60   1545.4729  20.7850     805.3455    863.4920   0.17     1.075     0.499   0.1366         92      101.287
 3.71   1541.9044  19.7143     2159.177    654.4996 -86.72     1.636     1.370   0.0507         93     100.7689
 4.83   1541.2513  19.2604     3279.813    134.9763  52.87     1.723     1.649   0.0487         94     147.2062
 4.74    938.7365  19.9404     1753.296   1066.8510 -66.13     1.671     1.491   0.0841         95     135.7366
 5.75    928.1341  20.5669     984.5239   1322.7537  13.67     1.378     1.096   0.1419         96     128.6084
 5.49    912.6265  20.7835     806.4896    838.8096 -85.83     1.382     0.831   0.1432         97     106.3292
 8.10    911.2211  21.6025     379.3069   1000.4026  71.65     0.744     0.454   0.2468         98     86.21245
 3.60    899.9008  18.6538     5734.045    302.8005  34.11     1.968     1.814   0.0216         99     114.2857
 5.17    896.1798  20.2629      1302.66    538.6572 -20.99     1.596     1.272   0.1106        100     132.6158
 3.50    880.0001  15.4189     112837.4   1592.3890  67.93     2.579     2.485   0.0015        101     158.8361
 7.77    888.5492  20.7571     826.3179    326.2952  31.43     0.996     0.689   0.1539        102     117.1053
 6.98    885.5248  20.9489     692.5602   1499.8888   3.37     1.025     0.930   0.1925        103     122.7784
 6.56    876.4882  21.6227     372.3397    960.7388  68.84     1.145     0.537   0.2686        104     92.08382
 7.42    875.6602  22.3179     196.2576    543.2203 -14.94     0.752     0.447   0.4312        105     77.92105
 4.02    869.0720  19.5745     2455.878   1102.9993   6.93     1.826     1.786   0.0592        106     133.7947
 9.60    867.4836  20.9548      688.777    937.5118 -43.88     0.501     0.498   0.1406        107     89.19646
 6.99    858.3290  20.8176     781.5529   1340.0992 -26.27     0.848     0.602   0.1140        108      82.0376
 6.85    844.8875  21.3176     493.1387   1063.5880  26.83     1.092     0.575   0.2126        109     96.52411
 5.29    842.8666  20.5199     1028.121   1106.3442 -12.73     1.420     1.251   0.1337        110     126.5571
 5.46    836.3758  20.2062     1372.461    298.4915 -47.33     1.460     1.317   0.1086        111     137.2704
 7.30    832.0208  25.6340     9.255737    102.6931  61.96     0.895     0.214   6.5754        112     56.04042
 3.50    822.4543  18.5470     6326.808    654.3831  60.36     2.010     1.887   0.0214        113     124.8918
 3.85    802.8201  18.6761     5617.546   1378.5322  80.47     1.905     1.844   0.0253        114     131.0276
 3.50    798.0511  17.4684     17086.64    695.6246  87.04     2.676     2.132   0.0097        115     152.4464
 3.97    800.0858  19.4986     2633.672     41.1827  84.96     1.738     1.594   0.0490        116     118.8797
 3.83    773.9717  19.5854     2431.212   1427.2469  86.26     2.525     1.713   0.0648        117     145.0571
 4.11    742.2826  20.2077      1370.61    556.6755 -32.45     1.593     1.423   0.0892        118     112.5469
 3.50    739.2837  25.3695     11.80835   1025.6288  40.92     0.570     0.335   2.3049        119     25.06204
 5.75    737.3004  21.2984     501.9132   1157.4828  55.04     1.079     0.817   0.2100        120     97.06487
 6.45    735.8962  21.0703     619.2887    649.7789  27.60     0.990     0.767   0.1794        121     102.3154
 3.50    726.2197  15.9878     66816.88    848.3931   9.61     2.486     2.436   0.0025        122     156.1776
 5.53    726.7856  20.5992     955.6736   1178.2944  53.55     1.179     1.157   0.1346        123     118.4386
 7.35    720.5074  21.9500     275.4265   1395.0264  -3.24     0.780     0.499   0.3351        124     84.98952
 4.62    715.3133  20.2117      1365.58    808.2141  -2.95     1.457     1.192   0.0876        125      110.197
 4.12    708.3894  20.3791     1170.437   1163.8232  76.10     1.459     1.173   0.0906        126     97.60262
 5.31    704.0020  20.1929     1389.447   1339.0176  55.46     1.726     1.530   0.0968        127     123.8809
 3.61    702.1442  19.7315     2125.278    952.2445 -41.71     1.611     1.467   0.0518        128      101.287
 7.63    699.2137  21.4240     447.0789    583.4163  71.29     0.761     0.452   0.1973        129     81.21029
 8.44    687.0834  20.7731     814.2765   1213.1517  66.70     0.965     0.767   0.1748        130     131.0276
 4.78    685.1599  19.7958     2003.018    644.3717 -63.46     1.616     1.437   0.0723        131     133.4029
 3.50    648.0245  15.9971     66243.16   1464.2267 -70.60     2.440     2.433   0.0025        132     155.5059
 5.91    654.3413  21.4567     433.8431    870.4225 -81.46     1.001     0.476   0.1865        133      74.4867
 7.57    644.4534  21.7328     336.4128    653.3862 -25.38     1.539     0.624   0.4344        134     134.5748
 5.86    630.8973  21.0382     637.8225    805.9020 -18.33     1.317     0.649   0.1698        135     99.72467
 4.60    623.1654  20.6632      900.975   1581.1930 -26.50     1.169     1.109   0.1137        136     94.33009
 3.50   1563.1940  16.1475     57678.52    304.0516  19.62     2.354     2.291   0.0028        137     147.9156
 3.50   1557.4763  16.1549     57285.88    487.5990  72.45     2.428     2.382   0.0029        138     150.3722
 3.50   1560.4519  20.9425     696.6184    861.2052 -47.68     1.353     1.039   0.1161        139      74.4867
 4.31   1584.6047  20.4739     1072.619   1108.8656 -28.62     1.251     1.143   0.0955        140     94.33009
 4.62   1569.9062  20.0495     1585.661     92.4829  -9.49     1.383     1.314   0.0771        141     112.5469
 4.99   1565.8108  20.0689     1557.498    784.5759 -57.96     1.744     1.420   0.0989        142     141.7723
 7.47   1551.3224  21.8108     313.0845   1221.6764  44.93     0.568     0.338   0.2069        143     59.65959
 4.61   1565.9939  19.6979       2191.9     21.9316  76.93     1.520     1.364   0.0596        144     120.1933
 7.35    950.0664  20.9959     663.1775    654.0156   0.14     1.327     0.754   0.2191        145     133.7947
 3.63   1025.4348  17.3569     18933.12   1379.8235  79.28     2.325     2.195   0.0085        146     147.9156
 5.73   1503.9285  20.8812     737.0685    723.1745 -28.62     0.960     0.740   0.1297        147     88.01499
 3.66   1514.2578  18.3518     7573.189    392.6544 -56.78     2.029     1.934   0.0189        148     131.8241
 3.50   1506.6610  16.8260     30873.93    269.2816   8.82     2.292     2.250   0.0051        149     144.6958
 7.13    986.4722  19.8938     1830.053    453.7448 -32.90     1.763     1.184   0.1111        150     187.2678
 6.08    980.7255  20.6537     908.9181    798.3164  25.80     1.282     0.986   0.1482        151     124.0508
 6.03   1071.5354  19.9241     1779.714   1219.0240  65.44     1.823     1.711   0.1186        152     194.3992
 8.26   1064.9005  20.4712     1075.308   1562.6733 -71.30     1.336     0.719   0.1479        153     146.4933
 3.50    984.3661  16.8990     28867.08    558.4333  72.42     2.386     2.297   0.0056        154     148.6216
 3.50   1094.5245  16.8980     28894.11    778.2376  55.02     2.418     2.168   0.0055        155     146.7827
 3.97   1038.1735  18.2434     8368.175    525.4780 -48.22     2.105     2.019   0.0192        156      148.269
 6.73   1110.6647  20.0339     1608.553    479.4353  30.02     1.934     1.115   0.1208        157     178.9788
 3.54   1106.9893  18.5144     6519.834    428.0913  39.79     2.033     1.866   0.0207        158     124.0508
 4.90   1128.2218  21.2263     536.3765    546.8216  61.28     1.009     0.659   0.1465        159     72.34788
 0.00   1119.3601  99.0000      -35.151    397.7130  48.56     0.567     0.337  99.0000        160     43.40873
 3.91   1272.1913  17.7467     13222.36    610.1705 -49.23     3.893     2.566   0.0184        161     224.3951
 4.81   1407.6844  19.6041      2389.79    308.3306 -51.13     1.645     1.548   0.0636        162     139.9141
 6.32   1129.6849  21.0923     606.8661    219.3333  30.42     1.245     0.877   0.2135        163     119.3192
 3.90   1388.4165  18.4052     7209.473   1428.3680  60.07     2.071     1.909   0.0212        164      141.032
 3.99   1391.9753  20.2064     1372.217   1038.7365  55.07     1.559     1.385   0.0830        165      104.842
 3.50   1439.2206  19.6639      2261.75    619.1802   4.29     1.620     1.426   0.0461        166     95.98031
 5.18   1414.9738  20.0237     1623.799   1386.3202  63.84     1.565     1.257   0.0882        167     131.8241
 3.59   1435.6067  15.6568     90634.12   1088.5908  45.91     2.636     1.592   0.0016        168     137.3602
 8.09   1405.5098  21.9255     281.6987    330.4528  50.22     0.505     0.493   0.2844        169     73.78065
 4.34   1434.5785  19.2449     3326.926    224.6958  43.70     1.844     1.673   0.0452        170     138.4096
 7.47   1411.0862  21.1363     582.7678    349.8971 -70.30     1.152     0.756   0.2343        171     125.7272
 3.50   1392.8612  15.8104     78672.36    114.4540 -77.22     2.511     2.457   0.0022        172     156.8465
 3.97   1307.2772  19.4643     2718.093    669.2149 -26.56     1.867     1.542   0.0491        173     122.7784
 3.50   1298.0420  14.8726     186617.2    724.8973 -12.40     2.702     2.642   0.0010        174     171.2063
 6.27   1293.0175  20.1794      1406.83    741.9868 -46.93     1.577     1.350   0.1033        175     133.7673
 4.59   1389.9966  19.5715     2462.667    713.2720  29.41     1.727     1.453   0.0578        176     131.0276
 5.06   1399.9536  20.7468     834.2235   1031.1112 -26.12     1.309     0.970   0.1365        177      104.842
 4.00   1372.0980  18.2215     8538.525   1018.8559  59.61     2.008     1.933   0.0180        178     141.7723
 3.50   1319.6676  16.8868     29191.85    659.9767 -65.13     2.297     2.269   0.0055        179     146.6572
 7.00   1330.3043  22.3809     185.1923    387.0521 -27.56     0.908     0.211   0.3118        180     53.16462
 3.50   1331.8578  20.9660     681.7064    107.4655 -45.16     1.456     1.056   0.1231        181      77.2464
 7.21   1318.9254  21.4460     438.1432    264.3366  34.92     1.005     0.850   0.3011        182     121.4927
 6.12   1303.9280  20.9169     713.2328    892.9083 -83.48     1.292     0.766   0.1663        183     109.2429
 4.30   1329.3556  19.2754     3234.666    656.0063  67.05     1.905     1.717   0.0370        184      110.336
 3.77   1277.7059  19.0460     3995.905   1331.2184  21.58     1.875     1.678   0.0329        185     121.0612
 3.94   1291.0112  18.4909     6662.256    761.9792 -35.98     2.180     1.856   0.0235        186     143.9705
 6.15   1293.2135  20.8656     747.7571    412.4548  86.74     1.495     0.894   0.1850        187     127.3816
 3.74   1265.0043  19.3062     3144.314    807.6888  59.02     1.733     1.652   0.0398        188     115.3035
 7.06   1259.2908  20.3003     1258.523    431.8992  30.23     1.643     1.229   0.1562        189     181.0143
 3.50   1210.1118  17.6809     14049.35   1278.8019  88.29     4.964     3.160   0.0195        190     251.6625
 3.65   1214.2184  17.6698     14193.68    513.1102 -51.82     2.217     2.114   0.0109        191      142.141
 3.90   1233.8926  19.5582     2492.873    304.5956  31.96     1.657     1.489   0.0482        192      110.671
 4.62   1236.6970  20.0712     1554.207   1553.3053  -1.58     1.445     1.336   0.0812        193     116.2079
 6.42   1211.9081  20.0951     1520.422   1429.0969  78.32     1.813     1.390   0.1324        194      185.301
 4.06   1218.5441  18.1264     9320.257   1194.7987  -4.67     2.073     2.006   0.0175        195     150.3722
 7.08   1230.3762  21.0731     617.7023    599.4181 -45.48     1.002     0.527   0.1639        196     93.21372
 3.73   1206.8634  20.2288     1344.302    838.8547  70.52     1.321     1.271   0.0701        197     86.81745
 4.43   1150.4622  20.2232     1351.173     99.7157 -34.18     1.473     1.324   0.0905        198     112.5469
 7.11   1200.6940  20.5520     998.1244   1441.8871  44.78     1.428     0.876   0.1562        199     143.6064
 3.50   1138.0439  16.8331     30672.45    148.1240  57.72     2.421     2.385   0.0054        200     153.1316
 5.21   1201.4369  20.1587     1433.955    339.2401  -9.48     1.688     1.359   0.1082        201     142.8756
 6.99   1194.0789  20.0252     1621.495    124.1462 -33.12     1.339     1.252   0.1099        202      164.024
 5.95   1180.7050  21.2251      536.998    549.8160  69.40     1.110     0.687   0.1930        203      95.4334
 4.00   1157.3177  18.6744     5626.314    236.5814 -70.77     1.936     1.902   0.0269        204     139.5395
 3.50   1129.5725  17.5471     15891.45    183.6764  60.56     2.186     2.166   0.0095        205     138.4096
 7.64   1153.6528  20.6785     888.3954   1353.2083   3.41     1.214     0.828   0.1701        206     139.1639
 3.50   1164.8154  16.3157     49399.07   1299.7313  40.42     2.486     2.361   0.0034        207      153.473
 4.43   1160.6956  21.7010     346.4308    887.7303  89.68     1.154     0.833   0.2464        208     78.58991
 3.93   1081.3717  18.1362     9236.746   1148.1642  64.42     2.148     1.996   0.0173        209     146.8502
 5.67   1119.9269  19.5636     2480.524    329.8070  55.72     2.342     1.684   0.0893        210     203.8619
 7.48   1079.2484  21.7662     326.2222    329.6721  33.81     1.151     0.897   0.4595        211      138.031
 0.00   1101.6981  99.0000    -32.48474   1041.6503 -42.75     0.570     0.336  99.0000        212     53.16462
 5.87   1094.8972  20.8406     765.1439   1527.0699 -16.66     1.182     0.964   0.1604        213      113.011
 3.50   1039.8938  16.4900     42071.07    633.0271  41.25     2.469     2.365   0.0040        214     154.1536
 3.50   1079.5071  16.7776     32281.09    512.2222   7.59     2.384     2.315   0.0050        215     148.9734
 7.95   1066.9757  22.0314     255.5319   1471.9790 -42.32     0.852     0.488   0.4009        216     94.33009
 7.03   1029.6747  19.8672     1875.459    302.5821  47.81     1.746     1.559   0.1217        217     210.1827
 3.59   1009.4153  17.5273     16183.97    813.7350  84.07     2.230     2.127   0.0095        218      142.141
 6.31    999.7606  20.8468     760.8091   1274.2617  -7.20     1.566     0.934   0.1976        219     138.4096
 5.24   1010.8171  19.5691     2468.179    344.9009  11.39     1.648     1.521   0.0662        220     150.3722
 5.24   1001.8608  20.3715     1178.705   1555.3735  74.32     1.855     1.153   0.1279        221     138.7873
