#   1 KRON_RADIUS            Kron apertures in units of A or B                         
#   2 Y_IMAGE                Object position along y                                    [pixel]
#   3 MAG_BEST               Best of MAG_AUTO and MAG_ISOCOR                            [mag]
#   4 FLUX_BEST              Best of FLUX_AUTO and FLUX_ISOCOR                          [count]
#   5 X_IMAGE                Object position along x                                    [pixel]
#   6 THETA_IMAGE            Position angle (CCW/x)                                     [deg]
#   7 A_IMAGE                Profile RMS along major axis                               [pixel]
#   8 B_IMAGE                Profile RMS along minor axis                               [pixel]
#   9 MAGERR_BEST            RMS error for MAG_BEST                                     [mag]
#  10 NUMBER                 Running object number                                     
#  11 FLUXERR_BEST           RMS error for BEST flux                                    [count]
 3.50    183.5872  13.0958       958712   1107.5574 -24.92     5.235     4.880   0.0002          1     171.5191
 4.07     54.7853  16.4430      43933.5     63.6141  10.86     5.365     4.865   0.0050          2     202.1742
 4.05     18.2255  18.6096     5972.606    984.9714 -89.63     4.233     2.082   0.0213          3     116.9392
 4.10     19.4714  19.1069     3777.646     91.2174 -50.22     1.811     1.786   0.0205          4     71.40068
 3.50     16.2575  18.0599     9909.256   1445.6405  10.92     2.069     1.951   0.0075          5     68.39749
 5.88      5.8206  21.8107     313.1227    145.2244  -0.38     1.171     0.700   0.1782          6     51.37114
 3.50     61.4053  16.3865     46280.12   1078.3888  59.86     2.432     2.332   0.0019          7     80.29659
 7.12     11.4046  22.7314     134.1003   1183.2153  19.10     0.760     0.448   0.3198          8     39.48931
 5.38     19.2027  21.5034     415.5513    384.3959  18.99     1.234     0.891   0.1431          9     54.76182
 6.15     26.2155  20.4852     1061.489    366.8643  22.58     1.520     1.276   0.0850         10     83.05042
 8.12     25.4832  21.2773     511.7942    382.6800  34.63     1.089     0.824   0.1576         11     74.28255
 6.45     36.5190  21.2790     510.9773   1110.6578 -49.38     1.297     0.966   0.1486         12     69.91521
 6.19     34.8941  21.0045     657.9388    326.7798  -6.17     1.759     1.173   0.1423         13       86.239
 3.50     81.5319  16.4209     44838.84    537.4344 -10.68     2.423     2.339   0.0019         14     80.29659
 6.57     40.7102  22.0909     241.9064   1170.5585  40.85     1.270     0.507   0.2306         15     51.37114
 5.84     40.0144  22.3059      198.442   1521.2733  85.98     0.741     0.661   0.2243         16     40.97999
 5.96     44.3193  21.8114      312.933    915.1636 -57.46     1.037     0.830   0.1881         17     54.21144
 8.83     45.6943  21.9891     265.6788    440.3448  43.15     0.570     0.337   0.1551         18      37.9401
 3.86     76.6940  20.0305     1613.629    128.1458 -36.54     1.719     1.565   0.0414         19     61.46999
 6.41     91.3006  20.0991     1514.785    376.7003  59.94     2.278     1.590   0.0850         20     118.5944
 5.67     84.3876  21.3730     468.6173    421.1942 -71.73     1.543     1.097   0.1650         21     71.19037
 3.50    123.3941  15.9909     66623.95    788.9817   1.93     2.490     2.407   0.0013         22     82.68854
 4.29     98.1544  19.5787     2446.264     56.0174  -2.93     1.876     1.626   0.0321         23      72.2358
 6.17     99.8754  20.8773     739.7351    452.8300  11.31     1.469     1.252   0.1184         24      80.6692
 5.78     92.9686  22.0442     252.5361    495.7601  -1.84     0.890     0.757   0.1970         25     45.81702
 8.06     97.6176  22.0262     256.7535   1075.7946  18.16     0.767     0.445   0.1965         26     46.46695
 7.50    118.7651  21.9457     276.5106    990.2148  56.09     0.770     0.712   0.2140         27     54.48732
 3.50    195.1572  14.4058     286860.5    317.9610 -41.25     2.782     2.657   0.0003         28     92.28626
 3.50    163.8908  16.6167     37439.93   1468.2515 -11.43     2.301     2.243   0.0022         29     76.86188
 8.09    132.3931  22.2790     203.4232    418.1811  19.00     0.751     0.447   0.2463         30     46.14313
 3.64    171.7732  18.2338     8442.417    877.2230 -67.73     2.117     2.046   0.0095         31     73.67449
 4.14    236.5317  16.3641     47245.53    403.5941 -41.84     6.506     5.518   0.0055         32     241.3251
 6.41    148.9917  22.5860     153.3187    353.9936 -89.87     0.620     0.600   0.2602         33     36.73534
 5.04    152.7571  22.7609      130.506   1280.5729  70.56     0.724     0.458   0.2324         34     27.92316
 3.57    167.9652  21.0126     653.0602    104.0227 -78.60     1.477     1.352   0.0820         35     49.28564
 6.30    166.7165  20.4934     1053.485   1445.8739  25.89     1.482     1.386   0.0909         36     88.13081
 5.49    173.1771  20.1650     1425.562    325.4615  16.30     1.587     1.503   0.0631         37     82.86967
 6.55    161.5322  22.8932     115.5385    634.5322  45.00     0.509     0.489   0.2912         38     30.97796
 6.45    170.4766  21.6238      371.952   1368.4978   1.76     0.962     0.894   0.1722         39     58.98029
 6.49    170.4273  22.6549     143.8945    651.2307  19.56     0.769     0.448   0.2710         40     35.90973
 7.88    181.2506  21.0669     621.1864    575.0485  33.93     1.588     0.819   0.1520         41     86.93169
 5.32    194.2067  20.4401     1106.571   1350.5676 -61.81     1.471     1.371   0.0715         42     72.85587
 6.62    188.1914  21.3720     469.0336   1354.9641  38.79     1.032     0.844   0.1401         43     60.48641
 4.60    212.4507  18.7884     5065.552    827.3505 -12.74     4.311     2.212   0.0296         44     138.2126
 4.85    208.1533  19.8062     1983.844    548.9967 -56.60     1.728     1.561   0.0420         45     76.66655
 5.72    196.9942  22.8246      123.072    268.7589 -89.70     0.669     0.428   0.2602         46     29.49014
 4.64    210.1383  20.6383     921.8735    349.6559  53.37     1.790     1.474   0.0861         47     73.06138
 3.50    213.7668  20.0072     1648.584   1306.0121  -5.52     1.673     1.542   0.0357         48     54.21144
 5.57    231.9906  18.7830     5090.757    561.9375 -29.90     3.530     3.154   0.0385         49     180.3818
 3.50    267.4318  15.7213      85405.7     67.5887   4.04     2.519     2.455   0.0011         50      85.1894
 6.26    205.3241  21.9198     283.1819    250.8450  36.23     1.499     0.627   0.2262         51     58.98029
 5.22    212.3623  20.9894     667.1906    684.2392 -21.56     1.589     1.414   0.1242         52     76.27439
 3.50    261.3211  15.3349     121913.6    997.3770  -5.15     2.487     2.473   0.0008         53     84.30475
 3.62    225.6275  19.8771     1858.562   1226.0276  56.38     1.638     1.513   0.0325         54     55.57718
 8.63    224.0614  19.7147     2158.247   1122.9299  71.23     1.885     1.218   0.0638         55     126.7828
 5.20    223.4958  20.8715     743.6832    345.2687  38.99     1.862     1.400   0.1192         56     81.59328
 4.84    224.2253  20.8351     769.0786    774.7049 -64.77     1.485     1.274   0.0912         57     64.56323
 5.40    245.7517  20.0243     1622.848    112.9577 -84.19     2.269     1.821   0.0711         58     106.1871
 4.76    256.8083  18.9756     4263.531    612.8062 -31.38     2.763     2.241   0.0293         59     114.9998
 6.68    240.4640  20.7032      868.422    838.1740   3.11     1.587     1.461   0.1236         60     98.87504
 6.57    253.3820  20.8018     792.9875   1372.6572 -77.44     1.676     1.007   0.1142         61     83.41072
 3.50    313.6555  14.1847     351672.1    439.4230 -29.46     2.726     2.645   0.0003         62     91.14183
 7.15    251.7136  21.5663     392.1851    107.6562 -47.45     1.286     0.961   0.1384         63     49.99508
 7.46    254.2400  22.1687     225.1644   1352.0001  52.98     0.825     0.505   0.2272         64      47.1079
 3.50    289.1064  17.3006     19942.21   1486.3666  -0.24     2.197     2.143   0.0040         65     74.08041
 3.69    283.4656  18.9478     4374.009   1522.2140  34.16     1.863     1.834   0.0167         66     67.06926
 8.03    266.9816  22.2893     201.4993    123.0000  90.00     0.858     0.289   0.2149         67     39.86721
 6.59    272.2896  21.4392     440.8799   1273.7917   3.52     1.215     0.927   0.1685         68     68.39749
 3.50    304.5827  17.6301     14721.33    201.6470   7.61     2.214     2.163   0.0055         69     74.08041
 3.50    352.8533  14.3150     311890.5    890.7000 -41.09     2.708     2.638   0.0003         70     91.14183
 3.50    320.2001  16.1363     58273.14    905.3373  17.94     2.371     2.336   0.0015         71     79.73441
 3.50    291.1290  20.0745     1549.548    515.0054  -4.76     1.867     1.704   0.0426         72      60.7338
 3.50    352.8833  14.3553       300522   1345.7853 -27.88     2.672     2.630   0.0003         73      90.8122
 3.89    295.5385  19.8781     1856.805   1327.5559  16.46     1.682     1.633   0.0361         74     61.71344
 5.59    294.7319  20.6831     884.5861   1475.5228 -32.70     1.490     1.410   0.0640         75     52.15097
 5.89    298.9774  20.2386     1332.194   1413.5488 -31.73     2.281     1.700   0.0914         76     112.0947
 3.50    323.5643  18.0650     9862.407    697.2145  48.90     2.098     2.084   0.0078         77     70.97943
 4.10    303.5893  20.9033     722.2278    563.4363 -14.17     1.634     1.445   0.0921         78     61.22557
 8.31    294.2922  22.3415     192.0378    247.3226 -43.23     0.554     0.344   0.2031         79     35.90973
 5.61    322.5241  20.5394     1009.769    641.3190  77.61     1.952     1.535   0.1017         80     94.53356
 8.04    310.1534  21.4447     438.6527     85.7015 -35.38     1.131     0.517   0.1491         81       60.238
 5.15    328.8730  19.7952     2004.017    595.4161 -35.23     1.940     1.713   0.0496         82     91.47028
 4.20    347.9107  18.4461     6943.085    867.0420  25.16     2.264     2.015   0.0137         83     87.44762
 6.23    331.3643  21.4994     417.1154   1545.8273  52.86     1.283     0.835   0.1626         84     62.43808
 5.89    326.3526  22.3612     188.5988    955.5109   0.07     0.926     0.478   0.2185         85      37.9401
 6.09    333.6950  21.3919     460.5061     93.5791  55.69     0.971     0.940   0.1348         86     57.17302
 5.78    336.5270  21.7132     342.5399   1439.6562 -34.70     1.042     0.821   0.1638         87      51.6622
 3.69    357.2689  18.8224     4909.606    431.7284 -73.63     2.062     1.955   0.0159         88     71.81945
 5.25    351.3244  20.7061     866.0796     54.6837  61.37     1.405     1.282   0.0858         89     68.39749
 3.71    369.6347  18.0450     10045.83    760.9843  22.47     2.101     2.028   0.0080         90     74.08041
 3.50    396.6438  16.3157     49399.87    231.3483 -28.26     2.424     2.344   0.0018         91     80.48311
 4.89    362.7214  19.7919     2010.221   1500.1429   0.84     1.894     1.593   0.0448         92     82.86967
 3.54    368.9449  19.1587     3601.829    442.7167  23.76     1.817     1.730   0.0185         93     61.46999
 6.61    362.1609  21.2311     534.0375   1033.3591 -58.97     1.241     0.996   0.1439         94     70.76787
 5.00    361.2872  22.2597     207.0688    533.3430  -8.77     1.219     0.716   0.2351         95     44.82448
 7.19    364.6555  21.7086       343.99   1415.9182 -70.00     0.961     0.690   0.1805         96     57.17302
 6.32    376.5251  20.9219     709.9421    753.3804  45.42     2.021     1.175   0.1020         97     66.69587
 5.75    375.3518  21.3631     472.9077   1083.9891 -64.08     1.453     1.092   0.1610         98     70.12935
 5.86    381.5696  21.3585      474.899      1.5932 -89.37     2.024     0.637   0.1240         99     54.21144
 6.06    374.2666  20.9660     681.7281    992.6714  16.70     1.283     1.155   0.1137        100     71.40068
 6.92    371.3849  21.6613     359.3328     72.0737  -4.98     1.328     0.618   0.1813        101     59.98857
 7.71    370.4338  22.2961     200.2417    209.7980 -20.40     0.757     0.448   0.2376        102     43.80946
 3.50    399.6199  18.3304     7723.608    354.4694  17.69     2.028     1.927   0.0095        103     67.29245
 3.50    398.5513  18.4579     6868.291   1461.0906  -9.16     1.985     1.894   0.0104        104     65.48561
 5.48    384.9274  21.9067     286.6378     67.2584  84.64     1.574     0.663   0.2043        105     53.93414
 5.96    376.7703  22.8669     118.3723     87.0265   1.14     0.694     0.420   0.2797        106     30.49009
 3.50    421.0826  16.4176     44973.86    433.2188   2.48     2.332     2.293   0.0019        107       78.407
 6.76    382.1244  21.5833     386.0757    125.8206 -25.56     0.976     0.759   0.1623        108     57.69516
 4.03    395.3357  20.0407     1598.557   1088.6277  16.80     1.645     1.542   0.0423        109     62.19747
 3.50    417.0440  17.2148     21582.24    837.3096  10.22     2.185     2.170   0.0037        110     74.28255
 7.52    397.2802  20.8796     738.2087    626.6414 -84.28     1.368     1.024   0.1274        111     86.58604
 5.78    390.9907  22.9780     106.8601   1196.0000  90.00     0.849     0.289   0.2669        112     26.26285
 6.11    413.6238  20.4497     1096.827      1.9529  88.05     2.734     0.909   0.0759        113     76.66655
 4.90    397.7170  22.0433     252.7413    977.6585 -45.77     1.233     0.712   0.1955        114     45.48858
 7.33    405.2974  21.1137     594.9984    526.4940  83.57     1.299     1.026   0.1496        115     81.95998
 3.50    462.6601  15.1784     140815.2    807.5491 -14.20     2.554     2.475   0.0007        116     85.89056
 3.50    425.5665  19.1420      3657.54    926.3489  46.72     1.842     1.791   0.0181        117     60.98018
 3.50    439.4121  17.5403     15991.42    252.0300   6.63     2.198     2.152   0.0050        118     74.08041
 6.39    408.1781  21.7722     324.4181    281.9646  29.19     1.164     0.805   0.1974        119     58.98029
 5.62    403.4152  22.8298     122.4888    943.7681 -19.28     0.745     0.452   0.2831        120     31.93135
 5.73    422.2335  20.5652     986.0686    159.3221  51.63     1.823     1.388   0.0980        121     88.97742
 7.68    426.9838  21.8539     300.9084    299.5127  88.57     1.409     0.499   0.2262        122     62.67777
 7.33    419.4578  21.9377     278.5599   1204.3013  -8.30     1.015     0.481   0.1968        123      50.4879
 7.02    428.1476  21.1429      579.218   1179.8237  43.93     1.268     1.091   0.1506        124     80.29659
 5.03    434.3694  20.2389     1331.782   1421.9890 -10.91     1.563     1.401   0.0589        125      72.2358
 8.46    424.2213  21.7101     343.5237    133.4180  71.45     0.751     0.455   0.1509        126     47.74025
 5.94    421.4902  22.5595     157.1055   1580.9537   2.69     0.778     0.499   0.2511        127     36.32488
 8.25    421.6680  22.1736     224.1688    136.3273  45.21     0.574     0.335   0.1719        128     35.48972
 7.28    425.5192  22.6400     145.8846   1063.4724  46.62     0.503     0.496   0.2704        129     36.32488
 8.39    431.2661  21.3811     465.1128    718.8471  67.24     1.078     0.508   0.1407        130       60.238
 4.91    469.1449  18.2696      8169.15    850.2258  21.77     7.532     2.223   0.0260        131     195.2318
 4.03    451.8586  18.7103     5443.372     21.3153  -0.20     2.088     1.943   0.0156        132       78.407
 5.98    435.1284  20.9923     665.4058    151.0912  52.00     1.240     1.134   0.1127        133     69.05202
 5.34    441.5390  21.0615     624.3286    305.5745 -51.09     1.441     1.138   0.1159        134     66.62063
 5.43    446.8850  20.5948     959.5898    122.1028  85.16     1.505     1.355   0.0850        135     75.08562
 6.19    435.6658  23.2853     80.51379    353.6779 -45.55     0.573     0.336   0.3693        136     27.38091
 3.93    459.3049  18.6649     5676.193     34.4913 -43.25     1.983     1.870   0.0141        137     73.47069
 5.27    448.5699  20.7441      836.313    883.4819   7.79     2.147     1.280   0.1104        138     85.01321
 8.31    445.0175  21.9113     285.4187    654.3727 -25.27     1.075     0.452   0.2125        139     55.84632
 3.72    465.1295  19.9497      1738.22    468.4330  46.31     1.736     1.538   0.0368        140     58.98029
 5.43    454.5111  21.8342     306.4323   1533.5862   2.58     0.992     0.775   0.1600        141     45.15775
 3.81    462.4622  21.1227     590.0736   1096.4277  13.23     1.423     1.022   0.0831        142     45.15775
 6.24    454.6659  23.1932     87.64478   1224.3202  45.64     0.572     0.336   0.3460        143     27.92316
 4.18    473.5637  19.6926     2202.629    734.7418 -32.10     1.675     1.672   0.0337        144     68.39749
 7.76    463.4885  21.6967     347.7919    723.9955 -62.96     1.225     0.497   0.1889        145     60.48641
 4.23    473.0175  20.1005     1512.896    254.3179   2.68     1.614     1.461   0.0457        146     63.62748
 3.50    479.3951  19.4364      2788.92    922.8689  50.12     1.738     1.689   0.0226        147     57.95446
 4.25    479.2148  20.3799     1169.572   1276.8654  88.29     1.668     1.470   0.0602        148     64.79506
 6.15    468.1648  22.5080     164.7476   1198.3262 -25.50     0.748     0.647   0.2749        149     41.70536
 8.21    466.6413  22.9793     106.7286    561.6643 -45.84     0.589     0.326   0.3611        150     35.48972
 4.30    534.3708  17.2207      21464.1    518.4934  33.99     4.541     3.949   0.0090        151     177.0256
 5.41    489.4281  20.8470     760.6414    839.4063 -82.78     2.624     1.021   0.1231        152       86.239
 5.00    497.6219  19.5204     2581.284     82.7204 -14.39     2.586     2.443   0.0514        153     122.0832
 4.50    497.1445  19.6541     2282.215   1186.5588 -19.25     2.872     2.197   0.0523        154     109.9336
 5.27    477.6234  22.0369     254.2489   1167.6362 -32.52     1.409     0.553   0.1929        155     45.15775
 3.50    485.5692  20.3620      1189.07   1070.7618 -13.26     1.528     1.376   0.0453        156     49.58894
 3.50    480.6513  22.5324      161.072    682.8082 -28.81     0.846     0.613   0.1609        157     23.87012
 5.97    483.2269  22.6924     139.0078   1309.2524  17.63     0.842     0.349   0.2382        158     30.49009
 3.50    513.8845  17.8735     11765.21   1302.1998 -12.26     2.242     2.029   0.0067        159      72.2358
 7.02    490.9982  22.6914      139.139    424.4973  57.39     0.783     0.319   0.2635        160     33.75745
 4.94    505.6879  20.3477     1204.784    762.6536  29.68     1.866     1.696   0.0765        161     84.83665
 6.04    499.2488  21.7172     341.2747    366.5008  48.61     1.260     0.822   0.1885        162     59.23397
 3.64    503.5775  21.0667      621.335    863.6854  22.73     1.342     1.232   0.0801        163     45.81702
 4.16    516.8404  19.2737       3239.7   1461.1040  25.63     3.621     1.835   0.0350        164     104.3353
 6.26    502.6222  21.6733     355.3739   1310.3589 -36.68     1.014     0.855   0.1747        165     57.17302
 4.41    514.6971  20.4362     1110.457   1309.9906 -41.48     1.613     1.381   0.0431        166     44.10003
 6.42    511.4173  20.4876     1059.184    164.7969  15.76     2.143     1.304   0.1074        167     104.7655
 3.50    504.0079  22.7861     127.5178    442.7247 -86.64     0.742     0.697   0.2033        168     23.87012
 3.90    515.1553  20.9157     714.0349   1179.1432 -11.56     1.351     1.290   0.0759        169     49.89039
 3.71    520.8369  21.3065     498.2063    642.2778   1.63     1.390     1.164   0.1006        170     46.14313
 3.50    589.2560  14.2776     322831.6   1315.8739 -42.29     2.686     2.599   0.0003        171     89.64896
 7.82    522.2987  21.9366      278.843    854.1041 -68.90     0.956     0.691   0.2385        172     61.22557
 6.17    519.8758  22.0574     249.4711   1519.3197  20.54     0.920     0.674   0.2065        173     47.42513
 3.50    541.7063  20.0766     1546.519    999.6561 -28.15     1.600     1.510   0.0365        174     51.95163
 3.50    632.6228  13.6433     578978.6    483.1350 -18.25     2.864     2.775   0.0002        175     95.95046
 5.93    537.3940  21.5149     411.1909    404.2007  25.92     1.629     0.795   0.1742        176     65.94196
 3.50    560.4192  19.6604     2269.088   1041.6516  18.47     1.867     1.613   0.0283        177     59.23397
 3.50    574.0022  18.4437     6958.343   1242.7412  14.96     1.968     1.904   0.0103        178     65.71419
 6.18    576.2877  20.0403     1599.134   1336.7483  46.16     1.689     1.511   0.0651        179     95.79406
 4.94    572.7739  19.9561     1728.082     45.8521  54.85     2.131     1.762   0.0587        180     93.41666
 3.50    573.2253  20.0612     1568.605   1448.4083  31.01     2.428     1.835   0.0497        181     71.81945
 3.56    583.7048  18.1039      9515.69    319.1037  10.35     2.099     2.037   0.0081        182     70.76787
 3.50    582.1736  18.1095     9466.977    144.8951  -0.68     2.082     1.967   0.0079        183     68.83454
 6.40    557.7811  22.5441     159.3483    778.6027  72.66     0.764     0.454   0.2447        184     35.90973
 4.05    598.1442  18.5660     6217.524    782.6208 -52.42     3.563     3.261   0.0233        185     133.4661
 5.76    566.2109  21.3619     473.4249    139.6721 -56.27     1.261     1.043   0.1470        186     64.09707
 6.84    568.5835  22.7008     137.9365    633.2249 -19.07     0.738     0.455   0.3018        187     38.33327
 6.26    578.0511  21.4297     444.7493   1001.7804 -28.13     1.682     0.817   0.1728        188     70.76787
 5.30    586.1544  20.8939     728.5261     75.9674  -8.76     1.328     1.229   0.0980        189     65.71419
 3.64   1002.5687  20.4470     1099.525   1555.2332  79.83     1.624     1.448   0.0538        190     54.48732
 4.41   1598.1855  20.8486     759.5734    654.3972  -0.88     1.887     1.210   0.0814        191     56.91015
 3.70   1595.8204  21.5193     409.5382    373.5580  36.47     1.480     1.018   0.1197        192     45.15775
 6.34   1594.4935  21.3311     487.0419   1384.2332 -29.70     1.436     0.913   0.1559        193     69.91521
 4.85   1586.2167  20.3464     1206.267   1108.5289  10.82     1.711     1.419   0.0660        194     73.26632
 4.54   1567.9301  19.6499     2291.167     21.5654   3.80     1.823     1.751   0.0371        195     78.21552
 5.33   1567.0110  19.9973     1663.702    784.3434 -85.86     2.030     1.671   0.0621        196     95.16589
 6.81    880.5679  22.3303     194.0388    670.7685  20.32     0.733     0.453   0.2079        197     37.14127
 8.16    878.4954  22.0695     246.7156    542.0080   1.12     0.795     0.500   0.2235        198     50.78402
 3.65    870.8375  19.5735     2458.094   1103.3278 -75.84     2.023     1.970   0.0313        199     70.76787
 3.50    860.6606  14.3514     301597.8   1224.3727 -17.04     2.793     2.688   0.0003        200     93.09509
 4.19    868.9675  20.6157     941.2758    939.8438  48.58     1.862     1.435   0.0769        201     66.62063
 6.08    870.7625  22.4851     168.2544    643.2283 -45.21     0.935     0.438   0.2449        202      37.9401
 7.88    868.9412  22.7226     135.1947    454.3017  62.52     0.908     0.211   0.2747        203     34.19875
 3.50    861.1002  20.9423     696.7664   1157.1390  18.12     1.498     1.226   0.0724        204     46.46695
 3.50    861.9904  22.8147     124.1997   1554.1732 -54.13     0.917     0.472   0.2032        205     23.23347
 4.21    859.9587  21.3861     462.9568   1339.3500 -33.28     1.495     0.944   0.1135        206     48.36433
 8.51    857.5150  22.5967     151.8159    545.0228  31.94     0.802     0.312   0.2825        207     39.48931
 8.32    850.6461  22.3783     185.6426    363.3300  45.93     0.585     0.329   0.2076        208     35.48972
 3.50    844.6611  20.5160     1031.825   1106.0951  26.38     1.754     1.489   0.0573        209     54.48732
 3.50    845.9619  21.2956     503.2131   1063.7417 -67.33     1.310     1.128   0.0915        210     42.41832
 6.17    845.9415  20.7572     826.2869   1206.1925 -72.76     1.560     1.216   0.1092        211     83.05042
 5.60    839.2313  19.6832     2221.787   1247.2026 -63.16     2.111     1.866   0.0527        212     107.8683
 4.46    837.9797  20.1761     1411.141    298.8445  12.84     1.631     1.534   0.0523        213     67.95763
 6.13    838.5260  22.2002     218.7405   1520.5084  45.37     1.021     0.596   0.2339        214      47.1079
 5.37    836.8230  21.9407     277.7821    818.9592  62.38     0.944     0.770   0.1752        215     44.82448
 3.62    824.2859  18.5313     6419.298    654.3231  45.13     2.096     1.990   0.0122        216     71.81945
 6.99    820.6904  23.1078     94.81213    779.6790 -44.39     0.561     0.341   0.3319        217     28.97723
 7.22    817.8287  21.8881     291.5768    878.2869 -18.00     1.042     0.570   0.2009        218     53.93414
 3.50    804.4241  18.6792     5601.639   1378.5775  24.13     1.936     1.899   0.0128        219     65.94196
 4.95    809.3414  23.2436     83.66846    127.3259 -45.66     0.578     0.333   0.2462        220     18.97005
 3.50    799.8766  17.4647      17144.1    695.5576  85.99     2.757     2.170   0.0053        221     83.05042
 3.60    802.0168  19.4588     2731.998     41.0133  17.44     1.832     1.772   0.0254        222     63.86271
 7.46    796.0336  21.9069     286.5681    295.4833 -88.72     0.794     0.500   0.1736        223     45.81702
 3.80    775.2002  19.5176     2587.901   1427.3660 -86.99     2.890     2.022   0.0375        224     89.31383
 4.00    768.1792  20.1317      1469.95    391.5318 -34.33     1.844     1.529   0.0484        225     65.48561
 6.30    768.8489  21.4968     418.1025    140.4928 -79.70     1.337     0.879   0.1736        226     66.84532
 7.78    755.8051  21.4993     417.1259    193.6100  86.14     1.706     0.651   0.2071        227     79.54613
 7.70    756.4966  22.4159     179.3276   1342.5267  47.35     0.504     0.495   0.2368        228     39.10776
 3.99    744.2444  20.1644     1426.334    556.2839 -43.37     1.633     1.515   0.0466        229     61.22557
 3.50    725.5315  14.0519     397400.2    404.7108 -22.93     2.928     2.738   0.0003        230      96.2625
 5.16    737.5416  21.0824       612.42    649.6646  80.81     1.432     1.311   0.1209        231     68.17792
 3.50    727.9818  15.9842     67034.79    848.3533  27.94     2.439     2.389   0.0013        232       82.507
 3.65    728.8093  20.5992     955.6558   1178.1921  49.56     1.450     1.412   0.0574        233      50.4879
 5.35    722.8375  21.5204     409.1117   1394.9901  -0.28     1.262     0.880   0.1446        234     54.48732
 3.83    739.4140  21.2492     525.2012   1157.9702  25.31     1.298     1.182   0.0934        235     45.15775
 4.09    717.2899  20.1779     1408.787    808.4064  57.08     1.690     1.558   0.0496        236     64.33057
 3.80    710.4381  20.3712     1179.048   1163.6552  10.15     1.559     1.418   0.0499        237     54.21144
 3.97    705.6192  20.0925     1524.028   1339.0944 -43.80     1.922     1.778   0.0510        238     71.61037
 8.85    708.5008  22.1237     234.7003    538.5060 -45.17     0.503     0.497   0.1963        239     42.41832
 3.50    704.2918  19.6327     2327.619    952.3771  34.75     1.750     1.664   0.0272        240     58.21261
 5.60    700.6096  21.0706     619.0907    582.5702  -7.99     1.760     1.081   0.1314        241     74.88567
 4.76    692.9648  21.0053     657.4789   1213.7378  49.08     1.653     1.310   0.0905        242     54.79951
 6.03    688.5043  21.5748     389.1022   1213.9957  32.90     1.280     0.955   0.1146        243     41.06075
 6.69    693.2252  21.8236     309.4396    316.1916  16.66     1.068     0.678   0.1931        244     55.03495
 5.31    684.2127  19.4363     2789.073    472.2632  80.65     3.176     2.643   0.0582        245     149.4707
 3.75    686.8886  19.8390     1924.902    644.1543  11.80     1.784     1.627   0.0351        246     62.19747
 4.71    688.8412  22.2109     216.5951    130.9188  89.98     0.907     0.746   0.1902        247      37.9401
 5.91    682.6291  19.5504      2510.97    543.5035 -61.11     2.379     1.928   0.0532        248       122.94
 8.25    686.7358  22.1962     219.5502    401.0182   1.01     0.683     0.441   0.2150        249     43.46585
 7.16    674.4924  22.5310     161.2816    230.4650 -55.30     0.501     0.498   0.2390        250     35.48972
 4.38    656.2733  21.1795     560.0256    870.9708 -80.68     1.445     1.068   0.1019        251     52.52569
 3.50    649.7220  15.9980      66193.5   1464.2933   7.81     2.368     2.331   0.0013        252     79.54613
 7.04   1534.2606  21.7771     322.9546    414.5703  -1.92     1.290     0.650   0.2108        253     62.67777
 3.50    641.2206  18.0287     10198.33    536.7910  32.48     2.093     2.008   0.0075        254     70.34283
 4.86    631.8602  21.0159     651.0768    806.0596  -7.26     1.448     1.352   0.1100        255     65.94196
 4.44    624.8701  20.6226     935.3182   1581.7684  -0.44     1.486     1.293   0.0691        256     59.48656
 7.60    619.8640  21.8838     292.7446   1151.4739  26.32     1.117     0.574   0.2216        257     59.73809
 7.73    647.1571  21.7418     333.6268    653.2193 -18.86     0.953     0.671   0.1953        258     59.98857
 7.52    610.6086  23.1892      87.9635    946.1575 -18.98     0.761     0.445   0.5280        259     42.77035
 3.92    606.9233  20.4512     1095.266    586.3604  31.61     1.600     1.321   0.0551        260     55.57718
 3.57    878.8604  21.5284     406.1151    960.9187 -38.72     1.204     1.126   0.1086        261     40.61245
 6.26   1521.1362  21.8137     312.2701   1100.3423 -33.34     1.360     0.634   0.1979        262     56.91015
 5.28    593.5085  22.9500     109.6508    882.5083  70.91     0.982     0.405   0.3343        263     33.75745
 5.07   1562.5160  20.5050     1042.336    861.0878 -75.69     1.564     1.347   0.0744        264     71.40068
 3.50   1564.8943  16.1367     58251.29    303.8436  -8.00     2.493     2.394   0.0015        265     83.05042
 3.74   1553.8458  17.0786     24466.93    681.9242 -32.53     4.766     4.085   0.0071        266     159.7507
 4.39   1543.8602  19.5784     2447.047    654.2137  83.24     1.806     1.722   0.0333        267     75.08562
 4.26   1571.7207  19.9579     1725.205     92.3905  85.35     1.728     1.660   0.0443        268     70.34283
 7.15   1564.3650  22.7677     129.6941   1565.6927  47.41     0.579     0.331   0.2469        269     29.49014
 3.70   1543.1177  19.2800     3221.113    134.8626  13.62     1.861     1.807   0.0222        270     65.71419
 4.36   1546.9213  20.5488     1001.081    863.0593  41.04     2.299     1.275   0.0784        271      72.2358
 7.63   1576.4641  21.6789     353.5377   1491.3174  89.38     1.251     0.465   0.1715        272     55.84632
 3.50   1559.3071  16.1410     58023.87    487.3318  -7.88     2.552     2.462   0.0016        273     85.01321
 6.13   1552.6815  21.1822     558.6122   1221.4904 -81.14     1.347     1.128   0.1436        274     73.87773
 3.50   1508.4398  16.8126     31257.42    269.0288   0.55     2.425     2.347   0.0028        275     81.95998
 3.50    883.3881  13.2370     841795.8    183.6469 -25.60     3.359     3.240   0.0001        276     111.8268
 7.54   1536.9376  21.6496     363.2157   1429.6595 -25.77     1.278     0.620   0.1923        277     64.33057
 5.50   1529.7546  22.6382     146.1189    733.4183 -70.72     0.745     0.453   0.2338        278     31.45827
 3.50   1516.1572  18.3512     7577.052    392.2966   2.53     2.134     1.955   0.0099        279     69.05202
 7.47   1524.0001  22.4358     176.0615     12.4902 -58.10     0.803     0.311   0.2241        280     36.32488
 7.85   1505.0273  22.1192     235.6794   1096.0143 -88.73     0.627     0.612   0.2096        281     45.48858
 6.76   1516.7573  21.0462     633.1705   1546.2744 -58.46     1.269     1.081   0.1312        282     76.47072
 5.89   1489.2261  21.9792     268.1178     77.9050 -85.23     1.275     0.721   0.2240        283     55.30673
 3.50    887.0648  21.2043     547.3777   1304.3940  70.40     1.546     1.153   0.0896        284     45.15775
 4.57   1515.6066  21.7507     330.9041    483.5974 -43.91     1.128     0.919   0.1504        285     45.81702
 7.17    886.6301  21.3129     495.2471    339.9195   1.88     1.415     0.775   0.1602        286     73.06138
 5.59   1499.6895  22.2495      209.033    844.0128   4.94     0.731     0.666   0.1971        287      37.9401
 3.71    887.1884  20.8569     753.7596   1499.8872 -10.50     1.355     1.271   0.0674        288     46.78852
 4.79    879.9671  20.3940     1154.567   1177.0895   1.79     1.925     1.781   0.0818        289     86.93169
 4.04   1505.4595  20.8050     790.6703    723.2294 -27.09     1.566     1.307   0.0756        290     55.03495
 4.75    880.3963  18.3468     7608.266    224.2591  87.86     7.221     2.163   0.0260        291     182.1191
 5.63    898.9808  22.9145      113.288    987.0000  90.00     0.857     0.289   0.2518        292     26.26285
 7.90    890.3393  22.5210     162.7815    680.6741  45.58     0.577     0.334   0.2311        293     34.63441
 5.28    897.4249  20.0854     1534.056    538.4159  29.97     1.894     1.749   0.0660        294     93.25602
 6.65    890.1077  20.3997     1148.426    326.2474  22.80     2.090     1.302   0.1008        295     106.6099
 8.32   1482.7103  21.3474     479.7758    575.0490 -58.96     1.286     0.867   0.1948        296     86.06496
 5.26   1491.4724  23.1873     88.12183   1494.5192 -44.31     0.508     0.491   0.3306        297      26.8277
 5.33    913.9099  21.3794     465.8293   1001.2723 -17.81     1.204     1.096   0.1381        298     59.23397
 6.46    905.8102  21.4651     430.4769   1315.1787 -73.04     1.273     0.918   0.1714        299     67.95763
 3.50    881.6274  15.4151     113229.9   1592.4185  78.51     2.524     2.456   0.0008        300     84.83665
 5.33    895.1293  21.5326     404.5316   1425.6116  22.24     1.332     0.901   0.1528        301     56.91015
 7.51   1438.3938  22.7183     135.7279   1495.2007  19.65     0.765     0.441   0.3422        302     42.77035
 3.50    923.3138  20.2328     1339.344    806.9644  65.58     1.705     1.570   0.0455        303     56.11417
 4.61    913.9817  20.7665     819.2102    838.4760  19.87     1.454     1.365   0.0840        304     63.39139
 3.50   1409.5125  19.6216     2351.558    308.0300  26.47     1.859     1.658   0.0276        305     59.73809
 7.47   1476.4878  21.6309     369.5161    999.4857   0.19     1.041     0.500   0.1577        306     53.65541
 4.14    940.5593  20.0150     1636.823   1067.0037  57.79     1.745     1.480   0.0434        307     65.48561
 3.59    901.8616  18.5725     6180.388    302.5987 -34.10     2.056     1.988   0.0124        308     70.76787
 7.53    917.6951  21.8176     311.1503    253.0119  -8.38     0.750     0.681   0.1823        309     52.23945
 3.50    931.0344  17.6289     14738.34   1178.3051  38.39     2.201     2.101   0.0054        310     73.26632
 6.94   1439.7006  23.0530     99.72363    647.3334  43.21     0.562     0.341   0.3099        311     28.45508
 5.30   1438.3149  23.0324     101.6326   1346.6786  44.67     0.564     0.340   0.2483        312     23.23347
 6.70    940.1115  21.0035     658.5822    516.0169  52.85     1.572     1.142   0.1434        313     86.93169
 3.80    929.8040  20.5661     985.3142   1322.3403  46.83     1.572     1.385   0.0594        314     53.93414
 3.50   1435.6713  15.1678     142189.9   1090.3253 -24.44     2.677     2.602   0.0007        315     88.97742
 4.09   1441.0920  19.5505     2510.631    618.8486 -20.90     1.823     1.680   0.0301        316     69.70042
 7.87    950.5084  22.2811     203.0327    266.9670   0.46     0.797     0.500   0.2554        317     47.74025
 3.50   1411.7726  21.1337     584.1449    349.3116  62.13     1.880     1.195   0.0950        318     51.07843
 5.90   1439.8511  21.4351     442.5435   1270.9764 -20.06     1.330     0.943   0.1579        319     64.33057
 4.59    982.2236  20.6231     934.8666    798.0069   3.67     1.607     1.483   0.0797        320     68.61636
 7.31    948.8851  21.0486     631.7919    444.5894  49.04     1.335     1.036   0.1421        321     82.68854
 3.73   1436.6449  19.2681     3256.432    224.4045  25.06     1.856     1.774   0.0218        322     65.48561
 7.35    952.6716  22.9407     110.5939     60.3068  46.12     0.563     0.340   0.2945        323     29.99428
 5.01   1061.0553  20.5870     966.5122    726.7319  -5.53     1.869     1.399   0.0881        324       78.407
 5.60   1407.5088  21.5212     408.8137    329.5723  42.39     1.107     0.930   0.1476        325     55.57718
 7.67   1067.8495  22.0051     261.7931    569.1638 -43.07     0.772     0.568   0.2057        326     49.58894
 3.50   1420.6368  17.4276     17740.99   1126.1257 -34.36     2.318     2.281   0.0048        327     78.02358
 7.31   1434.0306  21.9983     263.4307    340.5226  88.05     0.823     0.499   0.1889        328     45.81702
 6.26   1413.4269  21.6979     347.4172      1.4686  88.51     1.831     0.497   0.1512        329     48.36433
 6.16    979.4700  21.7362     335.3708    452.2737  72.96     1.245     0.901   0.1386        330     42.80481
 6.08   1390.4139  21.4212     448.2505    806.3391  14.97     1.517     0.893   0.1678        331     69.26883
 5.00    966.7556  21.6499     363.1195    416.5706 -75.97     1.190     0.957   0.1562        332     52.23945
 6.89    951.8934  20.8413     764.7084    654.4576 -83.76     1.280     1.030   0.1083        333     76.27439
 4.66   1416.6246  19.9906     1674.063   1386.4370 -19.31     1.742     1.548   0.0483        334     74.48413
 3.94   1391.7336  19.5499     2512.009    713.0142 -18.73     1.876     1.718   0.0297        335     68.61636
 6.43   1404.9912  22.6717     141.6827   1362.1821 -52.53     0.940     0.467   0.3278        336     42.77035
 3.50   1394.7192  15.8024     79254.66    114.2351  -2.33     2.610     2.492   0.0012        337     86.58604
 6.60   1353.0374  21.2131      542.967    152.1203 -59.00     1.536     1.084   0.1661        338     83.05042
 3.50   1083.0811  18.1554     9074.854   1148.0122   4.60     2.076     1.992   0.0082        339     68.39749
 4.51   1073.2249  19.9421     1750.476   1218.8108 -45.91     2.075     1.941   0.0546        340     87.96051
 3.50   1064.1989  21.7777     322.7958      6.7693  17.79     1.065     0.952   0.1180        341     35.06467
 3.90   1393.6564  20.2154     1360.893   1038.5681  30.23     1.736     1.508   0.0489        342     61.22557
 3.50   1367.8368  13.2905     801290.2   1159.4253  14.94     4.243     3.060   0.0002        343     122.4511
 5.47   1401.7460  20.7530     829.4344   1031.5410 -12.84     1.633     1.347   0.1034        344     78.97862
 3.50   1390.1338  18.4139      7152.16   1428.3429  24.43     2.015     1.981   0.0104        345     68.17792
 4.62   1074.2052  21.2621     518.9877      6.8716 -18.31     1.362     1.112   0.1163        346     55.57718
 7.54   1089.9775  21.8971      289.163    396.6888  78.15     0.741     0.678   0.1962        347     52.23945
 5.07   1067.0283  22.1322     232.8752   1596.9507 -16.17     0.796     0.782   0.1751        348     37.54281
 5.70   1091.7946  20.7263     850.1108    468.3736 -46.23     2.025     1.407   0.1197        349     93.73714
 4.11   1331.4196  21.9420     277.4525    386.3806  44.83     1.014     0.857   0.1469        350     37.54281
 8.30   1094.3149  22.2108     216.6182    429.3361 -44.00     0.570     0.337   0.1779        351     35.48972
 7.47   1386.6847  21.7542     329.8597   1273.8695 -70.91     0.947     0.678   0.1933        352     58.72551
 3.50   1081.2974  16.7685     32552.47    512.0276   3.34     2.425     2.366   0.0027        353     81.77683
 6.88   1112.3186  19.7137     2160.356    478.9657  26.14     2.244     1.894   0.0691        354     137.4511
 3.55   1373.8938  18.2302      8470.39   1018.7087  -5.56     2.214     2.032   0.0094        355     73.06138
 6.20   1087.1072  21.7143     342.1992   1452.9968 -58.43     1.198     0.771   0.1831        356     57.69516
 3.64   1274.1567  17.7200     13551.63    609.6885 -59.67     4.494     2.827   0.0101        357     125.8331
 4.53   1306.1177  20.8160     782.6826    892.7053  10.67     1.545     1.114   0.0801        358     57.69516
 6.51   1115.3567  20.8935     728.8007    674.4939  11.95     1.509     1.177   0.1259        359     84.48242
 6.19   1106.8710  20.6558      907.136    678.2977 -51.68     1.730     1.319   0.1081        360     90.31551
 3.61   1108.7615  18.4811     6723.064    427.8470 -15.39     2.142     1.984   0.0116        361     71.81945
 3.50   1333.7377  20.8555     754.7522    107.1236 -13.21     1.515     1.391   0.0718        362     49.89039
 3.50   1105.7592  18.0101      10374.2    751.7592  12.39     2.197     2.087   0.0077        363     73.26632
 3.56   1279.3622  19.0365      4030.73   1331.1583  75.39     1.973     1.870   0.0178        364     66.16896
 5.99   1347.4882  21.9360     279.0087    604.6953 -37.75     1.121     0.830   0.2184        365     56.11417
 3.50   1321.3125  16.8471     30279.56    659.7673  26.44     2.415     2.358   0.0033        366      91.9502
 3.78   1331.2336  19.2425     3334.161    655.5963  21.58     2.026     1.840   0.0201        367     61.59643
 6.80   1332.0455  20.2492     1319.245   1139.4945 -84.41     1.839     1.328   0.0855        368     103.9033
 3.50   1320.5798  21.3506     478.3755    263.9218  87.87     1.356     1.157   0.0955        369     42.06335
 8.41   1300.4139  22.0245     257.1555     53.7503 -19.42     0.759     0.449   0.2003        370     47.42513
 7.46   1134.8855  21.5435     400.4801    607.3632  18.15     0.926     0.679   0.1579        371     58.21261
 4.31   1308.7135  19.4076     2863.839    669.5031 -40.71     2.212     1.704   0.0245        372     64.55465
 6.42   1239.1719  21.4786     425.1663     47.7611 -21.29     0.957     0.857   0.1433        373     56.11417
 4.01   1308.8643  19.5440     2525.897   1035.8164 -37.66     2.483     1.886   0.0363        374     84.48242
 3.50   1220.2122  18.1281      9305.72   1194.6746  79.30     2.221     2.136   0.0086        375     73.67449
 3.50   1299.5779  14.8661     187732.9    724.7348 -13.72     3.006     2.626   0.0006        376     95.63741
 3.55   1292.6382  18.4791     6735.518    762.0449 -19.58     2.462     2.015   0.0123        377     76.47072
 4.29   1293.8401  20.7651     820.2604    412.4755  -9.04     1.530     1.267   0.0767        378     57.95446
 5.70   1130.1278  20.8444     762.5054    547.3597 -12.51     1.403     1.218   0.1035        379     72.64977
 7.10   1263.6656  21.3686     470.4983    855.2509  59.97     1.106     0.924   0.1594        380     69.05202
 7.20   1292.7781  22.4328     176.5496    545.4184 -70.33     0.753     0.449   0.2429        381     39.48931
 7.25   1132.3717  21.9548     274.1952    357.5125 -36.20     1.445     0.399   0.2114        382     53.37522
 4.07   1260.6809  20.3393     1214.178    432.3235  39.19     2.006     1.652   0.0642        383     71.81945
 3.81   1266.6024  19.2832     3211.483    807.7172  21.31     1.921     1.787   0.0231        384     68.17792
 5.84   1229.8680  21.5345      403.837   1153.2823  39.15     1.141     0.989   0.1620        385       60.238
 3.50   1222.6515  12.8381      1215508    994.9560 -18.85     5.721     5.297   0.0002        386     186.9136
 7.16   1275.1455  22.0228      257.564    697.8719  44.55     0.820     0.682   0.2227        387     52.81039
 6.30   1239.4313  22.7671     129.7639    857.8015 -19.51     0.723     0.459   0.2970        388     35.48972
 3.68   1243.6359  20.8337     770.0258    672.2609  45.24     1.512     1.251   0.0691        389     48.98046
 8.04   1262.5000  22.2219     214.4017    216.5174  45.65     0.507     0.493   0.2000        390     39.48931
 3.50   1139.7532  16.8311     30730.51    147.8721   8.49     2.420     2.293   0.0028        391     80.48311
 4.85   1196.0813  20.0053     1651.521    124.0824 -57.97     2.138     1.819   0.0612        392     93.09509
 3.92   1235.6237  19.5051       2617.9    304.5524  17.18     1.862     1.665   0.0275        393     66.39518
 4.41   1238.3259  20.0406     1598.675   1553.3666 -27.74     1.624     1.543   0.0463        394     68.17792
 6.26   1231.2922  20.6775     889.2198    599.4329   2.44     1.531     1.376   0.1072        395     87.78988
 4.85   1201.8480  20.5109     1036.697   1441.9395  52.88     1.812     1.625   0.0853        396      81.4093
 5.50   1213.8219  20.0148     1637.089   1429.0648  62.25     2.314     1.913   0.0743        397     111.9608
 7.87   1229.0000  22.3145     196.8823    914.0066   0.00     0.858     0.289   0.2199        398     39.86721
 3.50   1215.8934  17.6684     14212.12    512.8164  15.78     2.202     2.129   0.0056        399     73.87773
 3.50   1152.9501  13.3954     727494.2    693.7171 -19.54     3.016     2.910   0.0002        400     101.1242
 3.63   1174.0677  18.3918     7299.127    757.7162 -45.34     3.644     3.620   0.0190        401       127.96
 3.50   1204.6260  20.1759     1411.314   1075.6238  31.30     1.933     1.730   0.0475        402     61.71344
 3.50   1011.1388  17.5270     16188.64    813.5752  15.29     2.236     2.154   0.0051        403     75.48396
 6.73   1205.4939  22.7910     126.9358   1216.5016 -44.35     0.501     0.499   0.2650        404     30.97796
 4.29   1182.1754  21.2212        538.9    549.4454  52.54     1.339     1.138   0.1041        405      51.6622
 6.34   1197.8005  21.5734     389.6145   1053.3743  43.07     1.564     0.815   0.1931        406     69.26883
 5.56   1183.4515  22.4000      181.972    176.4455  43.21     1.019     0.596   0.2510        407     42.06335
 3.50   1211.9427  17.6391     14600.42   1278.7762  81.36     5.910     3.549   0.0116        408     155.6623
 4.66   1209.0648  19.9614     1719.667    838.6198 -85.48     1.629     1.531   0.0450        409     71.19037
 6.98   1184.0507  21.9904      265.355    673.8151  49.31     0.843     0.646   0.2066        410      50.4879
 7.66   1146.9288  22.0304     255.7736    769.3144 -78.58     0.740     0.661   0.2206        411     51.95163
 7.59   1168.4935  22.6191     148.7113   1599.5153  45.20     0.514     0.486   0.2262        412     30.97796
 3.50   1131.2684  17.5290      16159.1    183.3221 -33.12     2.263     2.227   0.0052        413     76.86188
 3.50   1166.4520  16.3126     49539.02   1299.5200 -18.22     2.443     2.420   0.0018        414     81.95998
 6.11   1177.4873  22.9380     110.8656     18.4826 -45.27     0.507     0.492   0.3034        415     30.97796
 4.60   1152.6638  20.0901     1527.404     99.1998   1.48     1.736     1.672   0.0540        416      75.8802
 5.70   1162.4755  21.4990     417.2638    887.9297  -3.09     1.214     0.999   0.1587        417     60.98018
 5.47   1131.3656  21.1463     577.3931    219.2832   5.72     1.407     1.133   0.1249        418     66.39518
 3.66   1159.0969  18.6958     5516.793    236.1456  28.13     2.114     1.861   0.0138        419     70.34283
 3.50   1203.1788  20.1818      1403.72    338.7113 -30.19     1.595     1.555   0.0415        420     53.65541
 7.47   1159.0020  22.3116     197.4061    566.4995 -87.40     0.808     0.499   0.2556        421     46.46695
 4.83   1154.7657  20.7044     867.4067   1352.9104 -16.12     1.614     1.496   0.0912        422     72.85587
 4.86   1080.3595  23.2500     83.17358    921.3041 -47.44     0.575     0.333   0.2477        423     18.97005
 7.50   1142.4078  20.9745     676.3783    662.0576  77.12     1.224     1.053   0.1322        424     82.32507
 4.51   1121.3683  19.5463     2520.534    329.5204  59.09     2.915     1.938   0.0448        425     104.0475
 4.88   1096.9320  20.7453     835.3528   1526.4592  39.67     1.378     1.340   0.0839        426     64.56323
 3.72   1090.5541  19.3619      2986.98    642.2306  36.55     1.830     1.775   0.0237        427     65.25624
 3.50   1096.1063  16.8792     29397.47    777.9907  20.55     2.352     2.299   0.0029        428     78.97862
 4.75   1080.5232  21.7643     326.8036    329.8643 -14.82     1.275     0.874   0.1607        429     48.36433
 3.84   1096.0427  22.2419     210.5013   1136.1642  -2.80     0.929     0.750   0.1573        430     30.49009
 3.63   1039.9791  18.2565     8268.345    525.2812  39.19     2.100     2.006   0.0095        431     72.44308
 5.11   1084.7773  21.5132     411.8148     42.7669  -2.67     1.515     0.952   0.1575        432     59.73809
 6.06   1066.8558  20.4975     1049.579   1563.1591  75.22     1.791     1.399   0.0963        433     93.09509
 8.91   1022.3207  22.3707     186.9443   1268.9786  27.92     0.914     0.210   0.2204        434      37.9401
 6.71   1015.7997  22.2920     200.9967    452.9904 -57.19     0.813     0.506   0.2273        435     42.06335
 3.50   1041.5137  16.4908     42043.43    632.9153  15.00     2.383     2.353   0.0021        436     81.04009
 7.54   1039.7445  21.2904     505.6356    121.8496  -7.06     1.327     0.716   0.1534        437     71.40068
 3.50   1025.0127  13.8680     470772.2     50.2350 -13.87     2.858     2.765   0.0002        438     95.32333
 7.17   1041.9910  22.6048     150.6949    467.0000  90.00     0.854     0.289   0.2527        439     35.06467
 4.45   1031.5867  19.8892     1837.943    302.4050  70.40     2.790     1.770   0.0568        440     96.10661
 3.50   1027.0432  17.3612     18859.12   1379.8351  39.68     2.265     2.218   0.0044        441      75.8802
 4.11   1012.5897  19.6135     2369.167    344.5635  27.07     1.809     1.763   0.0323        442     70.55567
 3.50    986.2089  16.8951     28971.38    558.3832  37.48     2.341     2.296   0.0029        443       78.598
 6.13    987.8520  19.9270     1775.034    454.2320  47.58     1.987     1.789   0.0687        444     112.3619
 6.80   1011.5045  22.9462     110.0336    266.9891 -31.78     0.807     0.310   0.3057        445     30.97796
 3.95   1002.9374  19.4683      2708.26    542.3765  41.74     1.957     1.741   0.0283        446     70.55567
 7.06    999.1951  22.1572     227.5775    232.9362 -30.84     1.047     0.668   0.2716        447     56.91015
 4.14   1001.1895  20.9447     695.2339   1273.6106  -3.59     1.429     1.189   0.0820        448     52.52569
