#   1 KRON_RADIUS            Kron apertures in units of A or B                         
#   2 MAGERR_APER            RMS error vector for fixed aperture mag.                   [mag]
#   3 Y_IMAGE                Object position along y                                    [pixel]
#   4 X_IMAGE                Object position along x                                    [pixel]
#   5 THETA_IMAGE            Position angle (CCW/x)                                     [deg]
#   6 FLUX_APER              Flux vector within fixed circular aperture(s)              [count]
#   7 A_IMAGE                Profile RMS along major axis                               [pixel]
#   8 B_IMAGE                Profile RMS along minor axis                               [pixel]
#   9 FLUXERR_APER           RMS error vector for aperture flux(es)                     [count]
#  10 MAG_APER               Fixed aperture magnitude vector                            [mag]
#  11 NUMBER                 Running object number                                     
 4.41   0.0037     54.0758     63.6034   6.75     38296.09     4.379     4.004     129.6841  16.5921          1
 3.66   0.0249     17.4136    984.8228 -87.92     5657.282     3.732     1.708     129.7422  18.6685          2
 3.81   0.0308     18.7962     91.1034 -67.25     4574.007     1.571     1.479     129.6629  18.8993          3
 3.50   0.0138     15.4618   1445.5586 -65.93      10180.1     1.661     1.588     129.6894  18.0306          4
 7.63   0.2458      4.3685    145.1962  17.69     477.3767     0.755     0.445     108.0521  21.3528          5
 5.90   0.1895     18.0262    384.0147  44.76     743.2769     0.889     0.533     129.7263  20.8721          6
 4.26   0.1396     25.4560    366.9562 -30.78     1008.802     1.205     1.017     129.7105  20.5405          7
 3.50   0.0029     60.5946   1078.2482  78.99     49383.93     2.003     1.894     129.7158  16.3160          8
 8.74   0.2251     34.3225    326.3239 -44.93      625.787     0.568     0.338     129.6999  21.0589          9
 7.76   0.4197     43.0166    915.4982 -57.51     335.4335     0.786     0.317     129.6418  21.7360         10
 3.50   0.0002    182.7565   1107.2883 -33.46     594505.9     5.458     4.811     129.6841  13.6146         11
 3.50   0.0030     80.9641    537.4206 -64.56     47146.09     1.933     1.854     129.7475  16.3664         12
 4.32   0.0751     76.0022    127.6434   4.16     1875.746     1.252     1.146     129.7211  19.8671         13
 7.41   0.3893     82.8177    421.3966 -70.69     361.8902     0.768     0.443     129.7263  21.6536         14
 6.37   0.1403     91.1871    376.8294 -45.36     1004.469     1.373     1.033     129.7211  20.5452         15
 3.50   0.0020    122.5955    788.9210 -60.42     69760.84     2.028     1.903     129.6788  15.9410         16
 4.18   0.0476     97.3836     55.9652  26.68      2960.47     1.407     1.368     129.7528  19.3716         17
 7.03   0.1949     99.0022    452.5193 -26.45     722.6904     1.068     0.660     129.6788  20.9026         18
 3.50   0.0036    163.1363   1468.1375 -62.90     39424.67     1.913     1.819     129.6841  16.5606         19
 3.50   0.0005    194.4274    317.8813 -61.95     299875.7     2.315     2.075     129.6788  14.3576         20
 3.50   0.0156    171.1503    877.1309 -55.12     9008.646     1.658     1.594     129.6682  18.1634         21
 4.65   0.0037    235.6645    403.5279 -41.76      37697.7     5.702     4.705     129.6894  16.6092         22
 4.54   0.2329    165.6820   1445.5413  19.57     604.8273     1.115     0.930     129.6894  21.0959         23
 5.53   0.0595    172.4563    325.0473 -86.86     2368.242     1.300     1.158     129.6999  19.6139         24
 5.47   0.2887    167.5449    104.2042 -51.07     487.8793     0.985     0.937     129.7105  21.3292         25
 7.85  99.0000    170.3342   1368.3384 -44.83    -20.37559     0.580     0.332     129.6735  99.0000         26
 4.60   0.1391    193.3884   1350.3032 -37.44     1012.395     1.279     1.002     129.6259  20.5366         27
 4.70   0.0331    211.6114    827.4163  -9.06     4254.428     2.963     1.698     129.7316  18.9779         28
 3.73   0.0821    207.4908    548.9009 -53.40     1715.608     1.382     1.220     129.6629  19.9640         29
 7.24   0.2957    204.4811    250.5076  36.95     476.2555     0.500     0.499     129.6788  21.3554         30
 6.12   0.0847    209.4427    349.7659  55.13     1662.507     1.427     1.084     129.7158  19.9981         31
 3.50   0.1126    212.9865   1305.8654 -82.20     1250.505     1.291     1.247     129.7052  20.3073         32
 6.31   0.2943    211.4448    684.7709 -89.13     478.6907     0.978     0.724     129.7052  21.3499         33
 5.92   0.0349    231.0869    561.7985 -14.58     4038.167     2.541     2.369     129.6682  19.0345         34
 4.19   0.0663    224.5206   1225.8544 -66.20     2123.604     1.409     1.318     129.6894  19.7323         35
 3.97   0.2761    223.2466    774.6445 -11.22     510.1826     1.088     0.911     129.6999  21.2807         36
 7.86   0.0932    223.2873    345.5081 -53.29      1510.91     1.094     0.828     129.6841  20.1019         37
 3.50   0.0013    260.5662    997.2288 -62.80     106109.3     2.052     1.951     129.7422  15.4856         38
 3.50   0.0016    266.7018     67.3903 -79.21     89619.81     2.030     1.922     129.6418  15.6690         39
 6.02   0.0794    244.4015    112.8098  87.30     1774.034     1.624     1.215     129.7316  19.9276         40
 9.02   0.3796    239.6895    838.6416 -42.96     371.0471     0.578     0.332     129.6788  21.6264         41
 4.94   0.0361    256.2683    612.7941 -36.28     3906.814     1.973     1.617     129.7316  19.0704         42
 7.04   0.1450    251.2775    107.5645 -70.48     971.3858     0.725     0.459     129.6629  20.5815         43
 7.50   0.2799    252.7829   1372.4308 -69.93     503.4094     0.740     0.453     129.7263  21.2952         44
 3.50   0.0004    313.2035    439.2134 -58.92     366933.1     2.277     2.111     129.7316  14.1385         45
 3.50   0.0067    288.3456   1486.2816 -50.16     20918.99     1.773     1.704     129.6894  17.2486         46
 7.79   0.6653    271.3755   1273.7629 -17.73     211.7745     0.755     0.447     129.7369  22.2353         47
 3.50   0.0330    282.7355   1522.1680 -58.33     4262.369     1.479     1.402     129.6947  18.9759         48
 4.39   0.0832    290.6225    514.6550 -64.31      1692.32     1.556     1.393     129.7211  19.9788         49
 3.50   0.0091    303.9821    201.5968 -63.35      15522.1     1.728     1.630     129.7263  17.5726         50
 3.50   0.0023    319.4946    905.2604 -60.82     61238.66     1.978     1.867     129.6735  16.0824         51
 3.78   0.0784    294.7055   1327.4375 -47.70     1796.536     1.323     1.264     129.6471  19.9139         52
 6.32   0.1910    294.4589   1475.2285 -88.93     737.6084     0.931     0.715     129.7158  20.8804         53
 7.59   0.1558    297.7295   1413.8472 -57.77     903.7314     1.412     0.801     129.6841  20.6599         54
 3.50   0.0004    352.2283    890.5814 -56.08     323890.8     2.244     2.095     129.7369  14.2740         55
 4.63   0.5314    302.9988    563.5146 -82.91     265.0054     1.088     0.954     129.6788  21.9919         56
 3.50   0.0005    352.2422   1345.7249 -54.64     312372.4     2.216     2.086     129.6735  14.3133         57
 3.50   0.0142    322.8688    697.1343 -28.26     9934.078     1.647     1.600     129.6735  18.0572         58
 8.72   0.2395    308.5074     85.4808 -46.76     588.0358     0.502     0.497     129.6894  21.1265         59
 7.00   0.1757    322.6497    641.1228 -76.26     801.4391     1.652     0.634     129.6894  20.7903         60
 4.73   0.0821    328.1193    595.2094  20.51     1715.861     1.453     1.372     129.6682  19.9638         61
 5.75   0.3463    333.0812     93.3310 -24.07     406.7402     0.890     0.687     129.6894  21.5267         62
 3.77   0.0188    347.1420    866.8646 -45.26     7476.672     1.651     1.523     129.6682  18.3657         63
 6.63   2.1428    336.0265   1440.2896  89.92     65.70891     0.726     0.676     129.6524  23.5059         64
 3.92   0.0236    356.6105    431.6310 -74.45     5962.562     1.829     1.608     129.7316  18.6114         65
 4.03   0.1991    350.8782     54.3170 -75.76     707.4624     1.161     1.104     129.6894  20.9257         66
 3.50   0.0132    368.9768    760.8847 -60.15     10660.65     1.613     1.559     129.6629  17.9805         67
 3.50   0.0978    362.1071   1500.2202  -8.85      1439.68     1.295     1.254     129.6524  20.1543         68
 3.69   0.0346    368.3008    442.6079 -45.71      4074.24     1.502     1.374     129.6471  19.0249         69
 4.74   0.5713    361.4756   1033.9357 -61.83     246.5291     0.989     0.667     129.6947  22.0703         70
 7.74   0.7569    360.5103    533.4985  44.33     186.0282     0.502     0.498     129.6577  22.3761         71
 3.50   0.0027    396.0154    231.2811 -64.09     51929.67     1.904     1.854     129.6577  16.2615         72
 7.45   1.0261    374.2168   1084.0029 -53.86     137.2969     0.820     0.504     129.7263  22.7058         73
 4.16   0.6814    373.6597    992.2760 -47.14     206.7024     0.976     0.860     129.6999  22.2616         74
 3.50   0.0204    397.8886   1460.9867 -46.68     6918.194     1.581     1.512     129.6418  18.4500         75
 3.50   0.0170    398.9886    354.3898 -62.43     8277.307     1.604     1.532     129.7316  18.2553         76
 3.63   0.1004    394.5599   1088.5066 -26.76      1401.94     1.303     1.293     129.6577  20.1832         77
 3.50   0.0030    420.4062    433.1503 -62.14     47328.99     1.902     1.807     129.7158  16.3622         78
 3.50   0.0062    416.4527    837.1818 -63.71     22641.11     1.806     1.708     129.7263  17.1628         79
 7.95  99.0000    397.3274    977.3210 -45.30     -171.988     0.569     0.338     129.6947  99.0000         80
 8.68   0.2541    398.4764    627.4811 -41.88     554.2212     0.500     0.499     129.6947  21.1908         81
 3.66   0.0361    425.0089    926.1632 -34.01     3903.675     1.506     1.402     129.7316  19.0713         82
 3.50   0.0083    438.7677    251.9255 -53.57     16985.61     1.734     1.667     129.6841  17.4748         83
 5.29   0.1286    421.8422    158.7650  45.21     1095.044     1.306     1.074     129.7211  20.4514         84
 3.50   0.0010    461.8552    807.3752 -53.65     146736.3     2.078     1.966     129.7158  15.1337         85
 6.47   0.3845    427.6801   1179.1434  28.18     366.3022     0.860     0.608     129.6947  21.6404         86
 3.50   0.1389    433.6889   1421.8654 -43.82     1013.849     1.244     1.194     129.7052  20.5351         87
 6.15   0.2555    434.9741    150.9762  35.97      551.569     0.787     0.769     129.7528  21.1960         88
 3.59   0.0254    451.1293     21.1607 -44.60     5540.943     1.605     1.472     129.6894  18.6910         89
 4.18   0.3967    440.7336    305.4700 -18.10     354.9733     0.972     0.956     129.6735  21.6745         90
 5.32   0.0236    468.5677    850.2765  23.09     5977.371     6.473     1.667     129.6629  18.6087         91
 5.98   0.1550    446.1450    122.1042 -41.00     908.4065     1.212     1.029     129.6735  20.6543         92
 5.99   0.1437    447.9012    883.5998  -4.17     980.0098     1.532     0.983     129.6471  20.5719         93
 3.54   0.0228    458.6724     34.3886 -61.55     6175.166     1.547     1.447     129.6999  18.5734         94
 7.28  99.0000    453.6877   1533.3097  45.15    -122.4702     0.558     0.343     129.6841  99.0000         95
 3.80   0.0828    464.5611    468.4572 -57.87     1702.023     1.359     1.286     129.7052  19.9726         96
 5.78   0.5168    461.9602   1096.1885   3.86     272.6295     0.903     0.755     129.7422  21.9611         97
 4.10   0.0859    472.1687    254.1147 -70.05     1638.387     1.346     1.210     129.6629  20.0140         98
 3.87   0.0607    472.9409    734.7567 -45.64     2320.292     1.398     1.272     129.6947  19.6361         99
 3.50   0.0499    478.8141    922.8201 -14.94     2825.558     1.426     1.388     129.7316  19.4222        100
 4.39   0.1372    478.8120   1276.7761  79.76      1026.83     1.151     1.097     129.7263  20.5213        101
 3.50   0.1507    484.9312   1070.4033 -40.62     934.7526     1.257     1.173     129.7211  20.6233        102
 7.06   1.3379    479.6900    682.3505  43.19     105.2827     0.574     0.335     129.6999  22.9941        103
 5.24   0.0586    496.5620   1186.5326 -13.80      2404.23     2.531     1.477     129.6894  19.5976        104
 5.54   0.0559    496.9911     82.6506  42.17     2521.337     1.932     1.709     129.7158  19.5459        105
 8.60   0.2166    489.1940    839.3719  71.60     650.2798     0.774     0.439     129.7052  21.0172        106
 3.50   0.0113    513.2878   1302.2383 -34.02     12452.83     1.737     1.662     129.6629  17.8118        107
 6.25   0.8742    499.0030    365.9965 -43.16     161.1765     0.888     0.533     129.7475  22.5317        108
 4.71   0.0074    533.8983    518.5938  29.05     18959.16     3.593     2.882     129.6524  17.3555        109
 4.67   0.1668    502.7880    863.4911 -88.24     843.7606     1.151     0.977     129.6312  20.7345        110
 5.91   0.3133    502.2048   1310.0718 -40.47     449.5123     0.845     0.651     129.6999  21.4181        111
 6.23   0.1197    505.1451    762.7928  -0.44     1176.968     1.309     1.253     129.7105  20.3731        112
 4.50   0.0474    516.1095   1460.7418  23.86     2972.118     3.656     1.299     129.6788  19.3673        113
 6.97   0.1541    510.6393    165.5776  -9.65      914.568     0.956     0.809     129.7369  20.6470        114
 4.98   0.0746    514.2516   1310.0317 -10.83     1887.303     1.302     1.185     129.7158  19.8604        115
 3.86   0.1794    514.4966   1179.0813 -24.60     785.1937     1.149     0.942     129.6894  20.8126        116
 6.45   0.2905    520.1909    641.4284 -43.08     484.8947     1.057     0.724     129.7052  21.3359        117
 3.84   0.0827    540.9624    999.7307 -73.14     1703.167     1.366     1.235     129.6894  19.9719        118
 3.50   0.0004    588.6868   1315.8517 -53.51     335568.2     2.208     2.086     129.6894  14.2355        119
 3.77   0.0623    559.8197   1041.5360 -10.01      2259.84     1.430     1.373     129.6841  19.6648        120
 6.55   2.3496    556.5087    778.4934  44.42     59.93913     0.501     0.499     129.6788  23.6057        121
 3.50   0.0193    573.3907   1242.7067 -70.93     7304.381     1.587     1.566     129.6418  18.3910        122
 4.80   0.0859    571.7554     45.6411  63.91     1639.178     1.743     1.230     129.7105  20.0134        123
 4.75   0.1062    571.9938   1447.6349  17.02     1327.147     1.936     1.347     129.7211  20.2427        124
 5.41   0.1843    565.7161    139.8198 -69.04     764.1217     0.941     0.673     129.6524  20.8421        125
 3.50   0.0143    581.4632    144.8293 -62.40     9814.887     1.657     1.558     129.6894  18.0703        126
 3.50   0.0142    582.9963    319.0084 -53.22     9934.469     1.652     1.592     129.7422  18.0571        127
 3.50   0.0003    631.9548    483.1556 -53.47     420860.8     2.703     2.536     129.7052  13.9897        128
 5.78   0.0749    575.6501   1336.6445 -73.37     1880.369     1.283     1.093     129.6947  19.8644        129
 7.40   0.3017    577.1536   1001.2869 -58.48     466.7972     0.881     0.595     129.6894  21.3772        130
 5.06   0.0225    597.7562    782.5263 -44.52     6258.367     2.724     2.576     129.6735  18.5588        131
 5.10   0.2788    585.4762     75.9200  -0.33     505.2608     1.098     0.936     129.6947  21.2912        132
 5.00   0.1111   1000.7210   1273.7208 -39.34     1268.312     1.144     1.095     129.7052  20.2919        133
 5.97   0.0915   1598.2085    655.0115 -35.87     1208.848     1.534     1.035     101.8486  20.3441        134
 5.89   0.1469   1595.7100    374.0864 -77.66     823.4621     0.996     0.765     111.3691  20.7609        135
 5.78   0.3270    965.9652    416.2867 -79.61     430.6515     0.732     0.686     129.6524  21.4647        136
 6.15   0.1724    952.0816    654.2863  50.14     817.0293     1.032     0.904     129.6841  20.7694        137
 5.27   0.5579    948.7292    445.0576 -10.29     252.4501     0.736     0.667     129.6788  22.0446        138
 4.35   0.0604    939.9413   1067.0511 -70.41     2331.767     1.362     1.231     129.6841  19.6308        139
 7.65   0.1631    939.0228    516.0239  42.70     864.1564     0.900     0.531     129.7528  20.7085        140
 3.50   0.0088    930.5162   1178.4572 -74.12     15921.95     1.719     1.674     129.6894  17.5450        141
 4.68   0.0871    929.1131   1322.3604 -58.76     1617.477     1.197     1.136     129.6735  20.0279        142
 4.76   0.1423    913.6943    838.5510  -0.76     989.8857     1.175     1.096     129.6894  20.5610        143
 5.71   0.1744    913.0289   1000.9688  21.72     807.8168     0.786     0.778     129.7581  20.7817        144
 7.36   0.2015    905.2064   1315.0332  37.37     699.1608     0.941     0.465     129.7263  20.9386        145
 3.50   0.0217    901.2192    302.7968 -56.43      6492.34     1.598     1.493     129.7316  18.5190        146
 3.50   0.0004    882.8276    183.6549 -39.32     345578.1     3.919     3.518     129.7105  14.2036        147
 5.21   0.0912    897.0114    538.4737   4.14     1544.846     1.584     1.338     129.6947  20.0778        148
 6.81   0.1735    894.8954   1425.8496 -46.45     811.6937     0.836     0.667     129.6788  20.7765        149
 4.83   0.0225    880.0612    224.4287  89.40     6248.215     6.562     1.705     129.7052  18.5606        150
 3.50   0.0011    881.0674   1592.5128 -60.01     117930.6     2.043     1.933     121.4537  15.3709        151
 6.36   0.2231    889.6176    325.1285  22.79     631.2943     1.309     0.828     129.6894  21.0494        152
 5.72   0.0907    886.5520   1500.2416  80.29      1552.79     1.169     1.105     129.7105  20.0722        153
 6.10   0.1186    886.5384   1304.6620  66.27     1187.047     1.188     0.961     129.6841  20.3638        154
 6.94   0.3056    885.8094    339.1945 -44.36     461.1184     0.774     0.566     129.7475  21.3905        155
 6.29   0.0859    878.8572   1176.9626  70.73     1640.472     1.518     1.189     129.7052  20.0126        156
 5.06   0.1432    878.3696    960.6808  48.92       983.22     1.058     0.941     129.6682  20.5684        157
 6.16   0.5155    877.6598    541.6873 -46.29     273.2081     0.571     0.336     129.6947  21.9588        158
 4.70   0.0423    870.2359   1103.6483 -67.14     3330.795     1.791     1.565     129.7052  19.2436        159
 3.50   0.0005    860.0745   1224.5040 -47.86     302985.5     2.220     2.101     129.6894  14.3464        160
 6.18   0.0997    868.7445    939.5904  23.21     1413.393     1.548     1.093     129.7263  20.1743        161
 7.42   0.4211    870.4847    643.4907 -44.26     334.4332     0.503     0.497     129.6788  21.7392        162
 4.93   0.1398    860.3788   1157.4387   2.85     1007.782     1.270     1.034     129.7422  20.5416        163
 6.19   0.1466    859.1392   1339.7198 -63.00     960.4384     1.222     0.856     129.6841  20.5938        164
 7.18   0.0715    845.4885   1206.4347 -40.40     1969.942     1.106     0.846     129.6471  19.8139        165
 5.39   0.2818    845.7783   1063.5769 -17.74     499.9758     0.962     0.946     129.7422  21.3026        166
 5.13   0.1090    844.0469   1106.1366  18.76     1291.877     1.371     1.162     129.6788  20.2719        167
 5.79   0.0487    838.6966   1247.0575 -30.24     2889.813     1.687     1.411     129.6682  19.3978        168
 3.68   0.1193    837.3986    298.7006 -41.02     1180.146     1.274     1.135     129.6471  20.3702        169
 7.74   0.6496    837.6659   1520.3196  45.67     216.8179     0.572     0.336     129.6841  22.2098        170
 6.01   0.2008    836.5015    818.9826  87.56     701.1083     0.780     0.709     129.6418  20.9355        171
 3.55   0.0205    823.7706    654.3607 -50.90     6856.817     1.586     1.494     129.7369  18.4597        172
 3.50   0.0224    803.8652   1378.6172 -21.11     6291.665     1.614     1.532     129.6841  18.5531        173
 3.50   0.0078    799.2974    695.5888 -86.89     18060.14     2.458     1.710     129.6312  17.4082        174
 3.77   0.0533    801.5691     41.1000 -40.94     2642.321     1.385     1.304     129.6207  19.4950        175
 4.49   0.0540    774.8912   1427.3649 -86.80     2609.202     2.372     1.641     129.6577  19.5087        176
 3.58   0.1100    767.6208    391.7805 -77.22      1281.49     1.326     1.142     129.7422  20.2807        177
 4.38   0.1064    743.5647    556.2690 -45.83     1324.106     1.296     1.190     129.7052  20.2452        178
 5.56   0.8238    739.0013   1157.8271  -3.56     170.9759     0.889     0.757     129.6947  22.4677        179
 5.46   0.1434    736.9377    649.5374 -86.48     982.0603     1.078     0.943     129.6841  20.5697        180
 3.50   0.0003    724.9339    404.7116 -46.03     411687.7     2.308     2.135     129.7052  14.0136        181
 3.50   0.0020    727.4246    848.3138 -54.51     71012.16     2.010     1.913     129.6629  15.9217        182
 3.76   0.2151    728.1879   1178.1746 -80.28     655.0032     1.233     1.142     129.7263  21.0094        183
 6.87   0.8684    722.0972   1394.8604  45.99      162.175     0.837     0.666     129.6788  22.5250        184
 4.35   0.0875    716.6957    808.2407 -50.70     1609.519     1.294     1.146     129.6418  20.0333        185
 4.12   0.1497    709.6758   1163.7480 -64.48     941.1325     1.303     1.176     129.6894  20.6159        186
 4.64   0.1075    704.9998   1339.0659 -44.44     1310.189     1.527     1.354     129.7316  20.2567        187
 4.12   0.0495    703.4762    952.2360 -78.82     2845.944     1.470     1.383     129.6788  19.4144        188
 6.46   0.2283    699.8364    582.2878   0.45     616.6901     1.437     0.716     129.6577  21.0748        189
 6.01   0.2895    692.6067   1213.5936  65.46     486.6953     1.192     0.870     129.7528  21.3319        190
 6.65   0.5119    687.8022   1213.6969 -66.41     275.0972     1.196     0.746     129.6629  21.9513        191
 3.97   0.0696    686.3803    644.1360  57.91     2022.319     1.334     1.296     129.6894  19.7854        192
 6.16  99.0000    688.3210    130.7123  47.02    -216.3175     0.551     0.345     129.6999  99.0000        193
 7.41   0.0479    684.1620    472.1445  54.53     2940.661     1.846     1.754     129.7105  19.3789        194
 5.56   0.0674    682.4091    543.5020 -73.36     2090.295     1.735     1.342     129.6524  19.7495        195
 3.50   0.0021    649.1288   1464.3005 -56.11      68211.8     1.944     1.851     129.6682  15.9654        196
 5.04   0.1896    655.5065    870.8812  18.06      742.929     1.038     0.931     129.6788  20.8726        197
 5.14   0.6288    646.9894    652.9609  45.46     224.1039     0.873     0.532     129.7475  22.1739        198
 5.89   0.0900   1546.9692    863.3608  76.59     1565.244     1.273     1.147     129.7369  20.0635        199
 3.50   0.0130    640.5834    536.7324 -68.54     10799.83     1.674     1.593     129.6894  17.9665        200
 4.91   0.1671    631.6395    805.9552 -55.79     843.0931     1.037     1.028     129.7158  20.7353        201
 4.04   0.3037    624.1689   1581.3274 -34.91     463.7035     1.229     1.005     129.6841  21.3844        202
 7.63   0.4572    618.9800   1150.5148 -89.24     307.9266     0.784     0.500     129.6471  21.8289        203
 4.35   0.1344    606.3729    586.1169 -63.98     1047.579     1.229     1.096     129.6788  20.4995        204
 6.34   0.1432    979.1253    452.8247  46.82     983.6422     0.825     0.671     129.6788  20.5679        205
 3.50   0.0042   1508.0348    269.3838 -55.01     33473.42     1.794     1.703     129.7528  16.7382        206
 3.82   0.0768   1571.4200     92.6815 -44.92     1833.673     1.343     1.259     129.6735  19.8917        207
 4.03   0.1424   1585.8164   1108.8448 -44.20     989.5469     1.168     1.134     129.7369  20.5614        208
 4.28   0.0509   1567.4658     22.0305 -33.85     2765.449     1.447     1.283     129.6947  19.4456        209
 4.05   0.0483   1543.5164    654.6591 -29.60     2915.801     1.409     1.266     129.6947  19.3881        210
 5.29   0.0749   1562.1002    861.5002   5.66     1880.198     1.291     1.137     129.6101  19.8645        211
 3.78   0.0346   1542.6946    135.1594 -40.42     4068.094     1.488     1.397     129.6524  19.0265        212
 6.38   0.0582   1566.7689    784.6503 -81.87     2418.609     1.578     1.227     129.7105  19.5911        213
 3.50   0.0023   1558.8809    487.7125 -44.60     61314.33     1.880     1.814     129.6894  16.0811        214
 3.50   0.0023   1564.5659    304.2808 -43.79     61897.94     1.890     1.806     129.6629  16.0708        215
 4.70  99.0000   1551.8231   1221.8469 -44.52    -153.0304     0.803     0.675     129.7263  99.0000        216
 4.14   0.0058   1553.5095    682.2263 -31.95     24085.18     4.341     3.588     129.6524  17.0956        217
 7.35   0.2013   1532.9917    415.9659 -72.46     699.9993     0.800     0.798     129.7369  20.9373        218
 5.90   0.2607   1064.0072      7.0742 -23.41     488.9679     0.782     0.781     117.3615  21.3268        219
 7.88   0.2632   1520.0060     84.4936  89.00     534.9942     0.806     0.500     129.6524  21.2291        220
 5.75   0.1583    981.7465    797.8428 -57.71     889.8736     1.244     1.063     129.7052  20.6767        221
 7.32   0.2272   1499.3314    844.3154 -45.78     619.8899     0.569     0.338     129.7052  21.0692        222
 7.77   0.1609   1516.6619   1547.1537  61.19     875.3304     0.749     0.646     129.6788  20.6946        223
 3.50   0.0165   1515.7172    392.7155 -61.32     8521.214     1.601     1.561     129.6841  18.2237        224
 5.83   0.1682   1515.5969    483.5984 -26.59     837.6636     0.945     0.819     129.7528  20.7423        225
 3.50   0.0070   1026.5923   1379.9623 -52.77     20257.55     1.772     1.694     129.7263  17.2835        226
 5.50   0.0935   1504.8645    723.3122 -37.54     1506.736     1.147     1.061     129.7105  20.1049        227
 5.43   0.1511   1060.7614    726.9356  31.30     932.0191     1.270     1.097     129.6947  20.6264        228
 6.52   0.5301   1065.9205   1562.9261 -82.67     265.6983     1.335     0.770     129.6894  21.9890        229
 4.72   0.1989   1074.0288      6.5546 -39.16     631.6863     1.034     0.890     115.7149  21.0487        230
 4.62  99.0000   1066.4927   1597.0061   0.05    -357.4099     0.774     0.500     106.5512  99.0000        231
 8.68   0.5672   1067.6896    568.6803 -44.50     248.3012     0.561     0.341     129.6894  22.0626        232
 9.15   0.1729   1483.6051    575.1877 -18.10     814.7832     0.763     0.450     129.7422  20.7724        233
 3.50   0.0041   1080.7583    512.1453 -49.86     34394.68     1.786     1.735     129.7105  16.7088        234
 6.07   0.1967   1084.4833     42.9855  89.21     715.7503     0.813     0.702     129.6577  20.9131        235
 5.05   0.7059   1080.0181    330.0150 -51.63     199.5891     0.791     0.768     129.7369  22.2997        236
 3.98   2.0059   1096.1542   1526.4453 -71.82     70.22449     1.131     0.935     129.7052  23.4338        237
 3.75   0.0354   1436.1023    224.7933 -44.30     3974.068     1.460     1.384     129.6577  19.0519        238
 7.95   0.1523   1105.7139    678.9739  -0.29     924.6801     0.743     0.682     129.6682  20.6350        239
 3.53   0.0506   1409.0533    308.3669 -18.44     2781.866     1.430     1.366     129.7158  19.4392        240
 3.50   0.0193   1108.2046    427.9494 -44.18     7293.851     1.613     1.542     129.7158  18.3926        241
 3.50   0.0130   1105.2900    751.8293 -46.25     10798.34     1.668     1.551     129.6577  17.9666        242
 6.47   0.1148   1115.0071    674.3222 -31.47     1227.269     0.994     0.835     129.6841  20.3277        243
 3.50   0.0009   1435.2311   1090.4395 -53.03     148926.3     2.026     1.924     129.7316  15.1176        244
 6.60   0.0867   1111.6033    479.0096  -3.10     1625.359     1.577     1.173     129.7369  20.0226        245
 5.11   0.0621   1120.8527    329.7652  62.39     2269.525     1.957     1.388     129.7105  19.6602        246
 5.63   0.0118   1360.3300   1135.1975  70.78     11943.99     5.755     4.374     129.7316  17.8571        247
 6.16   0.1550   1412.3901    350.3234  42.17     908.7159     1.027     0.888     129.6894  20.6539        248
 3.52   0.0525   1440.6613    619.1829  -9.50     2681.935     1.362     1.248     129.7105  19.4789        249
 5.34   0.1444   1407.3208    329.6469 -45.88     975.6122     0.968     0.884     129.6894  20.5768        250
 5.80   0.4753   1439.4858   1271.0208 -89.14     296.2467     0.823     0.690     129.6524  21.8709        251
 6.98   0.1552   1432.8917    340.8729  10.34     907.2365     0.978     0.694     129.6894  20.6557        252
 4.25   0.0711   1416.3516   1386.5266 -23.95      1979.53     1.316     1.243     129.6788  19.8086        253
 3.68   0.0173   1389.6260   1428.5151 -27.12     8116.805     1.585     1.545     129.6735  18.2765        254
 3.50   0.0073   1420.1692   1126.3665 -61.53     19173.78     1.857     1.681     129.7475  17.3432        255
 4.07   0.0520   1391.3157    713.2686  -9.03     2710.902     1.350     1.325     129.6999  19.4672        256
 6.79   0.2827   1371.3350   1215.6832  45.86     498.0842     0.571     0.337     129.6788  21.3067        257
 3.50   0.0004   1367.0562   1159.7576 -45.14     359886.7     3.211     2.966     129.7158  14.1596        258
 7.00   0.2609   1389.5149    806.5027 -43.21     539.7208     0.502     0.498     129.6841  21.2196        259
 3.50   0.0017   1394.2540    114.4834 -45.24     83746.72     1.953     1.851     129.6788  15.7426        260
 5.22   0.1651   1401.4977   1031.6376   6.13     852.7517     1.180     1.007     129.6365  20.7229        261
 3.50   0.0773   1393.1047   1038.7120  20.91     1822.242     1.266     1.229     129.6788  19.8985        262
 3.50   0.0151   1373.4517   1018.9463 -17.83     9302.155     1.672     1.591     129.6947  18.1285        263
 4.78   0.2268   1130.8622    219.3012 -25.20     620.8475     1.304     0.863     129.6788  21.0675        264
 3.50   0.0045   1320.9172    659.9871 -52.97     31269.13     1.836     1.712     129.6524  16.8122        265
 3.50   0.0044   1139.3254    148.1174 -38.19     32109.33     1.811     1.729     129.6894  16.7834        266
 5.99   0.1527   1331.2291    386.8348  -9.05      922.785     1.056     0.828     129.7422  20.6372        267
 4.35   0.2131   1305.5399    892.8893   0.18     660.9822     1.069     0.942     129.6788  20.9995        268
 3.50   0.0007   1299.2628    724.8812 -48.19     195718.1     2.070     1.947     129.6841  14.8209        269
 5.01   0.2082   1130.0918    547.4588 -64.96     676.4692     1.034     0.943     129.6682  20.9744        270
 6.86   0.7004   1131.6010    358.8142  18.02     201.1484     0.738     0.455     129.7316  22.2912        271
 8.72   0.7415   1346.3232    605.3577 -43.64     189.9303     0.583     0.329     129.6788  22.3535        272
 9.20   0.1454   1353.5139    152.4898 -44.68     968.5396     0.504     0.496     129.6788  20.5847        273
 6.50   0.0852   1331.3510   1139.5618 -59.70      1652.41     1.357     1.247     129.7052  20.0047        274
 4.15   0.0329   1330.7760    655.8708 -45.62     4276.581     1.565     1.528     129.6894  18.9723        275
 5.05   0.1079   1333.6184    107.5224 -17.45     1305.737     1.198     1.016     129.6735  20.2604        276
 4.13   0.0192   1173.3842    758.0570 -65.24     7322.122     3.170     2.878     129.7211  18.3884        277
 4.17   0.1422   1293.8528    412.8324 -17.21     990.9941     1.131     1.068     129.7211  20.5598        278
 5.03   0.0433   1308.5431   1036.2317 -36.76     3251.978     2.270     1.591     129.7105  19.2696        279
 4.68   1.2430   1262.9794    855.2561  87.84     113.3307     0.710     0.686     129.7158  22.9141        280
 5.66   0.1198   1320.0740    264.1943 -52.70     1176.023     1.147     0.799     129.7105  20.3740        281
 3.90   0.0107   1273.6370    609.9811 -58.41     13169.99     3.634     2.216     129.7422  17.7510        282
 3.67   0.0423   1308.3613    669.6719 -48.24     3328.489     1.406     1.362     129.6894  19.2444        283
 5.03   0.0757   1294.4031    742.3216  79.16     1861.257     1.239     1.126     129.6788  19.8755        284
 7.14   0.2303   1300.3899     53.7704 -17.75     611.7307     0.739     0.454     129.7211  21.0836        285
 6.76   0.2936   1182.4879    176.4805   0.36     479.7685     1.075     0.500     129.6894  21.3474        286
 3.50   0.0194   1292.1992    762.0816 -25.90     7245.238     1.990     1.577     129.6894  18.3999        287
 6.89   0.5856   1273.9921    698.4935 -88.69     240.4516     0.802     0.500     129.6471  22.0974        288
 3.96   0.0287   1278.9128   1331.4569 -45.43     4909.104     1.497     1.463     129.6894  18.8225        289
 5.31   0.1010   1260.2441    432.5118  62.07     1394.029     1.629     1.386     129.6894  20.1893        290
 3.94   0.0457   1235.1912    304.8459 -29.89     3082.693     1.403     1.365     129.7211  19.3277        291
 3.50   0.0435   1266.2544    807.8636 -48.42     3236.217     1.416     1.364     129.6841  19.2749        292
 6.01   0.1107   1230.4740    599.1655  35.64     1272.396     1.216     1.051     129.6894  20.2884        293
 3.50   0.0002   1222.2419    995.1810 -28.78     717999.2     5.954     4.911     129.7369  13.4097        294
 3.50   0.3934   1181.6586    549.3268 -43.44     357.9917     1.018     0.859     129.6841  21.6653        295
 5.57   0.2016   1229.0801   1153.9688 -36.12      698.623     0.793     0.778     129.6577  20.9394        296
 5.22   0.4093   1162.5021    887.8837 -19.56     344.0902     1.088     0.972     129.6894  21.7083        297
 3.96   0.1958   1243.2858    672.6531 -82.05     719.4417     1.189     1.041     129.6788  20.9075        298
 3.50   0.0091   1215.4316    513.0142 -30.60      15457.1     1.681     1.609     129.7211  17.5772        299
 6.63   0.2955   1183.7528    673.2309 -44.37       476.72     0.745     0.558     129.7105  21.3543        300
 4.17   0.0100   1211.5728   1278.9662  82.73     14075.74     5.306     3.235     129.7369  17.6788        301
 3.83   0.0132   1219.6571   1194.9600 -37.74     10635.48     1.731     1.594     129.7052  17.9831        302
 4.00   0.0817   1238.0083   1553.4725  -2.36     1723.662     1.264     1.133     129.6999  19.9589        303
 5.66   0.0646   1195.8529    124.2404  88.52     2179.787     1.613     1.388     129.7105  19.7040        304
 5.52   0.0686   1203.9291   1075.4823  40.99     2051.659     1.506     1.331     129.6841  19.7697        305
 6.89   0.0732   1213.3812   1429.8090 -31.43     1924.063     1.452     1.337     129.7263  19.8395        306
 3.50   0.0944   1208.5078    838.8335 -62.97     1490.878     1.289     1.174     129.6524  20.1164        307
 4.05   0.0866   1202.6908    339.1082 -89.17     1625.779     1.293     1.270     129.6735  20.0223        308
 3.50   0.0163   1039.5018    525.4022 -60.22     8636.678     1.596     1.551     129.6577  18.2091        309
 6.22   0.2034   1238.3855     48.2105  21.07     692.7697     1.018     0.791     129.7263  20.9485        310
 4.89   0.1277   1201.6527   1442.0063 -88.47     1103.497     1.418     1.185     129.7158  20.4431        311
 3.52   0.0229   1158.6979    236.4656 -37.68     6142.732     1.528     1.476     129.6841  18.5791        312
 3.50   0.0027   1165.9800   1299.8152 -70.20     52505.41     1.867     1.821     129.7316  16.2495        313
 4.30   0.0935   1152.0620     99.4303  -5.67     1506.829     1.285     1.129     129.6947  20.1048        314
 7.14   0.9914   1134.7693    607.3962 -71.72     142.0833     0.742     0.453     129.7105  22.6686        315
 5.58   0.1227   1154.4492   1353.0486  79.65     1148.087     1.339     1.184     129.6894  20.4001        316
 3.50   0.0005   1152.4425    693.8433 -41.38     311706.5     3.304     3.051     129.6894  14.3156        317
 3.50   0.0084   1130.7413    183.5695 -54.21      16683.6     1.705     1.617     129.7158  17.4943        318
 6.22   0.1770   1095.1503   1136.1940 -48.24     795.7404     0.820     0.670     129.7158  20.7981        319
 3.50   0.0045   1095.7329    778.1555 -53.05      31106.4     1.820     1.714     129.6788  16.8179        320
 6.80   0.1531   1091.6282    468.2690 -65.29     920.0472     1.371     0.725     129.6947  20.6405        321
 3.50   0.0455   1090.0703    642.4240 -44.86     3093.992     1.479     1.336     129.6894  19.3237        322
 4.70   0.0832   1030.8552    302.6511  62.66     1693.055     1.959     1.479     129.6841  19.9783        323
 3.50   0.0137   1082.6013   1148.1779 -73.45     10313.96     1.664     1.599     129.7158  18.0164        324
 5.69   0.0566   1072.8003   1219.0272 -60.86     2486.978     1.699     1.401     129.6999  19.5608        325
 3.50   0.0081   1010.5993    813.6566 -43.67     17394.08     1.725     1.671     129.7052  17.4490        326
 3.50   0.0003   1024.3812     50.1974 -45.52     487628.3     2.230     2.080     129.7316  13.8298        327
 3.50   0.0032   1041.0414    633.0447 -52.89     43718.96     1.833     1.768     129.6999  16.4483        328
 7.84   0.2312   1039.1428    121.5545 -41.69     609.1645     1.104     0.483     129.6947  21.0882        329
 3.55   0.0596   1012.0233    344.6380 -60.50      2363.32     1.374     1.242     129.7369  19.6162        330
 5.73   0.0865    987.4119    453.9875 -77.42     1628.695     1.406     1.215     129.7316  20.0204        331
 3.93   0.0496   1002.4827    542.4571 -77.39     2840.463     1.448     1.302     129.6894  19.4165        332
 3.50   0.2126   1002.4807   1555.2145 -80.17     662.1448     1.290     1.092     129.6524  20.9976        333
 3.50   0.0047    985.6537    558.4514 -53.70     30286.66     1.809     1.717     129.6894  16.8469        334
