#   1 KRON_RADIUS            Kron apertures in units of A or B                         
#   2 MAGERR_APER            RMS error vector for fixed aperture mag.                   [mag]
#   3 Y_IMAGE                Object position along y                                    [pixel]
#   4 X_IMAGE                Object position along x                                    [pixel]
#   5 THETA_IMAGE            Position angle (CCW/x)                                     [deg]
#   6 FLUX_APER              Flux vector within fixed circular aperture(s)              [count]
#   7 A_IMAGE                Profile RMS along major axis                               [pixel]
#   8 B_IMAGE                Profile RMS along minor axis                               [pixel]
#   9 FLUX_RADIUS            Fraction-of-light radii                                    [pixel]
#  10 FLUXERR_APER           RMS error vector for aperture flux(es)                     [count]
#  11 MAG_APER               Fixed aperture magnitude vector                            [mag]
#  12 NUMBER                 Running object number                                     
 6.31   0.0000     18.0177    984.8166 -87.80     4368.011     2.286     1.222      7.244   0.00605558  18.9493          1
 4.09   0.0000     19.5583     91.2044  58.49     4215.994     1.364     1.283      2.050  0.006057635  18.9877          2
 3.97   0.0000     16.2525   1445.5814  -2.43     11056.42     1.631     1.596      2.543   0.00605695  17.9410          3
 4.72   0.0000     54.8072     63.6595   9.81     27696.68     3.316     3.127      9.952  0.006059689  16.9439          4
 3.50   0.0000     61.4171   1078.3870  51.12     39674.78     2.084     1.982      2.702   0.00605558  16.5537          5
 3.50   0.0000     81.5825    537.4385  -4.68     35687.66     2.045     1.992      2.460  0.006057635  16.6687          6
 5.60   0.0000     76.6624    127.9370  74.33     1749.631     1.014     0.752      2.042   0.00605421  19.9426          7
 3.50   0.0000    183.5738   1107.5902 -21.09       649103     4.483     4.170      6.701   0.00605558  13.5192          8
 5.10   0.0000     98.2329     56.0621  -1.10     2567.657     1.183     1.054      2.360   0.00605558  19.5262          9
 3.50   0.0000    123.3790    788.9949   9.43     53124.27     2.143     2.072      2.694  0.006054895  16.2368         10
 3.50   0.0000    195.1885    317.9802  -9.44     181237.2     2.420     2.363      2.776   0.00605421  14.9044         11
 3.50   0.0000    163.8939   1468.2450   3.22     32927.45     1.994     1.928      2.590  0.006050096  16.7561         12
 4.24   0.0000    171.8100    877.2076  -9.70     9927.329     1.627     1.578      2.227  0.006052839  18.0579         13
 5.42   0.0000    236.4142    403.6726 -34.72     24845.67     4.221     3.241     14.384  0.006060374  17.0619         14
 6.11   0.0000    208.4227    549.0812  25.60     1810.167     1.070     0.960      2.462   0.00605558  19.9057         15
 7.20   0.0000    212.1001    827.4138   8.34     3046.382     1.483     1.165      7.433   0.00605421  19.3405         16
 5.45   0.0000    213.6940   1306.1635 -24.50     1704.877     1.096     0.876      2.122  0.006050782  19.9708         17
 5.00   0.0000    225.6689   1225.9899  13.35     2077.518     1.091     1.044      2.135  0.006059005  19.7561         18
 3.50   0.0000    261.3262    997.3780  -0.21     86268.52     2.226     2.197      2.772  0.006059005  15.7104         19
 9.43   0.0000    231.5945    561.7972  18.92     2748.534     0.767     0.448      4.602  0.006053524  19.4522         20
 3.50   0.0000    267.4431     67.6054   2.46     65205.95     2.166     2.120      2.723  0.006057635  16.0143         21
 6.45   0.0000    256.9312    612.8807 -27.09     2894.263     1.511     1.223      4.496  0.006052839  19.3962         22
 3.50   0.0000    313.6436    439.4422 -17.25     219796.3     2.447     2.400      2.704   0.00605558  14.6949         23
 3.76   0.0000    289.1031   1486.3970  -1.68     19669.14     1.829     1.768      2.523  0.006054895  17.3155         24
 4.43   0.0000    283.4579   1522.2518  -2.42     4815.267     1.445     1.339      2.007  0.006054895  18.8434         25
 3.89   0.0000    304.6103    201.7309  29.23     15669.88     1.773     1.738      2.165  0.006059005  17.5623         26
 7.86   0.0000    291.1579    514.8832  43.11     1515.832     0.851     0.683      2.485   0.00605421  20.0984         27
 5.64   0.0000    295.4981   1327.4944  25.16     2018.055     1.038     1.034      1.988  0.006048725  19.7877         28
 3.50   0.0000    320.1958    905.3622  21.31     45803.75     2.084     2.041      2.634   0.00605558  16.3977         29
 3.50   0.0000    352.8441    890.7260  -9.78     196489.8     2.388     2.354      2.834  0.006052839  14.8166         30
 4.10   0.0000    323.5567    697.1645   3.83     11341.91     1.714     1.635      2.151   0.00605832  17.9133         31
 3.50   0.0000    352.8592   1345.7883   2.46       187429     2.373     2.333      2.815  0.006057635  14.8679         32
 7.24   0.0000    329.0273    595.0148  41.40     1484.262     0.804     0.793      2.518  0.006056265  20.1212         33
 4.75   0.0000    347.8868    866.9655  26.53     6941.035     1.559     1.504      2.271  0.006054895  18.4464         34
 4.89   0.0000    357.2531    431.7331  84.99     4986.549     1.609     1.533      2.412  0.006053524  18.8055         35
 4.30   0.0000    369.5773    761.0267  18.17      11394.8     1.675     1.625      2.154   0.00605558  17.9082         36
 6.19   0.0000    362.7292   1500.4445  17.83     1923.292     1.001     0.964      2.171  0.006053524  19.8399         37
 4.94   0.0000    368.8135    442.5970 -19.05     4100.852     1.360     1.291      2.185  0.006053524  19.0178         38
 3.50   0.0000    396.6522    231.3613   8.15     39785.48     2.057     1.986      2.504  0.006056265  16.5507         39
 4.09   0.0000    398.5505   1461.0779  40.88     7937.301     1.547     1.535      2.087  0.006052839  18.3008         40
 4.03   0.0000    399.5814    354.4711  -0.46     8992.517     1.626     1.539      2.095   0.00605832  18.1653         41
 5.94   0.0000    395.3512   1088.5801 -44.27     1861.407     1.008     0.880      2.070   0.00605695  19.8754         42
 3.50   0.0000    421.0854    433.2318   4.55     37619.17     2.046     1.991      2.544   0.00605558  16.6115         43
 3.69   0.0000    417.0677    837.3331  26.76     20949.71     1.846     1.824      2.434  0.006051468  17.2471         44
 4.46   0.0000    425.6295    926.3432  29.13     4166.994     1.387     1.324      2.088  0.006057635  19.0004         45
 3.91   0.0000    439.4596    251.9905  25.24     17247.89     1.797     1.772      2.326  0.006059689  17.4582         46
 3.50   0.0000    462.6557    807.5714  15.00     98701.22     2.237     2.197      2.892  0.006057635  15.5642         47
 6.76   0.0000    434.3078   1421.9442  -6.51     1218.952     0.747     0.669      1.747  0.006052153  20.3350         48
 4.70   0.0000    451.8016     21.2448 -34.25     5663.885     1.463     1.418      2.236  0.006059005  18.6672         49
 4.64   0.0000    459.3005     34.4650 -33.59     6392.401     1.513     1.421      1.966  0.006053524  18.5358         50
 5.83   0.0000    465.2858    468.4753  10.74     1865.425     0.998     0.968      2.150  0.006050782  19.8731         51
 8.15   0.0000    469.2318    850.5855  20.42      3500.82     2.323     0.963     13.335   0.00605695  19.1896         52
 5.63   0.0000    473.5480    734.6465  12.30     2361.059     1.127     1.015      2.005  0.006057635  19.6172         53
 4.70   0.0000    479.3407    922.9503 -82.99     3003.952     1.241     1.205      1.842  0.006054895  19.3558         54
 6.12   0.0000    472.8965    254.2907 -14.85     1640.264     1.013     0.752      2.292   0.00604941  20.0127         55
 8.73   0.0000    479.5103   1276.5365 -56.99     1035.286     0.501     0.498      2.056  0.006052839  20.5123         56
 6.13   0.0000    485.7864   1070.5377  -0.85     1346.701     0.968     0.729      2.254  0.006056265  20.2268         57
 4.25   0.0000    513.8693   1302.2069  22.29      13063.8     1.697     1.636      2.298   0.00605832  17.7598         58
 5.56   0.0000    534.5058    518.6108  41.58     13469.42     2.688     2.233      9.378  0.006053524  17.7266         59
 7.46   0.0000    514.8259   1309.8927 -42.52     1081.694     0.826     0.684      2.409  0.006053524  20.4647         60
 8.12   0.0000    516.8817   1460.8372  10.01     2330.093     1.206     0.731      6.864  0.006054895  19.6316         61
 3.50   0.0000    589.2437   1315.8972 -13.46     196400.5     2.366     2.354      2.830  0.006050096  14.8171         62
 5.77   0.0000    541.6715    999.6852  42.16     1916.604     1.012     0.879      2.092  0.006050096  19.8437         63
 5.36   0.0000    560.3172   1041.6061  72.49     2540.283     1.168     1.075      1.840  0.006054895  19.5378         64
 4.18   0.0000    574.0309   1242.7737  20.57     7965.419     1.569     1.485      2.347  0.006056265  18.2970         65
 4.00   0.0000    582.1909    144.8900 -14.02     11265.76     1.718     1.590      2.294  0.006053524  17.9206         66
 4.17   0.0000    583.6362    319.0816 -11.01     11008.68     1.682     1.600      2.161  0.006054895  17.9457         67
 8.14   0.0000    572.8379     45.8646  43.18      1547.74     0.768     0.573      3.471  0.006056265  20.0758         68
 3.50   0.0000    632.6017    483.1553   0.26     317587.4     2.545     2.485      3.301  0.006059005  14.2953         69
 7.18   0.0000    598.4614    782.5926 -81.96     4204.215     1.782     1.456      8.617  0.006060374  18.9908         70
 5.56   0.0000   1003.0142    542.5062 -89.43     2904.878     1.231     1.184      2.065   0.00605421  19.3922         71
 4.70   0.0000   1543.1919    134.6472  14.59     4340.243     1.398     1.251      2.082   0.00605832  18.9562         72
 4.48   0.0000    901.8172    302.6646  37.00     7138.749     1.565     1.451      2.224   0.00605695  18.4159         73
 3.50   0.0000    883.3663    183.6777  -9.96     404154.9     2.961     2.872      4.103  0.006054895  14.0336         74
 3.50   0.0000    881.6253   1592.4700  44.96     58952.79     2.259     2.209      2.780  0.006056265  16.1237         75
 8.25   0.0000    882.1304    224.1990  89.51     3232.371     2.195     0.903     13.169   0.00605832  19.2762         76
 6.25   0.0000    870.7857   1103.3708 -75.40     2413.826     1.184     1.105      2.333   0.00605832  19.5932         77
 3.50   0.0000    860.6466   1224.4044  33.18     182598.4     2.447     2.401      2.808  0.006059689  14.8963         78
 7.68   0.0000    839.1224   1247.0836 -43.03     1543.326     0.855     0.664      2.424  0.006052153  20.0789         79
 6.45   0.0000    838.0142    298.7914   0.17     1567.053     0.930     0.757      2.136  0.006052153  20.0623         80
 4.36   0.0000    824.4388    654.2489  32.69     7022.404     1.620     1.523      2.085   0.00605695  18.4338         81
 4.31   0.0000    804.3575   1378.5701  26.05     6708.526     1.527     1.438      1.914   0.00605832  18.4834         82
 3.79   0.0000    799.9598    695.5825  88.10     18373.34     2.373     1.812      5.386   0.00605695  17.3895         83
 5.36   0.0000    802.0208     41.0481  -8.92     3114.365     1.174     1.155      2.055   0.00605695  19.3166         84
 8.46   0.0000    775.8604   1427.1091  44.96     2123.996     0.852     0.677      5.114  0.006052153  19.7321         85
 6.70   0.0000    768.0928    391.6436  22.75     1359.997     0.913     0.696      2.022   0.00604941  20.2162         86
 6.05   0.0000    744.1716    556.1879 -36.37     1629.338     0.908     0.872      2.005   0.00605695  20.0200         87
 3.50   0.0000    725.5036    404.7625  10.64     218489.9     2.495     2.426      2.947  0.006050096  14.7014         88
 3.50   0.0000    727.9924    848.3605  21.67      50990.5     2.154     2.084      2.506   0.00605695  16.2813         89
 8.39   0.0000    728.6845   1178.3207  44.73     1110.194     0.564     0.340      2.084  0.006052153  20.4365         90
 7.01   0.0000    717.1519    808.1780 -45.74      1416.46     0.819     0.685      1.740   0.00605695  20.1720         91
 5.95   0.0000    710.3123   1163.7184  43.64     1455.913     0.948     0.766      1.816  0.006052153  20.1422         92
 8.40   0.0000    705.4985   1338.9934   0.02     1395.231     0.795     0.500      2.515  0.006053524  20.1884         93
 5.42   0.0000    704.2586    952.3961  87.11     2590.456     1.161     1.086      2.251  0.006059689  19.5166         94
 5.64   0.0000    687.1166    644.1465 -25.39     2104.694     1.112     0.996      2.312  0.006051468  19.7420         95
 9.01   0.0000    683.0135    543.7541  89.37     1459.497     0.697     0.431      3.791  0.006056265  20.1395         96
 3.50   0.0000    649.7262   1464.2883  34.32     50111.18     2.093     2.072      2.630  0.006050782  16.3002         97
 3.98   0.0000    641.2554    536.7820  24.79     11707.12     1.709     1.647      2.390   0.00605695  17.8789         98
 7.93   0.0000   1586.3934   1108.2385  17.47     2085.767     0.742     0.456      2.067  0.006056265  19.7518         99
 8.49   0.0000    624.5285   1581.4906 -42.57     1154.516     0.504     0.495      1.961  0.006052153  20.3940        100
 6.95   0.0000    606.9889    586.2702  87.86     1198.362     0.734     0.685      2.335   0.00605832  20.3535        101
 3.50   0.0000   1559.3215    487.3288  -1.31     46122.94     2.224     2.143      2.604  0.006051468  16.3902        102
 0.00  99.0000    923.3326    806.9226  67.92  -0.04065913     0.924     0.692      0.000  0.006050096  99.0000        103
 3.50   0.0000   1564.9252    303.8681   4.01     47509.36     2.224     2.112      2.463  0.006050096  16.3581        104
 5.90   0.0000   1568.0199     21.5032 -88.09     2726.095     1.107     0.974      2.230  0.006052839  19.4611        105
 6.52   0.0000   1571.9105     92.3342 -14.63     2280.563     1.020     0.754      2.203  0.006053524  19.6549        106
 8.92   0.0000   1567.3237    784.3279 -44.80     1684.435     0.571     0.337      2.752  0.006052153  19.9839        107
 5.07   0.0000   1553.9452    681.8788 -22.28     17894.73     3.214     2.732     10.737  0.006053524  17.4182        108
 5.76   0.0000   1543.9073    654.2032  61.82     3142.004     1.132     1.125      2.197  0.006052839  19.3070        109
 4.15   0.0000   1516.2017    392.2738   6.98     9011.439     1.689     1.570      2.176   0.00605832  18.1630        110
 8.60   0.0000    929.5325   1322.4685 -42.45     1155.846     0.499     0.499      1.962  0.006051467  20.3927        111
 3.78   0.0000    931.0596   1178.2706  30.27     16425.71     1.822     1.752      2.355  0.006053524  17.5112        112
 3.60   0.0000   1508.4642    269.0217  -3.74     30202.41     2.082     1.979      2.352  0.006057635  16.8499        113
 5.99   0.0000    940.5368   1066.8860 -79.34     2049.619     1.025     0.890      1.985  0.006051468  19.7708        114
 3.50   0.0000   1024.9952     50.2525  -9.44     265143.2     2.605     2.522      2.911  0.006059689  14.4913        115
 3.56   0.0000    986.2191    558.3962   9.78     26667.92     2.039     1.945      2.406  0.006054895  16.9850        116
 3.60   0.0000   1081.3064    512.0062   6.22     29895.36     2.035     1.979      2.511   0.00605421  16.8610        117
 3.70   0.0000   1027.1084   1379.8096  26.27      19784.1     1.892     1.829      2.444   0.00605421  17.3092        118
 4.13   0.0000   1105.7604    751.7288   7.44     12246.83     1.765     1.662      2.202   0.00605558  17.8299        119
 4.74   0.0000   1436.6774    224.3388  31.38     4355.458     1.409     1.307      2.155  0.006052839  18.9524        120
 8.06   0.0000   1121.6558    329.5492   7.09     2377.809     1.037     0.653      4.391   0.00605558  19.6096        121
 5.60   0.0000   1409.5924    307.9955 -29.86     3197.996     1.232     1.031      2.070  0.006054895  19.2878        122
 3.50   0.0000   1435.6688   1090.3186  -6.33     98382.63     2.374     2.325      2.690  0.006052153  15.5677        123
 6.29   0.0000   1416.6135   1386.3787 -43.16     2230.129     1.017     0.886      2.034   0.00605421  19.6792        124
 5.27   0.0000   1441.1284    618.8443 -35.54      3338.37     1.232     1.155      1.881  0.006053524  19.2412        125
 3.87   0.0000   1420.6572   1126.1425 -65.05     19833.88     1.941     1.900      2.538  0.006052839  17.3065        126
 4.16   0.0000   1390.1785   1428.3324  -5.91     8964.028     1.637     1.516      2.371   0.00605695  18.1687        127
 4.23   0.0000   1373.9004   1018.6030 -14.06     9819.074     1.672     1.608      2.254   0.00605421  18.0698        128
 5.30   0.0000   1391.9355    712.9854   4.53     3299.154     1.175     1.161      2.331   0.00605558  19.2540        129
 6.58   0.0000   1393.7781   1038.4736   0.80     2467.108     0.980     0.722      2.192  0.006059005  19.5695        130
 3.50   0.0000   1367.9203   1159.7777 -23.29     386830.9     2.695     2.614      3.969   0.00605558  14.0812        131
 3.50   0.0000   1394.7126    114.2250  -4.22     61270.44     2.282     2.175      2.499  0.006054895  16.0819        132
 8.07   0.0000   1358.2888   1135.4258  30.17     6755.235     2.137     1.991     12.166   0.00605421  18.4759        133
 8.19   0.0000   1367.9923   1134.0149  12.11     3393.561     1.218     1.206      7.306  0.006052153  19.2234        134
 3.88   0.0000   1131.2469    183.3261   6.71      17705.3     1.905     1.788      2.199  0.006052839  17.4297        135
 3.50   0.0000   1299.6019    724.6573  -5.00     121943.8     2.407     2.372      2.615  0.006060374  15.3346        136
 5.64   0.0000   1308.8384    669.3336 -18.99     3150.611     1.341     1.142      2.208   0.00605558  19.3040        137
 7.64   0.0000   1152.6816     99.0438  -4.48     1599.799     0.747     0.672      2.151  0.006052839  20.0398        138
 3.79   0.0000   1321.3125    659.7673   5.80     27268.32     2.015     1.993      2.327   0.00605558  16.9609        139
 5.94   0.0000   1331.2336    655.5963 -52.79     3511.292     1.348     1.271      1.785   0.00605558  19.1863        140
 7.24   0.0000   1308.8297   1035.8474 -10.40     2384.162     1.259     0.869      3.690   0.00605832  19.6067        141
 3.50   0.0000   1166.4503   1299.5134  -1.42     41902.49     2.106     2.086      2.527  0.006052153  16.4944        142
 4.86   0.0000   1266.7605    807.5314  -7.27     3785.942     1.343     1.294      2.177   0.00605558  19.1046        143
 4.78   0.0000   1292.7760    761.6886  -5.31      7271.08     1.627     1.481      2.222  0.006054895  18.3960        144
 6.75   0.0000   1173.8475    757.7410   8.38     6186.408     2.024     1.793      7.635  0.006054895  18.5714        145
 5.26   0.0000   1274.1238    609.6808 -50.48     10954.14     2.670     2.039      9.014  0.006053524  17.9511        146
 4.47   0.0000   1159.1190    236.1723  20.62     6413.355     1.538     1.467      1.851   0.00605558  18.5323        147
 4.80   0.0000   1279.3807   1331.1724 -27.52     4871.497     1.417     1.321      1.940  0.006056265  18.8308        148
 3.50   0.0000   1222.6399    995.0029 -16.15     738589.3     4.925     4.500      7.280   0.00605558  13.3790        149
 5.40   0.0000   1235.7123    304.5182  -1.77     3188.521     1.289     1.122      2.113  0.006052153  19.2910        150
 5.75   0.0000   1211.2876   1278.3350 -77.19     9709.095     3.348     2.291     11.473  0.006052839  18.0821        151
 6.65   0.0000   1203.0242    338.7839   2.29     2036.296     0.931     0.757      1.702   0.00605421  19.7779        152
 5.89   0.0000   1238.3884   1553.3746  41.38     2021.941     1.015     0.885      1.872  0.006054895  19.7856        153
 4.29   0.0000   1220.0964   1194.5251  37.11     11149.63     1.696     1.660      2.223  0.006052153  17.9318        154
 3.93   0.0000   1215.9117    512.8329  15.78      16928.6     1.809     1.755      2.225   0.00605421  17.4784        155
 9.49   0.0000   1196.4969    123.5299 -49.90     1838.544     0.502     0.497      3.013  0.006052839  19.8888        156
 6.40   0.0000   1208.7668    838.6620  14.61     2098.273     0.971     0.871      1.986   0.00605558  19.7453        157
 4.43   0.0000   1108.7335    427.7645   4.35     7869.099     1.607     1.520      2.146  0.006056265  18.3102        158
 3.50   0.0000   1152.9272    693.7413   0.07     367704.7     2.677     2.612      3.369  0.006052839  14.1363        159
 3.61   0.0000   1096.0917    777.9844  16.74     26804.69     2.004     1.934      2.322   0.00605558  16.9795        160
 3.64   0.0000   1139.7985    147.8554  -5.04      28956.6     2.051     1.954      2.284  0.006060374  16.8956        161
 3.99   0.0000   1083.0991   1147.9897  -8.05     10950.18     1.680     1.606      2.251  0.006052839  17.9514        162
 4.90   0.0000   1090.5479    642.2963  -0.37     3414.911     1.335     1.223      1.984  0.006050096  19.2166        163
 3.50   0.0000   1041.5425    632.9236  13.83     35323.25     2.117     2.036      2.379   0.00605421  16.6798        164
 9.40   0.0000   1073.4999   1218.4994 -45.00     1916.896     0.501     0.499      3.008  0.006045294  19.8435        165
 4.33   0.0000   1039.9812    525.2786  -6.66     9297.207     1.660     1.550      2.230  0.006057635  18.1291        166
 8.53   0.0000   1002.5225   1555.4891  19.75     1274.645     0.500     0.499      1.855  0.006050782  20.2865        167
 3.82   0.0000   1011.1131    813.5728   4.15        18152     1.893     1.783      2.349  0.006054895  17.4027        168
 5.55   0.0000   1012.5179    344.6952   0.66     2740.442     1.192     1.009      1.939  0.006050782  19.4554        169
