#   1 KRON_RADIUS            Kron apertures in units of A or B                         
#   2 MAGERR_APER            RMS error vector for fixed aperture mag.                   [mag]
#   3 Y_IMAGE                Object position along y                                    [pixel]
#   4 X_IMAGE                Object position along x                                    [pixel]
#   5 THETA_IMAGE            Position angle (CCW/x)                                     [deg]
#   6 FLUX_APER              Flux vector within fixed circular aperture(s)              [count]
#   7 A_IMAGE                Profile RMS along major axis                               [pixel]
#   8 B_IMAGE                Profile RMS along minor axis                               [pixel]
#   9 FLUX_RADIUS            Fraction-of-light radii                                    [pixel]
#  10 FLUXERR_APER           RMS error vector for aperture flux(es)                     [count]
#  11 MAG_APER               Fixed aperture magnitude vector                            [mag]
#  12 NUMBER                 Running object number                                     
 4.48   0.0027     54.1134     63.6375   5.15      27637.9     4.168     3.795     13.568     69.42366  16.9462          1
 4.18   0.0169     17.2518    984.8208 -88.85     4473.055     3.632     1.613      8.584     69.44723  18.9235          2
 3.73   0.0184     18.7921     91.0527 -67.39     4096.663     1.546     1.431      4.761     69.47864  19.0189          3
 3.50   0.0078     15.4424   1445.5559 -62.54     9675.398     1.650     1.566      4.708     69.45508  18.0858          4
 5.77   0.1183     18.1645    384.1515  44.06     637.2599     0.761     0.567      3.501     69.43937  21.0392          5
 4.27   0.0697     25.5739    366.8953 -14.68     1081.375     1.150     0.962      3.964     69.40794  20.4651          6
 3.50   0.0017     60.5962   1078.2424  76.97     44461.16     1.998     1.878      5.436     69.45508  16.4300          7
 7.73   0.1919     43.3143    915.3513 -43.40     392.6591     0.576     0.333      2.529     69.40009  21.5650          8
 3.50   0.0017     80.9674    537.4247 -67.18     43539.54     1.917     1.816      5.228     69.43152  16.4528          9
 3.50   0.0000    182.7543   1107.3114 -33.84      1564152     5.320     4.706      8.773     69.39223  12.5643         10
 4.26   0.0434     76.0034    127.7169  10.01     1736.274     1.188     1.148      4.359     69.43152  19.9510         11
 3.50   0.0012    122.5943    788.9246 -61.36     64207.51     2.004     1.876      5.442     69.47079  16.0310         12
 4.04   0.0303     97.4281     55.9913  22.71     2486.493     1.346     1.270      4.524     69.43937  19.5610         13
 8.23   0.0721     90.8850    376.7019 -20.39     1044.052     0.956     0.688      5.736     69.35291  20.5032         14
 3.50   0.0003    194.4246    317.8832 -61.43     273380.9     2.286     2.051      5.718     69.42366  14.4581         15
 3.50   0.0021    163.1353   1468.1381 -62.55     36296.28     1.875     1.794      5.256     69.40009  16.6503         16
 3.50   0.0091    171.1655    877.1136 -49.92     8279.152     1.630     1.557      4.740     69.42366  18.2550         17
 4.79   0.1198    165.7308   1445.5076   4.02     629.1963     0.992     0.930      4.171     69.39223  21.0530         18
 5.69   0.0405    172.4128    325.0309 -77.11     1860.314     1.272     1.156      6.373     69.45508  19.8760         19
 4.93   0.1044    167.6038    104.1795 -53.71     721.9224     1.013     0.798      3.948     69.42366  20.9038         20
 4.76   0.0030    235.9160    403.1274 -54.98     25480.31     4.971     4.426     17.562      69.3765  17.0345         21
 4.98   0.0745    193.4423   1350.3160 -32.41     1011.424     1.126     0.910      4.264      69.4158  20.5377         22
 5.44   0.0216    211.5265    827.6342  -7.65     3487.668     2.457     1.586      9.564      69.4158  19.1937         23
 4.12   0.0419    207.4942    548.9372 -80.12     1796.722     1.310     1.143      4.309     69.40009  19.9138         24
 7.25   0.1718    204.4811    250.5076  36.96      438.754     0.500     0.499      3.002     69.40794  21.4444         25
 6.64   0.0604    209.4116    349.7701  22.88     1248.473     1.196     0.965      6.371     69.45508  20.3091         26
 3.50   0.0460    213.0077   1305.9434 -30.97     1640.106     1.201     1.190      3.827     69.48649  20.0128         27
 8.44   0.1267    211.2228    684.6010 -71.57      594.865     0.753     0.451      4.517     69.42366  21.1140         28
 5.97   0.0256    230.9360    562.0312  11.84     2948.778     2.312     2.091     11.450     69.43937  19.3759         29
 6.71   0.0198    229.8141    414.8990 -71.47      3807.89     1.710     1.547      9.840     69.40794  19.0983         30
 4.37   0.0392    224.6008   1225.8378 -85.78     1920.977     1.311     1.279      4.832     69.42366  19.8412         31
 4.83   0.0950    223.2310    774.5986 -29.44     793.6419     1.026     0.798      3.866      69.4158  20.8009         32
 3.50   0.0008    260.5680    997.2263 -60.60     97760.14     2.037     1.924      5.505     69.43152  15.5746         33
 9.13   0.0686    223.0016    345.4901 -88.29     1099.453     0.803     0.500      4.820     69.40009  20.4471         34
 3.50   0.0009    266.6997     67.3946 -76.33     81838.75     1.982     1.886      5.386      69.4158  15.7676         35
 6.52   0.0466    244.6537    112.8341  75.03     1617.464     1.395     1.155      7.153     69.44723  20.0279         36
 5.17   0.0225    256.3477    612.7624 -34.58     3348.181     1.872     1.547      7.272     69.43937  19.2380         37
 7.49   0.0930    251.4937    107.4909 -45.11     809.6173     0.506     0.494      3.033     69.36864  20.7793         38
 8.17   0.1447    252.6854   1372.6636 -43.97     520.7095     0.570     0.337      3.422     69.39223  21.2585         39
 3.50   0.0002    313.2004    439.2152 -61.04     334818.6     2.247     2.086      5.739      69.4158  14.2380         40
 3.50   0.0039    288.3480   1486.2738 -54.17     19489.93     1.751     1.674      4.978     69.38436  17.3255         41
 3.50   0.0179    282.7493   1522.1841 -61.33     4209.451     1.460     1.360      4.280     69.46293  18.9894         42
 5.11   0.0458    290.6356    514.7411 -36.50     1644.833     1.462     1.311      5.900     69.43937  20.0097         43
 3.50   0.0053    303.9778    201.5832 -66.85     14130.11     1.714     1.615      4.872     69.42366  17.6746         44
 3.50   0.0013    319.4937    905.2718 -62.35     56110.82     1.956     1.848      5.355     69.39223  16.1774         45
 4.02   0.0415    294.7511   1327.3948  47.22     1819.067     1.274     1.263      4.424     69.47864  19.9004         46
 6.28   0.0901    294.3224   1475.1021  11.40     836.2774     0.727     0.658      3.977      69.3765  20.7441         47
 8.31   0.0842    297.8722   1413.8578 -46.31     895.6135     0.853     0.671      5.119     69.40009  20.6697         48
 3.50   0.0003    352.2238    890.5839 -55.85     295979.1     2.209     2.073      5.739     69.42366  14.3718         49
 3.50   0.0003    352.2397   1345.7283 -55.48     285703.2     2.185     2.061      5.701     69.43152  14.4102         50
 6.53   0.1068    303.0704    563.5995 -17.06     706.3055     1.007     0.742      4.529     69.46293  20.9275         51
 3.50   0.0080    322.8800    697.1052 -48.65     9432.312     1.600     1.557      4.720      69.3765  18.1135         52
 7.23   0.0938    322.3919    640.9913 -72.88     803.6972     1.533     0.349      3.912     69.40009  20.7873         53
 4.85   0.0415    328.2270    595.3594  12.77     1816.778     1.342     1.284      5.454     69.46293  19.9017         54
 3.88   0.0117    347.1299    866.8550 -43.34     6464.704     1.633     1.498      5.042     69.40009  18.5236         55
 6.55   0.1405    332.9962     93.4646 -88.40     537.0249     0.778     0.498      3.606     69.47079  21.2250         56
 5.92   0.2214    336.1976   1440.3890  71.88     340.4601     0.728     0.454      2.953     69.40794  21.7198         57
 3.94   0.0146    356.6004    431.5988 -75.33     5169.396     1.788     1.580      5.508     69.44723  18.7664         58
 4.14   0.0802    350.8954     54.4239  75.90     940.2177     1.126     0.959      3.980      69.4158  20.6169         59
 3.50   0.0076    368.9802    760.8908 -58.40     9895.838     1.598     1.559      4.707      69.4158  18.0614         60
 3.76   0.0195    368.2882    442.6587 -56.28      3855.01     1.435     1.336      4.406     69.39223  19.0849         61
 3.62   0.0449    362.0505   1500.2076 -24.28     1678.777     1.284     1.149      3.967     69.46293  19.9875         62
 5.05   0.1744    361.3106   1033.9282 -13.90     432.2296     0.739     0.661      3.156     69.39223  21.4607         63
 3.50   0.0016    396.0200    231.2718 -61.09     47791.73     1.874     1.819      5.274     69.47079  16.3516         64
 5.48   0.1288    373.7695    992.0414 -88.68     585.6266     0.894     0.751      4.264     69.46293  21.1309         65
 3.50   0.0116    397.8937   1461.0099 -39.50     6481.332     1.563     1.472      4.620      69.4158  18.5208         66
 3.50   0.0096    399.0078    354.3785 -71.51     7860.891     1.585     1.493      4.588     69.42366  18.3113         67
 3.66   0.0468    394.5766   1088.5724 -29.99      1611.91     1.284     1.233      4.031     69.43937  20.0316         68
 3.50   0.0036    416.4507    837.1747 -64.92     20992.59     1.798     1.680      4.995     69.47079  17.2448         69
 3.50   0.0017    420.3988    433.1456 -58.39     43498.29     1.886     1.783      5.232     69.47864  16.4538         70
 3.75   0.0200    425.0381    926.1504 -47.65     3763.588     1.483     1.353      4.580     69.43937  19.1110         71
 3.50   0.0049    438.7664    251.9352 -45.10     15412.37     1.713     1.632      4.884     69.43152  17.5803         72
 6.61   0.0748    421.7399    158.5126  -7.53     1007.785     1.013     0.987      5.924     69.39223  20.5416         73
 3.50   0.0006    461.8574    807.3825 -54.53     134955.7     2.057     1.941      5.478     69.43937  15.2245         74
 3.76   0.0643    433.8073   1421.8584  31.89     1173.119     1.177     1.104      3.854     69.47864  20.3766         75
 8.40   0.1693    427.5076   1179.4756  48.21     445.1346     0.502     0.497      3.012     69.38436  21.4288         76
 6.16   0.1183    434.9740    150.9762  35.97     637.6015     0.787     0.769      4.180     69.44723  21.0386         77
 4.40   0.1348    440.6718    305.3953 -46.54     559.6365     0.991     0.875      3.576     69.46293  21.1802         78
 3.73   0.0150    451.1180     21.1858 -35.06     5035.838     1.529     1.416      4.720     69.44723  18.7948         79
 5.41   0.0191    468.5997    850.2263  23.11     3948.793     5.828     1.566     16.305      69.4158  19.0588         80
 6.23   0.0837    446.1815    121.9023 -14.29     900.5294     1.080     0.836      5.294      69.4158  20.6638         81
 3.57   0.0131    458.6487     34.3971 -57.41     5768.826     1.520     1.448      4.554     69.47864  18.6473         82
 8.14   0.0944    448.2517    883.8757  -7.80     797.8527     1.041     0.643      5.762     69.38436  20.7952         83
 3.80   0.0424    464.5070    468.4641 -52.99     1777.924     1.324     1.266      4.412     69.40794  19.9252         84
 5.86   0.1403    461.8690   1096.1428  45.45     537.1156     0.823     0.671      4.108     69.40009  21.2248         85
 3.98   0.0353    472.9391    734.7498 -68.45     2136.228     1.361     1.217      4.393      69.4158  19.7259         86
 4.43   0.0481    472.1027    253.9982 -64.88     1568.882     1.241     1.108      4.565      69.4158  20.0610         87
 3.50   0.0272    478.7898    922.8477 -20.02     2774.734     1.403     1.353      4.150     69.46293  19.4419         88
 4.07   0.0728    478.8117   1276.7957 -50.21     1035.278     1.136     1.024      3.983     69.40009  20.5124         89
 3.50   0.0717    485.0125   1070.3956 -46.82     1051.583     1.195     1.127      3.874     69.40009  20.4954         90
 5.91   0.0399    496.9854     82.8541  55.90     1888.977     1.818     1.496      8.540     69.46293  19.8594         91
 5.91   0.0412    496.5325   1187.0388 -13.62     1829.273     2.128     1.330      8.177     69.43152  19.8943         92
 3.50   0.0068    513.2896   1302.2393 -42.36      11149.4     1.658     1.592      4.798     69.40009  17.9319         93
 4.84   0.0054    533.8892    518.5785  30.84     13975.11     3.346     2.728     11.548     69.42366  17.6866         94
 6.60   0.0657    505.0350    762.6558 -88.65     1147.591     1.252     1.016      6.348     69.43937  20.4005         95
 4.63   0.1229    502.7391    863.4894 -40.17     613.1869     0.963     0.954      3.744     69.40009  21.0810         96
 6.18   0.2048    499.0000    365.9927   0.00     368.0885     0.843     0.289      2.215     69.40009  21.6351         97
 5.71   0.0313    516.2209   1461.1857  26.90     2411.243     2.828     1.249      9.714      69.4158  19.5944         98
 5.94   0.0892    502.4906   1309.9664  -3.30     844.7601     0.785     0.499      3.503     69.40794  20.7332         99
 4.97   0.0362    514.1891   1310.0686  12.56     2086.131     1.453     1.166      5.305     69.47079  19.7516        100
 7.49   0.0981    510.6530    165.5925   6.25     769.5127     1.008     0.636      5.442     69.48649  20.8345        101
 4.21   0.1239    514.4960   1179.0830 -43.70     608.1211     1.130     0.881      3.908     69.36077  21.0900        102
 6.59   0.1254    520.1537    641.3141 -60.97     601.3413     0.857     0.594      4.468      69.4158  21.1022        103
 4.14   0.0484    541.0002    999.6945 -62.31     1558.979     1.250     1.160      4.426      69.4158  20.0679        104
 3.50   0.0002    588.6879   1315.8539 -55.49     308348.7     2.187     2.068      5.634     69.39223  14.3274        105
 3.68   0.0350    559.7887   1041.5302 -54.92     2154.007     1.373     1.305      4.283     69.46293  19.7169        106
 3.60   0.0112    573.4073   1242.7402 -36.74      6763.98     1.543     1.528      4.684     69.47864  18.4745        107
 3.50   0.0081    581.4571    144.8192 -63.56     9268.608     1.639     1.537      4.736     69.43937  18.1325        108
 5.40   0.0463    571.8488     45.7987  65.71      1630.57     1.497     1.163      6.075     69.47864  20.0191        109
 7.49   0.1099    565.9841    139.5040 -87.66      686.094     0.791     0.499      4.399     69.42366  20.9590        110
 5.53   0.0578    572.0419   1447.5493  18.02     1305.237     1.733     1.229      6.818     69.44723  20.2608        111
 3.50   0.0081    583.0026    319.0012 -42.00     9304.977     1.607     1.563      4.738     69.44723  18.1282        112
 3.50   0.0001    631.9539    483.1635 -57.26     546277.2     2.648     2.496      6.242     69.45508  13.7065        113
 5.70   0.0530    575.7169   1336.6877 -52.10     1422.399     1.150     1.091      5.652     69.38436  20.1674        114
 5.48   0.0173    597.8709    782.6802 -74.06     4351.493     2.429     2.215      9.764     69.39223  18.9534        115
 8.26   0.2486    577.3349   1001.3214 -45.62     303.0797     0.573     0.336      3.437     69.38436  21.8461        116
 5.50   0.1165    585.4738     75.7457 -67.57     647.0605     0.965     0.954      4.616     69.40009  21.0226        117
 5.11   0.1220   1000.6995   1273.7892 -23.88     617.5695     1.129     1.019      4.584     69.40009  21.0733        118
 6.74   0.0940   1598.4836    654.9836 -35.24     656.4048     1.182     0.755      4.820     56.80594  21.0071        119
 6.67   0.1626   1595.9614    374.0274  41.76     430.4696     0.803     0.781      4.557     64.44453  21.4651        120
 4.97   0.0438   1030.9441    302.6436  65.88     1720.644     1.852     1.356      6.625     69.42366  19.9608        121
 3.50   0.0027    985.6684    558.4529 -53.00     27859.38     1.772     1.703      4.984     69.40009  16.9376        122
 5.84   0.0555    987.3660    453.8745 -69.95     1358.332     1.342     1.151      6.401      69.4158  20.2175        123
 5.99   0.0832    981.6799    797.8624 -17.31      905.429     1.182     0.957      5.361     69.38436  20.6579        124
 6.62   0.0913    979.0314    452.5188  89.17     825.4276     0.783     0.500      4.051     69.42366  20.7583        125
 6.68   0.1648    965.8215    416.1882 -42.86     457.4667     0.760     0.564      3.692     69.42366  21.3991        126
 7.04   0.1059    952.0219    654.1979   4.29     712.1626     0.935     0.751      4.773     69.43152  20.9186        127
 6.46   0.2465    948.6243    445.2148 -17.64     305.9067     0.743     0.450      3.322     69.42366  21.8360        128
 4.52   0.0434    939.9567   1066.9950 -68.97     1738.603     1.243     1.183      4.645     69.45508  19.9495        129
 7.30   0.0910    939.0000    516.0090   0.00     827.8614     0.850     0.289      2.925     69.40009  20.7551        130
 3.50   0.0053    930.5116   1178.4536 -45.18     14338.51     1.683     1.645      4.959     69.39223  17.6587        131
 4.77   0.0911    929.1415   1322.3268  77.80     827.4545     1.175     1.037      4.113     69.40009  20.7556        132
 5.03   0.1153    913.6597    838.4653 -71.80     653.9214     1.086     0.994      4.146     69.40794  21.0112        133
 6.17   0.3502    913.1230   1000.8743  43.79     215.1832     0.820     0.671      3.756     69.39223  22.2180        134
 8.68   0.2445    905.6592   1315.3329  45.32     308.3418     0.580     0.332      3.482     69.40794  21.8274        135
 3.50   0.0122    901.2381    302.7928 -69.84     6164.715     1.533     1.467      4.516     69.43937  18.5752        136
 3.50   0.0001    882.8272    183.6641 -39.56     980648.4     3.801     3.437      7.034     69.43937  13.0712        137
 5.65   0.0526    897.0488    538.2656   9.28     1431.854     1.371     1.213      6.422      69.4158  20.1603        138
 7.63   0.5588    894.9872   1425.7455 -89.31     135.0084     0.680     0.436      2.668     69.46293  22.7241        139
 4.91   0.0196    880.3037    224.4290  89.77     3839.977     6.075     1.576     13.983     69.39223  19.0892        140
 7.12   0.1039    889.8623    325.2966  21.97     725.3387     0.959     0.675      5.221     69.38436  20.8986        141
 3.50   0.0007    881.0632   1592.5182 -59.42     107796.2     1.984     1.890      5.318     69.38436  15.4685        142
 4.97   0.1021    886.4539   1500.2401 -30.10     738.4011     1.097     0.931      4.291     69.42366  20.8793        143
 7.16   0.1297    886.5475   1304.7545  58.27     581.3289     1.054     0.816      6.030     69.43152  21.1389        144
 6.70   0.0791    878.9013   1177.0784  56.73     951.9402     1.248     1.121      6.632      69.3765  20.6035        145
 5.94   0.2793    878.3253    960.7850 -76.58     270.1677     0.962     0.858      4.214     69.48649  21.9709        146
 4.98   0.0322    870.2983   1103.6595 -66.59      2339.15     1.675     1.512      6.305      69.3765  19.6274        147
 3.50   0.0003    860.0699   1224.5084 -53.73     276219.2     2.187     2.076      5.651     69.39223  14.4469        148
 6.06   0.0850    868.7755    939.6843  20.35     886.5798     1.410     1.024      5.745     69.43152  20.6807        149
 6.07   0.1262    860.3856   1157.3900 -40.75      597.043     1.043     0.950      5.077     69.40009  21.1100        150
 6.11   0.1747    859.2457   1339.6561 -65.63     431.6259     1.116     0.876      4.329     69.42366  21.4622        151
 7.31   0.0836    845.3869   1206.3982 -18.93     901.3387     0.968     0.807      5.810      69.4158  20.6628        152
 6.09   0.1521    845.9082   1063.6815 -35.52     495.7362     0.984     0.825      4.563     69.40794  21.3119        153
 5.87   0.0830    844.0679   1106.0122  39.78      909.355     1.318     1.119      5.742     69.47079  20.6532        154
 6.09   0.0423    838.6267   1246.9838 -31.10     1782.612     1.658     1.264      7.210     69.43937  19.9224        155
 3.71   0.0533    837.4371    298.7768 -36.90     1414.103     1.200     1.045      3.831     69.43937  20.1738        156
 6.20   0.4116    836.5046    818.9788   0.87     183.1338     0.783     0.500      3.563      69.4158  22.3931        157
 3.59   0.0120    823.7392    654.3417 -45.81     6285.964     1.572     1.460      4.584     69.40009  18.5541        158
 3.50   0.0135    803.8616   1378.5885 -31.65     5572.142     1.567     1.472      4.505     69.47079  18.6849        159
 3.50   0.0047    799.2980    695.5693 -87.07     16124.31     2.425     1.661      5.789      69.3765  17.5313        160
 3.78   0.0271    801.5427     41.1259 -38.83     2783.295     1.372     1.236      4.316     69.40009  19.4386        161
 4.87   0.0356    775.0469   1427.3523  86.49     2117.534     2.119     1.431      7.010     69.46293  19.7354        162
 3.60   0.0532    767.6336    391.7465 -80.70     1418.029     1.255     1.084      3.814     69.45508  20.1708        163
 4.58   0.0567    743.5869    556.2189 -66.70     1329.366     1.209     1.118      4.597      69.4158  20.2409        164
 6.32   0.1565    739.0012   1157.8258  -3.27     481.6155     0.894     0.758      4.529     69.42366  21.3432        165
 5.82   0.1180    736.8511    649.5665 -14.51     638.9915     0.994     0.869      4.365     69.45508  21.0363        166
 3.50   0.0002    724.9310    404.7141 -49.70     374688.3     2.279     2.107      5.794      69.3765  14.1158        167
 3.50   0.0012    727.4244    848.3069 -60.26     64364.33     1.991     1.881      5.343     69.40794  16.0284        168
 4.68   0.0764    728.2408   1178.1235 -64.92     987.3287     1.183     1.099      4.451      69.4158  20.5638        169
 6.22   0.2234    721.8533   1394.8275  45.76      337.686     0.759     0.569      3.139     69.45508  21.7287        170
 4.40   0.0593    716.7385    808.1855 -51.40     1270.804     1.254     1.118      4.521     69.43152  20.2898        171
 5.04   0.0625    709.7180   1163.7717 -42.30     1206.603     1.222     1.181      4.954     69.43152  20.3461        172
 5.04   0.0524    705.0179   1339.0034 -66.79     1437.696     1.504     1.217      5.653     69.40794  20.1558        173
 4.16   0.0339    703.4415    952.3286  85.07     2226.893     1.358     1.313      4.582     69.42366  19.6808        174
 8.00   0.1222    699.6871    582.8306 -12.46     617.2193     1.081     0.410      4.490     69.42366  21.0739        175
 6.81   0.1077    692.6078   1213.5952  68.56     700.0549     0.928     0.897      5.220      69.4158  20.9372        176
 6.59   0.1027    687.8055   1213.6978 -69.86      734.029     1.138     0.653      4.875     69.40794  20.8857        177
 4.17   0.0360    686.4279    644.1636 -58.42     2097.646     1.287     1.228      4.463     69.44723  19.7457        178
 8.11   0.0451    684.0463    472.1976  68.79      1672.66     1.608     1.284      9.649     69.47079  19.9915        179
 5.89   0.0405    682.3682    543.4629 -64.24     1861.653     1.527     1.238      6.645     69.43152  19.8753        180
 4.90   0.1559    655.3740    870.8969  65.73     483.3546     0.872     0.695      3.352     69.40009  21.3393        181
 3.50   0.0012    649.1219   1464.3120 -56.93     64128.82     1.922     1.832      5.267     69.36864  16.0324        182
 5.39   0.1711    647.0031    652.7579  89.84     440.7379     0.672     0.428      2.859     69.44723  21.4395        183
 3.83   0.0047   1553.5547    682.1770 -28.59     16127.45     4.005     3.353     10.792     69.44723  17.5311        184
 3.50   0.0075    640.5757    536.7169 -51.86     10019.81     1.630     1.566      4.758     69.43152  18.0479        185
 5.20   0.1696    631.6423    805.9069  78.63     444.1221     0.971     0.747      3.690     69.36077  21.4312        186
 4.43   0.0782    624.2548   1581.2894 -38.12     963.1744     1.097     0.970      3.911     69.39223  20.5907        187
 7.44   0.1935    618.6962   1150.6582 -43.15     389.2721     0.568     0.338      3.120      69.3765  21.5744        188
 4.61   0.0677    606.2943    586.1494 -46.53     1113.399     1.159     1.006      4.223      69.3765  20.4334        189
 3.87   0.0232   1542.7234    135.0943 -43.48     3246.483     1.418     1.362      4.578     69.38436  19.2715        190
 3.63   0.0317   1543.4998    654.6281 -41.70     2377.025     1.341     1.250      4.344     69.38436  19.6099        191
 3.50   0.0831   1562.1459    861.5939  54.85     907.9257     1.093     1.006      3.281     69.49433  20.6549        192
 5.88   0.0698   1060.7449    726.9616   2.25     1080.312     1.204     1.069      5.740     69.43937  20.4661        193
 3.50   0.0013   1564.5687    304.2829 -41.02     55979.84     1.866     1.791      5.195     69.42366  16.1799        194
 4.47   0.1146   1546.9893    863.4899  89.23     657.6628     1.146     0.950      3.841      69.4158  21.0050        195
 4.61   0.0698   1585.7867   1108.7452 -49.89     1080.544     1.130     1.070      4.357     69.45508  20.4659        196
 3.50   0.0014   1558.8730    487.7052 -41.98     55784.25     1.858     1.786      5.221     69.39223  16.1837        197
 5.22   0.0636   1566.8202    784.5922 -81.87     1185.575     1.331     1.063      5.150      69.4158  20.3652        198
 4.35   0.0396   1567.4860     22.0818 -36.28     1902.132     1.403     1.204      4.836     69.38436  19.8519        199
 3.99   0.0557   1571.3545     92.6652 -77.23     1354.301     1.279     1.204      4.289     69.42366  20.2207        200
 5.56   0.2501   1551.8256   1221.8483 -44.57      301.661     0.806     0.675      3.671     69.47079  21.8512        201
 9.25   0.1716   1532.6860    415.6718 -44.29     439.1183     0.567     0.339      3.400     69.36864  21.4435        202
 4.91   0.1010   1504.8041    723.4289  -9.40     746.5912     0.990     0.921      4.009     69.43152  20.8673        203
 3.50   0.0025   1508.0364    269.3850 -53.27      30175.6     1.766     1.690      5.014     69.45508  16.8509        204
 5.99   0.2088   1066.4935   1597.0056   0.04     319.7071     0.778     0.500      3.381     61.48175  21.7881        205
 3.50   0.0024   1080.7572    512.1439 -52.62     31520.44     1.763     1.707      5.070     69.42366  16.8035        206
 6.93   0.1963   1515.2277    483.8026 -43.92      383.998     0.757     0.562      4.122     69.42366  21.5892        207
 8.20   0.3101   1520.1885     84.4018  71.46     243.1005     0.768     0.448      4.231      69.4158  22.0855        208
 3.56   0.0102   1515.7189    392.7199 -52.91     7409.196     1.564     1.513      4.634     69.39223  18.3756        209
 7.42   0.1871   1084.4899     42.9825   0.45     402.8611     0.789     0.500      3.765     69.42366  21.5371        210
 5.27   0.1175   1080.0181    330.0148 -51.63     641.6297     0.792     0.768      3.669     69.43152  21.0318        211
 6.65   0.1063   1064.0062      7.2822  89.36     702.8237     0.732     0.681      4.200     68.82394  20.9329        212
 8.02   0.1145   1091.2765    468.4171 -81.35     659.0437     1.030     0.474      5.453     69.46293  21.0027        213
 3.50   0.0083   1082.6000   1148.1802 -54.73     9061.301     1.626     1.567      4.720     69.43152  18.1570        214
 5.49   0.1224   1074.0872      6.6361 -18.53     601.9151     1.002     0.731      4.422     67.81799  21.1012        215
 3.50   0.0026   1095.7400    778.1583 -51.72     28680.01     1.804     1.704      5.050     69.43152  16.9061        216
 3.50   0.0076   1105.2926    751.8443 -44.25      9966.29     1.646     1.529      4.719      69.3765  18.0537        217
 9.40   0.1069   1105.5251    678.5211 -42.64     705.3073     0.501     0.498      3.004     69.40794  20.9291        218
 7.14   0.0645   1111.6593    479.1340  -2.36     1168.461     1.539     0.952      7.684     69.39223  20.3810        219
 5.57   0.1584   1407.1957    329.7682  43.72       476.12     0.900     0.848      4.387     69.44723  21.3557        220
 3.57   0.0113   1108.2091    427.9680 -42.66     6645.438     1.584     1.498      4.718     69.43152  18.4937        221
 7.39   0.2196   1433.0000    340.9669   0.00     343.3187     0.850     0.289      3.501      69.4158  21.7108        222
 5.52   0.0377   1120.8257    329.6738  62.77     1998.772     1.877     1.353      7.384     69.43937  19.7981        223
 6.89   0.1121   1114.8954    674.3411 -14.10     672.1949     0.992     0.748      5.438     69.38436  20.9813        224
 3.50   0.0001   1367.0531   1159.7738 -44.74     749297.8     3.165     2.934      6.540     69.46293  13.3634        225
 6.27   0.6235   1439.3125   1271.0223   0.53     120.9291     0.729     0.682      3.245     69.43152  22.8437        226
 5.92   0.0116   1360.3600   1135.1073  68.94     6486.403     5.566     4.135     23.743     69.36077  18.5200        227
 4.23   0.0315   1391.3807    713.3365 -25.20     2391.128     1.296     1.259      4.550     69.44723  19.6035        228
 3.50   0.0044   1420.1736   1126.3650 -62.65      17236.4     1.840     1.658      5.119     69.44723  17.4589        229
 3.50   0.0312   1440.6804    619.1695  -2.51     2418.635     1.353     1.233      3.906     69.42366  19.5911        230
 3.70   0.0328   1409.0814    308.3490 -30.10     2299.046     1.390     1.300      4.273     69.39223  19.6461        231
 3.50   0.0006   1435.2297   1090.4370 -52.54     136587.1     2.005     1.910      5.429     69.43152  15.2115        232
 3.78   0.0232   1436.1256    224.7913 -44.19     3249.316     1.449     1.325      4.503     69.45508  19.2705        233
 4.63   0.0543   1416.2798   1386.6040  -8.27     1388.165     1.264     1.188      4.360     69.44723  20.1939        234
 3.50   0.0010   1394.2532    114.4830 -42.04     75951.46     1.923     1.822      5.274     69.38436  15.8487        235
 5.97   0.1017   1412.3298    350.1026  28.72      741.213     0.926     0.840      4.691     69.40009  20.8751        236
 5.51   0.0902   1401.4933   1031.4747  45.37     835.0133     1.098     0.860      4.732     69.38436  20.7458        237
 3.77   0.0109   1389.6044   1428.5172 -23.66     6922.759     1.567     1.485      4.853     69.43152  18.4493        238
 5.55   0.1451   1130.0150    547.4307  -4.09     519.8851     1.011     0.784      4.109     69.45508  21.2602        239
 6.76   0.2370   1389.5151    806.5027 -43.20      317.808     0.502     0.498      3.010     69.35291  21.7946        240
 3.79   0.0467   1393.1326   1038.7178 -23.59     1613.948     1.230     1.179      3.888     69.39223  20.0303        241
 3.56   0.0092   1373.4583   1018.8973 -16.71     8225.876     1.597     1.522      4.713      69.3765  18.2620        242
 6.09   0.1043   1154.5359   1353.0892 -36.47     722.8768     1.154     1.060      4.826     69.40009  20.9023        243
 4.93   0.0606   1152.1134     99.3618  11.04     1244.123     1.255     1.106      4.738     69.42366  20.3128        244
 3.50   0.0049   1130.7471    183.5740 -50.02     15444.81     1.683     1.612      4.868     69.46293  17.5780        245
 3.50   0.0004   1299.2574    724.8826 -50.74     179240.7     2.051     1.934      5.462     69.40009  14.9164        246
 4.10   0.0262   1308.3727    669.6420 -20.29     2883.131     1.375     1.295      4.645     69.46293  19.4003        247
 5.43   0.1341   1130.9506    219.3301 -19.16     561.8776     1.025     0.747      4.253     69.39223  21.1759        248
 6.86   0.0822   1331.2412   1139.4500 -21.83     916.9861     1.264     1.157      6.104     69.44723  20.6441        249
 5.90   0.1882   1331.0811    386.8084   2.51     400.7007     0.911     0.748      4.194     69.42366  21.5429        250
 5.48   0.1004   1333.5493    107.4753 -39.90     750.3954     1.033     0.983      4.772     69.38436  20.8618        251
 3.50   0.0026   1320.9171    659.9872 -58.06     29048.17     1.797     1.696      5.087     69.43937  16.8922        252
 4.37   0.0200   1330.7756    655.8713 -55.06      3767.19     1.576     1.447      5.493     69.44723  19.1100        253
 8.15   0.2715   1182.4060    176.2184  18.50     277.6523     0.760     0.451      3.756      69.4158  21.9412        254
 3.58   0.0117   1292.2377    762.0358 -22.11     6468.006     1.917     1.501      5.077     69.47864  18.5231        255
 5.49   0.0335   1308.5463   1036.2263 -40.27     2254.957     2.129     1.533      6.948     69.46293  19.6672        256
 5.88   0.0610   1260.2944    432.6155  62.72     1236.887     1.508     1.308      6.922     69.42366  20.3192        257
 6.15   0.1565   1320.0809    264.0743 -45.06     481.5957     1.039     0.742      4.555     69.38436  21.3433        258
 4.18   0.0073   1273.5790    610.0105 -57.57     10321.06     3.482     2.190      9.220      69.4158  18.0157        259
 5.34   0.0406   1294.4099    742.2711  79.94     1858.213     1.254     1.076      5.549     69.47079  19.8773        260
 5.46   0.1047   1305.5432    892.7346  80.28     719.8946     0.968     0.936      4.422      69.4158  20.9068        261
 4.47   0.0927   1293.7827    412.7381 -27.82     813.4764     1.048     1.024      4.112     69.43152  20.7741        262
 7.48   0.3465   1300.3140     53.6728  44.34     217.4651     0.566     0.339      3.065      69.3765  22.2065        263
 3.66   0.0255   1266.2446    807.8480 -52.36     2956.897     1.423     1.348      4.275     69.44723  19.3729        264
 4.11   0.0192   1278.9448   1331.4224  -5.75      3928.25     1.453     1.384      4.774     69.45508  19.0645        265
 4.04   0.0282   1235.1608    304.8517 -33.72     2674.276     1.387     1.347      4.645     69.43937  19.4820        266
 4.72   0.0513   1238.0076   1553.4736  -2.23     1470.846     1.273     1.137      4.762     69.45508  20.1311        267
 6.80   0.1055   1230.5109    599.4536  46.46     714.5685     1.141     0.859      6.126     69.38436  20.9149        268
 3.50   0.0000   1222.2365    995.1906 -28.81      1600167     5.814     4.848      9.400     69.43937  12.5396        269
 5.60   0.2856   1262.9789    855.0262   0.79     263.9692     0.627     0.595      2.511     69.43152  21.9961        270
 7.74   0.1829   1238.4921     48.0088   1.15     412.0725     0.791     0.500      4.220      69.4158  21.5126        271
 4.86   0.0140   1173.4719    758.0511 -67.81     5375.887     3.111     2.780      9.753     69.38436  18.7239        272
 3.87   0.0085   1219.6803   1194.9224 -40.36     8867.075     1.666     1.553      5.042     69.40794  18.1805        273
 4.72   0.0902   1243.3199    672.5645 -88.30     836.1713     1.161     0.982      4.073      69.4158  20.7443        274
 4.38   0.0086   1211.4198   1278.8792  87.30     8723.933     5.068     3.031     12.101     69.44723  18.1982        275
 8.00   0.1408   1183.5067    673.4812 -47.27      535.101     0.502     0.498      3.010     69.39223  21.2289        276
 6.40   0.2656   1229.3041   1153.9636  -4.11     283.6176     0.737     0.670      3.457     69.36864  21.9182        277
 4.78   0.1380   1181.9341    549.0421 -45.62     546.4124     0.806     0.764      3.421     69.42366  21.2062        278
 5.73   0.0883   1201.9554   1442.0054 -84.11     854.2338     1.217     1.154      5.470     69.46293  20.7211        279
 5.91   0.0499   1203.9260   1075.5579  45.10     1510.106     1.479     1.293      6.445      69.4158  20.1025        280
 3.50   0.0053   1215.4259    513.0239 -37.52     14123.11     1.654     1.586      4.808     69.44723  17.6752        281
 7.22   0.0660   1213.3268   1429.7927 -24.55     1143.255     1.465     1.209      7.343     69.46293  20.4046        282
 4.21   0.0501   1202.6418    339.0746  77.11      1503.91     1.268     1.209      4.509      69.4158  20.1069        283
 7.30   0.0821   1066.0326   1562.9829 -76.11     918.9131     1.307     0.727      5.909     69.44723  20.6418        284
 3.86   0.0485   1208.4716    838.8924 -80.42      1554.02     1.259     1.153      4.025     69.38436  20.0714        285
 6.01   0.0458   1195.8903    124.2704 -84.05      1644.19     1.597     1.374      7.456     69.38436  20.0101        286
 7.95   0.2496   1134.5172    607.4781 -45.70     301.9149     0.503     0.496      3.020     69.39223  21.8503        287
 7.02   0.1390   1162.6606    887.9097 -67.27     542.3111     0.931     0.697      4.551     69.40009  21.2144        288
 3.50   0.0016   1165.9778   1299.8185 -65.27     47879.17     1.848     1.801      5.170     69.43937  16.3496        289
 3.50   0.0025   1139.3281    148.1158 -40.99     29642.98     1.797     1.710      5.032      69.3765  16.8702        290
 3.67   0.0139   1158.6926    236.4519 -38.21     5409.045     1.536     1.437      4.579     69.39223  18.7172        291
 3.50   0.0001   1152.4358    693.8477 -42.55       689030     3.254     3.035      6.654     69.44723  13.4544        292
 6.93   0.3934   1095.0680   1136.4851 -87.59     191.5515     0.786     0.499      4.550     69.39223  22.3443        293
 5.52   0.1027   1096.1521   1526.4434 -72.13     734.4933     1.142     0.940      4.123     69.44723  20.8850        294
 3.58   0.0266   1090.0726    642.4016 -41.99     2838.241     1.429     1.299      4.287     69.46293  19.4174        295
 3.50   0.0092   1039.4980    525.3729 -50.61     8197.842     1.569     1.505      4.581     69.39223  18.2658        296
 5.84   0.0442   1072.7308   1219.1278 -71.47     1703.722     1.521     1.315      6.290     69.36864  19.9715        297
 3.50   0.0002   1024.3788     50.2018 -46.86       442718     2.202     2.067      5.737     69.42366  13.9347        298
 3.50   0.0048   1010.6035    813.6436 -46.35     15615.41     1.685     1.634      4.882     69.44723  17.5661        299
 3.50   0.0019   1041.0494    633.0492 -48.72      40328.7     1.824     1.752      5.109     69.46293  16.5360        300
 3.50   0.0041   1026.5879   1379.9607 -52.83     18363.87     1.752     1.684      4.966     69.44723  17.3901        301
 3.55   0.0307   1011.9902    344.6391 -63.24     2452.486     1.356     1.213      3.993     69.43937  19.5760        302
 4.13   0.0800   1002.4109   1555.3337 -77.98     943.2017     1.188     1.018      3.954     69.46293  20.6135        303
 4.01   0.0284   1002.5194    542.4577 -52.56     2652.003     1.346     1.273      4.411     69.40009  19.4911        304
