#   1 KRON_RADIUS            Kron apertures in units of A or B                         
#   2 Y_IMAGE                Object position along y                                    [pixel]
#   3 MAG_BEST               Best of MAG_AUTO and MAG_ISOCOR                            [mag]
#   4 FLUX_BEST              Best of FLUX_AUTO and FLUX_ISOCOR                          [count]
#   5 X_IMAGE                Object position along x                                    [pixel]
#   6 THETA_IMAGE            Position angle (CCW/x)                                     [deg]
#   7 A_IMAGE                Profile RMS along major axis                               [pixel]
#   8 B_IMAGE                Profile RMS along minor axis                               [pixel]
#   9 MAGERR_BEST            RMS error for MAG_BEST                                     [mag]
#  10 NUMBER                 Running object number                                     
#  11 FLUXERR_BEST           RMS error for BEST flux                                    [count]
 4.25     94.1570  19.5292     2560.403   1124.7493 -68.11     8.199     3.769   0.1731          1     408.1684
 4.95     47.3470  20.9026     722.6698     46.5410 -16.09     3.493     3.138   0.4256          2      283.211
 3.50     32.9521  20.2861     1275.101    449.8849 -71.56     1.861     1.763   0.0936          3     109.9254
 3.50      7.8402  18.5257     6452.422    752.8575 -61.82     2.123     2.040   0.0214          4     127.1806
 7.90      7.3287  23.0849     96.83215   1284.2866 -47.46     0.554     0.344   0.6832          5     60.91562
 0.00      3.8817  99.0000    -10.98389     72.1736 -16.48     1.297     1.175  99.0000          6     98.99538
 7.09      3.6434  24.7348     21.18726    946.9975 -11.20     1.397     0.946   6.4029          7     124.9161
 0.00      2.7658  99.0000    -176.5942    934.9667   5.19     1.486     1.178  99.0000          8     129.7726
 5.98      1.3488  23.6539     57.33643   1254.5757  -1.93     0.882     0.476   1.0451          9     55.17868
 6.38      1.0000  24.9030     18.14648   1325.0350   0.00     0.860     0.289   2.6107         10     43.62258
 8.37     13.0423  24.8577     18.92065    858.5358  89.71     0.808     0.499   5.2521         11     91.50349
 7.51     27.2427  25.3049     12.53271    906.0284  62.58     1.235     1.115  13.2031         12     152.3671
 7.02     19.4468  22.9003     114.7861    234.2249  20.99     0.737     0.451   0.6591         13     69.65967
 8.06     24.1636  26.4186     4.493286    896.5063  -0.34     0.979     0.746  29.0659         14     120.2591
 3.50     32.3549  22.7785     128.4124   1514.8187  89.71     1.186     1.023   0.5595         15     66.15691
 6.47     27.5052  23.9950     41.88037    374.4735  45.86     0.511     0.488   1.4308         16     55.17868
 5.35     33.3109  22.9747     107.1846      7.0528 -29.41     0.877     0.600   0.6776         17     66.87215
 0.00     32.5028  99.0000    -78.73718    914.0272  -0.56     0.785     0.500  99.0000         18     80.43606
 4.86     69.0796  20.4170     1130.323   1463.1573 -72.90     2.832     2.480   0.2143         19     223.0731
 0.00     47.9787  99.0000    -48.63293    228.2468  34.97     0.788     0.492  99.0000         20     51.61493
 5.48     49.6894  22.5611     156.8798    343.8810 -30.33     0.884     0.599   0.4869         21     70.33929
 0.00     48.6995  99.0000    -33.58325   1227.5970 -41.42     0.589     0.322  99.0000         22     23.89307
 8.16     50.9994  22.3301     194.0648    205.2584  89.97     0.683     0.438   0.4333         23     77.42239
 0.00     63.4169  99.0000     -262.054    888.7960 -31.82     3.064     0.817  99.0000         24     142.3594
 4.55     61.9151  22.6504     144.4915   1014.1193  49.58     1.303     1.242   0.7477         25     99.47478
 3.50     95.2679  18.8347     4854.199    916.6253 -19.93     2.422     2.058   0.0301         26     134.4538
 0.00     64.5669  99.0000    -4.843628    893.1599 -16.96     2.011     0.917  99.0000         27     43.62258
 6.77     80.7907  22.1215     235.1798    541.1888 -68.13     2.157     1.464   0.9597         28     207.8377
 4.77     65.6199  23.3664     74.71899    970.7142 -47.07     1.062     0.962   1.2278         29     84.47475
 5.02     77.5636  21.5228     408.2209    183.5630  37.16     1.710     1.612   0.3796         30     142.6932
 3.55     94.6228  21.3358     484.9132    346.8269 -35.99     1.677     1.593   0.2270         31     101.3697
 5.25     93.1689  22.9804     106.6222    737.2796  14.59     1.251     1.167   1.1063         32     108.6193
 8.20     88.5198  23.6246     58.90637   1025.5172  44.87     0.510     0.489   1.2968         33     70.33929
 4.37    106.6651  21.0651      622.234    973.7143 -40.27     2.136     1.690   0.2496         34     143.0262
 3.53    106.5207  21.5819     386.5715     47.5245 -36.46     1.582     1.560   0.2671         35      95.0732
 0.00    100.5170  99.0000    -70.30078    356.8520 -25.56     1.159     1.063  99.0000         36     126.0534
 0.00     98.5842  99.0000    -27.62512    326.1557 -76.66     1.017     0.724  99.0000         37     50.68485
 0.00     94.3919  99.0000    -20.52026   1248.7111 -17.31     0.722     0.459  99.0000         38     63.96325
 8.16     99.6920  24.2140     34.22986    173.3035  45.27     0.553     0.345   1.9573         39     61.69164
 8.06    106.0233  23.2959     79.73486    266.4735 -26.77     1.097     0.647   1.6163         40     118.6662
 4.83    115.4942  22.8216     123.4175    924.7029  69.09     1.227     1.049   0.8366         41      95.0732
 3.66    125.6434  22.2917     201.0653    300.7448 -25.91     1.673     1.549   0.5526         42      102.304
 0.00    110.8920  99.0000    -82.19678   1457.8762 -43.13     0.852     0.658  99.0000         43      67.5798
 0.00    118.1392  99.0000    -51.12756     79.4567  35.20     1.594     1.028  99.0000         44     122.9971
 5.84    111.6869  23.1375     92.25916   1000.3212  44.58     0.563     0.341   0.5262         45     44.69984
 7.47    113.3548  24.6277     23.38464    460.6852  46.69     0.578     0.332   2.5625         46     55.17868
 4.38    114.4853  22.4126     179.8629     65.9743   2.48     0.781     0.499   0.2885         47     47.78614
 3.50    151.1911  19.2180     3410.293     45.4971 -66.61     2.041     1.875   0.0596         48     187.1656
 3.50    212.7002  16.2725     51405.66    966.9963  67.45     3.034     2.400   0.0034         49     163.2207
 0.00    130.1674  99.0000    -2.426636     55.4243  86.66     1.181     0.973  99.0000         50     83.90971
 5.19    133.8928  24.8263      19.4751   1498.3713  36.64     1.003     0.833   4.6154         51     82.76802
 0.00    135.5188  99.0000    -47.28613    735.5063 -70.98     0.956     0.414  99.0000         52     61.69164
 3.50    140.9441  23.7244     53.73083    218.5828  77.42     1.254     0.994   1.3659         53      67.5798
 4.75    158.6899  17.9692     10772.45     50.1477  10.83     2.348     2.026   0.0214         54     211.8974
 4.56    173.5511  21.7301     337.2515    556.9188  77.23     2.496     2.317   0.6091         55      189.143
 6.34    144.6918  24.5893      24.2262   1194.3496  43.12     0.573     0.335   2.2721         56     50.68485
 4.48    152.7633  23.5880     60.92773    879.2148 -71.16     0.960     0.844   1.2658         57     71.01241
 4.57    183.9569  21.4276     445.5979   1262.7585 -84.47     2.679     2.323   0.4825         58     197.9908
 5.32    164.2391  23.1032     95.22156   1521.2362 -68.47     1.229     1.012   1.1721         59      102.768
 5.85    166.0432  23.2174     85.71191    745.9159 -22.96     1.387     1.130   1.5827         60     124.9161
 5.41    163.4534  24.4997     26.30957   1154.1659  29.17     1.143     0.805   3.6902         61     89.39968
 3.50    185.4392  20.3759     1173.896    377.8520  44.06     1.855     1.791   0.1021         62     110.3574
 0.00    169.3121  99.0000    -117.4944   1159.0532  72.00     1.088     0.734  99.0000         63     106.4069
 5.72    164.5888  23.3809     73.72632    871.5212 -37.71     0.510     0.481   0.7326         64     49.73739
 6.12    173.3908  22.7364     133.4856    944.2777  23.96     1.450     1.084   1.0735         65     131.9538
 7.83    164.0000  23.4894     66.71924    757.9688   0.00     0.857     0.289   1.1339         66     69.65967
 6.57    174.5070  23.8182     49.28589    961.2061 -89.43     0.936     0.726   2.0616         67     93.56001
 3.50    237.4089  16.8614     29883.68   1389.3002 -60.89     2.351     2.198   0.0050         68     138.2911
 0.00    188.7956  20.2962     1263.281   1070.2379 -66.16     1.461     1.296   0.0834         69     96.97417
 0.00    195.9452  99.0000    -479.2159   1065.9102 -53.12     1.931     1.731  99.0000         70     213.0372
 4.45    205.1032  18.9331       4433.5    985.2596 -83.24     1.782     1.741   0.0418         71     170.7059
 3.57    206.2079  21.4457     438.2361     21.3743 -77.09     1.693     1.604   0.2535         72      102.304
 4.34    201.3544  22.0634     248.1073    185.4896  86.30     1.485     1.274   0.4559         73     104.1475
 7.05    189.0036  23.8923     46.03357   1594.2350 -89.83     0.680     0.424   1.5264         74     64.70274
 0.00    191.5366  99.0000    -51.34521   1097.4672  44.41     0.505     0.492  99.0000         75     39.01722
 3.50    224.9645  19.8681     1873.885   1092.9434 -75.05     1.945     1.811   0.0662         76     114.1712
 4.38    204.9958  21.6112     376.2812    353.2603  49.54     1.546     1.354   0.3173         77     109.9254
 6.59    201.9016  22.2327     212.2892    411.7759  22.68     1.623     1.125   0.7874         78     153.9203
 0.00    201.7012  99.0000    -24.10632   1294.1659 -70.66     1.030     0.553  99.0000         79      95.0732
 3.95    219.1305  21.5729     389.8114   1020.2579 -10.95     2.049     1.908   0.3795         80     136.2115
 3.90    216.9382  22.1999     218.7982   1198.2729 -67.75     1.806     1.434   0.5348         81     107.7398
 4.80    209.8886  23.5704     61.92065    908.2451 -60.11     1.031     0.637   1.1975         82     68.28014
 4.71    268.0666  20.8146     783.7246    140.2715  63.45     5.455     1.957   0.3682         83     265.7041
 3.88    223.2836  22.5640      156.465   1178.1260  36.13     1.421     1.146   0.6018         84     86.69816
 6.87    213.4799  23.7023     54.83545   1061.5094  44.65     0.512     0.487   1.0928         85     55.17868
 5.89    243.6765  21.6228     372.2856    660.2729  56.74     2.330     2.070   0.6514         86     223.2862
 0.00    232.5093  99.0000    -133.2666    654.0221   4.33     2.686     1.524  99.0000         87     252.1068
 3.64    243.0972  21.0755     616.3232    566.2015  29.51     1.831     1.749   0.2012         88     114.1712
 3.50    258.9529  20.0646     1563.778   1426.3889 -55.02     2.082     1.737   0.0787         89     113.3348
 4.32    236.7304  21.5768     388.3861    836.5421 -23.65     1.479     1.402   0.2975         90     106.4069
 4.43    234.4972  22.7551     131.2125    879.8083 -56.66     1.317     1.124   0.7701         91     93.05014
 3.65    247.8586  18.1458     9155.199    576.9484  28.21     1.725     1.657   0.0227         92      191.507
 5.68    241.6002  23.0886     96.50818    368.8590 -66.00     1.584     1.499   1.7111         93     152.0546
 0.00    231.4599  99.0000    -12.45569   1316.5281 -43.68     0.508     0.490  99.0000         94      33.7899
 6.87    256.0625  22.0310     255.6309     76.0572 -78.27     2.310     1.137   0.8215         95     193.3716
 3.82    286.3719  19.8003     1994.746   1328.0706 -62.90     3.890     3.155   0.1256         96     230.6228
 5.62    254.1811  21.6067     377.8459   1369.5127 -46.50     1.972     1.808   0.5275         97     183.5262
 4.51    238.3008  24.9238     17.80212   1316.6440  42.47     0.572     0.335   2.0613         98      33.7899
 7.32    243.0217  21.9964     263.9014    966.3827 -11.22     1.220     0.776   0.5062         99     122.9971
 8.17    249.4651  22.8862     116.2789   1163.2465 -87.55     1.011     0.708   1.1120        100     119.0665
 4.76    251.7740  23.7115     54.37451    914.5338 -22.40     1.742     0.609   1.7095        101     85.59367
 6.79    262.3152  21.6610     359.4211    410.3904 -36.29     1.932     1.068   0.5088        102     168.3854
 4.93    296.6697  20.5990     955.8622    374.3661  32.26     5.369     2.131   0.3276        103     288.3713
 4.63    279.1549  21.6115     376.1974   1128.3959 -42.43     2.378     1.745   0.4703        104      162.929
 5.14    265.0267  22.4620     171.8771    271.3459  62.87     1.163     0.935   0.5879        105     93.05014
 0.00    265.3846  99.0000    -22.64172    721.8150  85.12     0.992     0.380  99.0000        106     43.62258
 5.52    266.8948  23.9001     45.70667    766.6589  13.69     1.008     0.750   1.9802        107     83.34081
 0.00    267.8004  99.0000    -11.49609   1587.3848 -72.59     0.760     0.451  99.0000        108     59.33312
 3.50    281.3238  21.9743     269.3383    954.9826 -84.42     1.527     1.520   0.3752        109     93.05014
 3.50    286.3437  22.2801     203.2079    743.1180  68.50     1.558     1.417   0.4778        110     89.39968
 0.00    279.5313  99.0000    -13.79517    885.4368 -74.77     0.499     0.496  99.0000        111     43.62258
 4.28    313.5876  21.1489     576.0468    792.2487  34.69     2.350     1.960   0.3005        112     159.3867
 6.52    298.8550  22.8992     114.9043    863.1819   4.80     1.090     0.985   1.0986        113      116.236
 3.50    338.2658  19.5183     2586.244    595.9975  86.26     1.988     1.823   0.0486        114      115.826
 3.50    374.0516  16.7582     32865.29   1262.5981 -43.64     2.343     2.212   0.0045        115     137.6014
 0.00    314.6675  20.8809     737.2706    802.7544 -18.94     1.737     1.419   0.1683        116     114.2882
 3.50    332.8217  20.5440     1005.575    788.9773  77.38     1.801     1.696   0.1135        117     105.0571
 7.92    310.6430  25.5229     10.25305   1549.2216 -16.94     0.748     0.446   8.3935        118     79.24435
 0.00    323.1217  99.0000    -162.2281    832.5522  78.74     1.122     1.038  99.0000        119     112.9142
 5.08    323.1987  21.8954     289.6371    288.7291  15.01     1.259     1.110   0.3871        120     103.2299
 3.58    335.5175  22.0582     249.3053   1145.5067  -3.58     2.145     1.792   0.5273        121     121.0477
 4.64    328.8070  22.2497     208.9834    720.3349   3.49     1.256     1.173   0.5144        122     98.99538
 7.17    326.4636  23.2146     85.93127    156.8145  84.35     1.010     0.378   0.9469        123     74.92424
 5.31    334.9207  23.5721     61.82703    661.6074  26.59     1.595     1.397   2.4048        124     136.9082
 0.00    335.5432  99.0000    -204.5334   1037.4845 -50.33     1.435     0.834  99.0000        125     125.2963
 4.62    361.3767  21.2151     541.9684    708.3899 -68.65     2.379     2.219   0.3683        126     183.7852
 0.00    347.7137  99.0000    -52.79907   1598.6823 -79.01     1.124     0.968  99.0000        127     104.6033
 3.60    375.0627  20.3397     1213.757   1363.9340   2.09     3.088     2.411   0.1519        128     169.7922
 5.22    360.9517  22.0658     247.5601    640.6298  75.08     1.416     1.325   0.5446        129      124.152
 0.00    348.8523  99.0000    -81.40723   1576.8534  47.93     0.767     0.569  99.0000        130     82.19123
 3.50    363.9760  22.5723     155.2656    504.0932 -14.26     1.535     1.436   0.6364        131      90.9821
 0.00    358.2023  99.0000    -14.14551   1050.3724  72.23     0.754     0.446  99.0000        132      90.4577
 0.00    369.4063  99.0000    -33.98645   1341.4336  28.52     1.585     0.990  99.0000        133     125.2963
 7.95    359.4590  22.5916     152.5364   1094.5118 -21.09     0.500     0.498   0.5008        134     70.33929
 7.06    369.6529  23.2972     79.63647    643.0444 -67.01     1.486     0.435   1.3368        135     98.02955
 0.00    363.6567  99.0000    -166.7736     97.3249  45.78     0.578     0.333  99.0000        136     63.21512
 3.56    389.2385  21.0991     603.0471   1463.0966  57.58     1.796     1.631   0.1884        137     104.6033
 4.08    401.0529  20.9690     679.8018    824.7330  48.37     3.253     2.740   0.3375        138     211.2432
 4.81    377.7523  23.0073     104.0104    162.8285 -35.17     1.129     1.085   0.9608        139     92.02193
 3.50    385.9117  22.9279     111.9071    867.6343 -73.67     1.442     1.322   0.8198        140     84.47475
 6.46    383.3534  23.7517     52.39929   1277.6696  75.68     1.166     1.055   2.5889        141     124.9161
 3.50    392.8899  22.6515     144.3444   1317.5302 -48.64     1.483     1.396   0.6564        142     87.24516
 4.52    451.1505  20.9138     715.3107   1219.8578  56.07     6.476     2.500   0.4762        143     313.6582
 3.50    413.7905  19.8009      1993.61     67.1341 -60.83     1.974     1.853   0.0633        144      116.236
 6.39    391.2280  23.3107     78.65381   1206.1643 -88.79     1.130     0.746   1.3866        145     100.4267
 3.50    417.1918  19.4359     2790.343   1307.9253  37.73     1.929     1.914   0.0452        146      116.236
 0.00    413.1869  99.0000    -104.9016    665.6929  81.38     1.328     0.991  99.0000        147     141.6895
 0.00    410.2010  99.0000    -126.3762    749.6277 -26.28     1.191     0.770  99.0000        148     123.3833
 3.50    458.0979  18.0393     10098.72     12.4038 -59.41     2.124     2.082   0.0136        149      126.806
 7.10    420.3788  22.5997      151.397    101.8098  71.35     1.223     0.902   0.9230        150     128.6681
 8.84    415.5115  27.4790     1.692017   1157.4949 -44.64     0.504     0.496  48.4950        151     75.55652
 8.79    420.2401  23.2079     86.46667    890.9982   1.82     0.800     0.551   1.2732        152     101.3697
 7.59    421.2487  22.8805     116.8928   1572.0276  -1.34     0.693     0.432   0.6597        153     71.01241
 0.00    425.6347  99.0000     -9.88855    962.6557 -44.37     0.851     0.522  99.0000        154     81.02534
 3.75    439.7845  22.6931     138.9226    908.6335 -52.06     1.883     1.435   0.8318        155     106.4069
 3.50    466.2373  18.7235     5377.858   1074.6401 -82.23     2.009     1.929   0.0242        156     119.8629
 4.93    439.3988  23.7185     54.02722    814.9534 -86.52     0.990     0.950   1.6867        157     83.90971
 4.06    450.3367  22.7388     133.1958    174.3367  24.26     1.781     1.447   0.9241        158     113.3348
 3.66    449.1495  22.3393     192.4396    290.5052  -2.34     1.266     1.220   0.4472        159     79.24435
 3.75    462.7975  21.7877      319.818    275.5684  22.46     1.563     1.439   0.3329        160     98.02955
 4.60    457.7794  26.5083     4.136841   1159.6694  30.96     1.323     1.096  25.4786        161     97.05411
 4.24    464.8949  27.8981     1.150146   1190.3889  89.16     1.284     1.008  78.6927        162     83.34081
 5.44    462.5362  22.5186     163.1414   1091.4558  46.22     1.073     0.828   0.5916        163     88.86594
 7.04    458.3414  23.4898     66.69226    977.3062 -46.69     0.569     0.338   0.8405        164     51.61493
 3.50    488.4671  20.7628     822.0001    573.8985  65.18     1.749     1.715   0.1370        165     103.6897
 3.50    478.8458  23.0146     103.3126   1017.2892 -36.08     1.346     1.227   0.8203        166     78.03444
 6.16    474.5374  23.3027     79.23523   1137.3838  51.60     1.144     0.789   1.3829        167     100.8993
 7.74    473.0392  24.3100     31.33362    250.0121 -88.81     0.629     0.610   2.8083        168     81.02534
 8.05    480.7053  22.4742     169.9548   1570.9915 -56.06     1.184     0.443   0.6417        169     100.4267
 3.50    505.4442  20.6073     948.5551   1141.7743 -77.26     1.790     1.681   0.1203        170     105.0571
 0.00    497.3044  99.0000    -86.60083    604.5627 -31.43     1.521     1.246  99.0000        171     123.3833
 4.88    509.5489  22.6861     139.8219    999.2165 -69.39     1.892     1.542   1.1109        172     143.0262
 6.12    491.4751  24.8804     18.52771    126.0398 -31.68     0.809     0.309   3.2343        173     55.17868
 4.61    506.7564  22.5862     153.2969    538.3772 -39.15     1.248     1.201   0.6876        174     97.05411
 0.00    501.2858  99.0000    -146.7129   1011.1366 -15.97     1.193     0.944  99.0000        175     118.6662
 3.63    536.9082  20.7065     865.7629    352.6194   1.95     3.045     2.557   0.2202        176     175.5775
 5.61    532.8222  19.7668       2057.2    671.6838 -87.78     2.220     1.914   0.0863        177     163.4683
 4.11    530.4657  21.6326     368.9352   1006.1499 -29.50     3.129     1.873   0.5047        178      171.465
 0.00    515.1706  99.0000    -10.21362   1524.4115  21.59     1.027     0.838  99.0000        179     68.28014
 3.50    547.5992  19.8033     1989.218    373.7482 -79.16     1.871     1.761   0.0595        180     109.0564
 0.00    517.8668  99.0000    -27.35974   1431.5239   1.73     0.928     0.743  99.0000        181      90.4577
 5.78    539.7258  19.0861     3850.889    673.9117 -57.04     2.086     1.647   0.0432        182     153.2551
 3.50    532.7166  24.8505     19.04553    653.9492  82.08     1.264     1.118   4.0108        183     70.33929
 3.50    561.1493  19.1483      3636.46    582.4084  88.25     1.943     1.890   0.0343        184     115.0016
 3.50    557.4207  19.6745     2239.819   1456.0345 -65.47     1.879     1.830   0.0543        185     112.0684
 3.50    566.7148  19.4289     2808.208    955.7006 -78.38     1.906     1.800   0.0435        186     112.4921
 6.89    543.4722  22.7329     133.9198    982.6802 -89.35     0.913     0.466   0.6178        187     76.18356
 3.50    573.1162  19.4217     2826.872   1028.1451 -54.28     1.932     1.853   0.0442        188     115.0016
 0.00    549.3787  99.0000     -33.4856    755.1135 -34.91     1.325     0.965  99.0000        189     105.9589
 3.50    556.3796  22.7751     128.8149   1073.0961 -27.96     1.485     1.224   0.6831        190     81.02534
 5.45    554.3296  22.1941     219.9705      3.4401  59.18     1.000     0.966   0.4198        191     85.03606
 5.15    557.5020  23.8444     48.10938    270.9468  87.46     0.804     0.701   1.4771        192     65.43387
 3.65    570.2971  22.5853     153.4176   1513.4263  20.57     1.251     1.230   0.5524        193     78.03444
 0.00    561.7103  99.0000    -25.33386    757.2952  44.62     0.541     0.348  99.0000        194     27.58934
 3.50    579.8986  21.6740     355.1484   1365.4912  69.09     1.548     1.334   0.2717        195     88.86594
 0.00    562.5344  99.0000    -11.64575    231.4810  41.04     0.502     0.496  99.0000        196     64.70274
 5.30    568.7847  23.5339     64.03894   1327.9811  65.62     0.991     0.611   1.2156        197     71.67921
 3.50    720.0618  18.0564     9941.363    199.1909 -41.82    13.077     9.717   0.0745        198     682.1042
 6.56    585.1160  22.6116      149.748   1527.1716 -53.11     1.412     0.836   0.8948        199     123.3833
 5.02    585.8004  22.7889     127.1829    272.7299  74.17     1.403     0.987   0.8656        200     101.3697
 5.58    613.2350  22.7766     128.6357    571.9507  76.43     2.783     2.146   1.9986        201     236.7304
 4.51    987.4315  21.9785     268.2942    729.5488 -68.63     1.460     1.275   0.4343        202     107.2974
 8.33   1598.4415  21.9208     282.9314   1443.7629 -19.91     0.735     0.456   0.2876        203     74.92424
 3.50   1595.0242  23.8657     47.17468    335.0103 -89.35     0.624     0.607   0.8096        204     35.16965
 0.00   1583.5215  99.0000    -66.10205    830.3893 -72.74     3.707     2.843  99.0000        205     284.0497
 6.12   1576.9705  26.2792     5.108643    508.9666  89.13     1.612     1.207  31.3789        206     147.6094
 4.51   1574.5171  22.9875     105.9288     27.8831 -87.91     1.320     1.127   0.9798        207     95.57228
 3.50   1553.8016  23.8679     47.08008   1073.4061  49.03     1.171     1.091   1.5910        208     68.97335
 0.00   1554.8267  99.0000    -33.04138    636.8438 -48.40     0.826     0.671  99.0000        209     51.61493
 5.82   1551.8873  23.5772      61.5365    217.3465 -74.79     1.326     0.773   1.7972        210     101.8379
 3.89   1532.0197  18.8993     4573.899    867.3597  86.06     1.589     1.537   0.0356        211     149.8129
 0.00   1451.6503  99.0000    -6.805176   1206.0732  69.49     0.908     0.669  99.0000        212     53.42653
 3.50   1385.0707  18.3493     7590.974    906.9302 -73.43     2.137     1.994   0.0179        213     124.9161
 3.50    850.0124  18.7373     5309.718    214.4727 -66.55     1.976     1.937   0.0243        214     118.6662
 7.83    854.6661  25.0060     16.50464    613.3131  46.01     0.569     0.338   3.9565        215     60.12957
 3.50    839.7684  16.6458     36448.79    275.0393 -39.86     2.346     2.210   0.0041        216     137.2552
 0.00    848.7388  99.0000    -32.45825    646.4524 -73.63     2.492     2.052  99.0000        217     197.2686
 3.50    845.2832  22.8415     121.1716     98.6556 -80.65     3.295     1.270   1.1161        218     124.5346
 0.00    846.4573  99.0000    -15.89404   1141.6185  71.75     1.481     0.918  99.0000        219      102.304
 3.50    879.4688  20.3392      1214.32   1340.6351 -67.68     1.854     1.745   0.0960        220     107.2974
 5.77    835.4118  22.9190     112.8188   1371.1257  40.46     0.995     0.929   0.9200        221     95.57228
 4.22    826.7810  22.2486     209.2029    342.2381  79.02     1.218     0.958   0.4051        222     78.03444
 3.50    823.0052  23.9306     44.43982   1599.5493 -89.49     0.787     0.498   0.8595        223     35.16965
 0.00    821.6789  99.0000    -10.38525   1153.3163  45.24     0.565     0.340  99.0000        224     60.12957
 3.50    818.6816  22.8737     117.6268   1030.0120  12.00     1.329     1.314   0.7316        225     79.24435
 4.00    816.9885  23.6993      54.9895    819.3132  69.68     1.278     1.162   1.6572        226     83.90971
 6.86    806.8745  22.2759     203.9979    300.1245  46.58     0.818     0.677   0.4674        227     87.78874
 3.50    793.3639  21.9072     286.5054    937.7939 -10.86     1.696     1.064   0.3115        228     82.19123
 5.79    793.2579  23.2098     86.31702    434.5865  65.46     1.262     0.900   1.3500        229     107.2974
 0.00    792.0000  99.0000    -54.30188   1463.8378 -87.87     0.982     0.838  99.0000        230     55.17868
 3.50    787.0515  19.4210     2828.724    527.2347 -72.96     1.981     1.904   0.0446        231      116.236
 8.10    789.3751  21.9562     273.8585    867.7164  71.58     0.990     0.587   0.4237        232     106.8531
 0.00    787.4064  99.0000    -26.68237   1108.0948 -83.32     1.505     0.950  99.0000        233      90.9821
 3.50    776.7722  17.3740      18638.7    727.4407 -70.96     2.201     2.085   0.0075        234     129.0373
 0.00    787.2328  99.0000    -37.73096    218.2828  -5.47     0.908     0.647  99.0000        235     74.28658
 3.50    784.8297  23.4577     68.69458    183.9135 -33.23     1.146     1.032   1.0112        236     63.96325
 7.51    784.8787  23.2487     83.27319    374.6598 -18.08     0.909     0.675   1.3342        237      102.304
 3.50    780.7609  25.8111     7.862549    992.5387  78.75     1.368     1.334  11.2723        238     81.61037
 3.50    770.8383  18.7066     5462.317    369.1132 -67.78     1.974     1.895   0.0231        239      116.236
 6.53    765.6365  25.1289     14.73865   1409.5160 -88.44     1.290     0.964   9.2602        240     125.6754
 4.26    762.5145  23.2676     81.83777   1360.1163 -73.92     1.068     0.877   0.9153        241     68.97335
 0.00    760.6526  99.0000    -17.30957   1039.3221  46.07     0.578     0.332  99.0000        242      33.7899
 5.12    756.9484  22.9884     105.8379    889.1730  57.64     0.988     0.660   0.7287        243     71.01241
 7.67   1583.2874  23.8975      45.8158    370.4407 -21.32     1.147     0.537   2.4578        244     103.6897
 0.00    743.2925  99.0000    -55.91577   1293.0260  -1.59     0.747     0.687  99.0000        245     79.84242
 3.89    735.6713  22.6870      139.703    372.2827 -40.50     1.368     1.185   0.6697        246     86.14769
 6.88    735.5160  22.4323     176.6438   1080.9215  -0.57     0.773     0.500   0.4407        247     71.67921
 0.00    731.2867  99.0000    -206.1984   1468.3378 -76.91     1.246     0.664  99.0000        248     92.02193
 7.24    743.0247  25.0852     15.34314   1432.4613 -87.49     1.168     0.954   9.4160        249      133.031
 3.50    728.8027  23.5062     65.69067    127.9314  65.09     1.815     1.633   1.7142        250     103.6897
 3.94    724.3919  23.9908     42.04187    970.2457 -85.18     2.450     1.662   3.5275        251     136.5603
 3.79    727.3688  22.1420     230.7797    624.0144  -1.82     1.372     1.300   0.4131        252     87.78874
 6.70    725.8500  24.6587     22.72546   1433.8589 -44.25     0.839     0.661   4.0637        253     85.03606
 0.00    719.8369  99.0000    -24.56189    658.6907 -62.65     1.174     0.973  99.0000        254     64.70274
 0.00    741.9766  99.0000    -231.3488    918.1022 -47.94     1.918     1.206  99.0000        255     156.6773
 3.50    709.9418  21.1547     572.9763   1354.0551 -76.30     1.612     1.400   0.1694        256     89.39968
 6.10    711.6713  22.4690     170.7731   1241.1521  67.80     0.948     0.677   0.5408        257     85.03606
 4.90    708.2723  23.4603     68.52966    403.1562   0.61     1.165     1.006   1.4418        258      90.9821
 4.94    705.6754  25.1672     14.22668   1242.6392 -43.61     0.585     0.328   2.5794        259      33.7899
 4.08    702.4844  21.9005     288.2692   1039.8816 -86.80     1.517     1.453   0.3906        260     103.6897
 5.80    702.4802  22.3635     188.1899     19.4207 -56.86     1.880     0.358   0.4743        261     82.19123
 3.50    698.2388  20.6110     945.3435     96.4589 -50.86     1.676     1.662   0.1170        262     101.8379
 0.00    698.9081  99.0000    -91.01257    910.4150 -26.53     1.143     0.575  99.0000        263     108.1805
 5.83    688.0648  22.1661     225.7162   1185.2397 -46.18     1.275     1.213   0.6083        264     126.4302
 6.19    684.8482  23.2384     84.06714    494.5381  76.41     1.602     1.296   1.9804        265     153.3009
 5.18    682.2822  23.0244     102.3903   1071.8645 -37.59     1.224     1.033   1.0702        266     100.8993
 3.50    664.6374  16.3258     48942.64   1486.4188 -57.27     2.380     2.204   0.0031        267     137.9467
 6.97    677.6722  24.3428     30.40112    940.3181  45.48     0.568     0.338   1.8106        268     50.68485
 0.00    674.2509  99.0000    -110.0966   1442.3577 -23.85     1.299     1.244  99.0000        269     122.6097
 3.50    668.4413  20.3878     1161.165   1089.8324 -70.08     2.151     1.765   0.1099        270     117.4574
 4.30    671.5085  23.1906     87.85657    757.8257 -19.21     1.344     0.905   1.0088        271     81.61037
 6.96    671.3718  22.2664     205.8029    456.0335 -16.19     1.194     0.979   0.6925        272     131.2307
 6.39    669.1052  23.0361     101.2887    350.0106 -40.48     1.529     0.838   1.3475        273     125.6754
 6.10    667.8962  23.3561     75.43384   1306.5988 -37.77     1.487     1.013   1.8841        274     130.8677
 0.00    668.6582  99.0000    -111.1172   1040.7002 -47.10     0.566     0.339  99.0000        275     53.42653
 3.86    661.3326  20.1682     1421.349    316.6511 -21.41     1.393     1.225   0.0773        276     101.1585
 3.50    654.3220  21.9970     263.7657    312.1318  58.15     1.666     1.591   0.4076        277     98.99538
 0.00    659.0103  99.0000    -7.745972    921.7308  89.37     0.670     0.444  99.0000        278     73.64339
 5.36    657.1987  24.2050     34.51416    685.8965  42.06     0.843     0.670   2.1919        279     69.65967
 3.83    652.8804  21.3013     500.6028     16.1437 -66.82     1.659     1.486   0.2259        280     104.1475
 6.51    648.5031  24.9398      17.5415     83.8029 -87.54     0.953     0.732   5.8237        281     94.06711
 4.30    643.4164  27.7970     1.262451    165.1923  71.41     1.432     1.277  86.7967        282     100.8993
 0.00    640.9592  99.0000     -27.2019    220.0922  62.79     1.825     1.460  99.0000        283     103.2299
 3.85    635.9503  20.6241     934.0544    870.8044 -55.63     2.583     2.127   0.1804        284     155.1517
 5.85    636.3670  23.3944     72.81995    713.2728 -27.80     1.103     0.927   1.5257        285      102.304
 0.00    633.0000  99.0000    -29.56189    397.9916   0.00     0.836     0.289  99.0000        286     25.80746
 0.00    630.1810  99.0000    -75.25366    108.0266 -55.50     0.816     0.513  99.0000        287     73.64339
 5.60    628.0944  23.1402     92.02881   1540.2069  27.17     1.293     1.121   1.3620        288     115.4145
 6.67    625.7720  26.1136     5.950439    983.4990  -2.17     1.251     0.924  22.4479        289     122.9971
 0.00   1589.7009  99.0000    -146.1567   1461.0107 -10.63     0.741     0.680  99.0000        290     100.8993
 4.10    615.7365  22.4633      171.667    191.4495  60.91     1.785     1.428   0.7223        291     114.1712
 4.21    611.5716  21.6321     369.1073    588.2308  14.18     2.596     1.592   0.4352        292     147.9314
 0.00    613.6649  99.0000     -4.62915   1535.3394  44.82     0.581     0.331  99.0000        293     50.68485
 0.00    607.5215  99.0000    -75.98914    297.4977  43.76     0.505     0.494  99.0000        294     72.99453
 8.53    606.5175  23.0014      104.575   1381.4932  43.97     0.503     0.496   0.7375        295     71.01241
 4.22    602.5912  25.8765     7.402954   1579.9037  -8.84     1.521     1.361  15.4780        296     105.5089
 7.83    597.8693  23.3166     78.22986    442.1408 -44.85     0.751     0.569   1.2630        297      90.9821
 3.50    595.8198  22.2880     201.7432   1054.3407 -89.55     1.270     1.154   0.3999        298     74.28658
 8.08    597.5260  22.9875     105.9261     31.0235   1.89     0.785     0.499   0.9000        299     87.78874
 7.67    588.0042  25.6719      8.93811   1536.5018 -87.74     0.820     0.499  10.3321        300     85.03606
 0.00   1589.6970  99.0000    -20.69495    264.6829 -44.20     0.557     0.343  99.0000        301     50.68485
 0.00   1584.6581  99.0000     -154.313    908.5366  57.03     1.067     0.804  99.0000        302     96.56269
 3.50   1571.6305  22.9018     114.6299    429.0382 -57.41     1.151     1.002   0.6268        303     66.15691
 5.85   1546.6389  23.7251     53.69971    436.8634 -57.07     1.089     0.581   1.6386        304     81.02534
 3.55   1567.0079  21.0722     618.1987     19.0851 -80.60     1.626     1.566   0.1705        305     97.05411
 3.50   1534.9148  18.1717     8939.328    875.2714 -86.94     1.850     1.642   0.0282        306     232.1206
 0.00   1560.6195  99.0000      -48.896    623.5128 -74.75     1.716     1.514  99.0000        307     97.05411
 7.47   1509.5585  23.2417     83.81738    525.2308 -20.86     0.742     0.450   0.9871        308     76.18356
 4.28   1535.1509  22.5249     162.1978    112.9040  60.82     1.146     0.989   0.5265        309     78.64172
 3.50   1559.6727  20.5603     990.5795   1361.5829 -68.37     1.745     1.591   0.1111        310     101.3697
 0.00   1568.4788  99.0000    -58.39075   1528.5316  46.68     0.504     0.495  99.0000        311     64.70274
 5.40   1556.2274  22.5069     164.9143    308.6033  31.79     1.065     0.888   0.5991        312      90.9821
 0.00   1562.3768  99.0000    -68.50562    285.8193 -19.32     0.739     0.443  99.0000        313     53.42653
 0.00   1559.8711  99.0000    -182.0999     26.1974 -27.26     0.987     0.751  99.0000        314     87.24516
 3.91   1522.8324  23.0219     102.6263   1514.5532  76.41     1.408     1.298   0.9738        315     92.02193
 0.00   1546.0128  99.0000    -103.0568   1236.4098   1.62     1.047     0.789  99.0000        316     93.56001
 4.17   1545.7317  23.6532     57.37317    664.4902  76.88     1.358     1.332   1.8371        317     97.05411
 0.00   1527.1224  99.0000    -64.62292    958.2054  77.88     1.046     0.813  99.0000        318     70.33929
 0.00   1510.2976  99.0000    -61.31409    983.0817  57.52     1.084     0.991  99.0000        319     106.4069
 5.66   1513.0079  21.9423     277.3944    593.7835 -44.31     1.784     1.136   0.5494        320       140.34
 7.31   1510.9725  23.6776       56.099      7.9879  41.77     0.884     0.532   1.6995        321     87.78874
 5.50   1520.9092  22.9608     108.5646    586.8411 -77.18     1.827     1.383   1.5085        322     150.7979
 0.00   1524.7307  99.0000    -193.4733    802.9252  78.91     1.265     1.088  99.0000        323     82.76802
 3.50   1510.4840  18.2396     8397.474   1281.4663 -71.78     2.090     1.989   0.0159        324     122.9971
 6.43   1455.5348  21.6335     368.6438    128.6390  49.32     2.044     1.616   0.5952        325     202.0342
 3.50   1461.9943  23.1524      91.0033    597.6018 -69.09     1.138     0.918   0.7176        326     60.12957
 0.00   1504.7002  99.0000    -54.76978   1360.6443  18.15     1.332     1.079  99.0000        327     73.64339
 0.00   1454.4182  99.0000    -45.16492    455.0775   2.44     1.339     0.957  99.0000        328     81.02534
 5.87   1460.4852  21.3726     468.7567    123.4849 -64.05     1.313     1.249   0.2322        329      100.227
 0.00   1474.1536  99.0000    -49.53711    567.3289 -76.98     1.079     0.413  99.0000        330     49.73739
 0.00   1455.2758  99.0000    -85.12512    717.1210 -62.49     1.426     1.334  99.0000        331     122.9971
 3.50   1482.1497  23.9679     42.93591   1409.0476 -56.73     1.059     0.797   1.4173        332     56.03421
 5.07   1473.2968  21.7484     331.6255   1562.7554  43.58     2.024     1.916   0.5678        333     173.3963
 8.54   1468.3329  22.3817     185.0548     54.2892  21.93     1.248     0.802   0.8625        334     146.9634
 0.00   1436.0176  99.0000    -75.52222    485.3335  -2.64     1.035     0.841  99.0000        335     100.4267
 6.05   1480.9836  22.5075     164.8206     23.2866 -31.67     1.305     0.714   0.6679        336     101.3697
 0.00   1419.5212  99.0000    -29.15308   1083.4147   0.10     1.073     0.500  99.0000        337     85.03606
 5.53   1464.4952  22.5060     165.0385    881.9339   6.55     1.083     0.924   0.6289        338     95.57228
 4.12   1361.3853  22.8000     125.8923    520.9531 -63.86     1.183     1.102   0.7140        339     82.76802
 8.38   1458.6672  23.0409     100.8406    502.6410 -44.03     0.588     0.326   0.6808        340     63.21512
 3.50   1461.5692  18.9300     4446.462    250.7218 -72.86     2.031     1.908   0.0290        341     118.6662
 0.00   1460.1299  99.0000     -2.55957   1250.1620  43.51     0.759     0.574  99.0000        342     85.03606
 3.50   1466.0754  17.9675     10789.56    533.4296  78.83     2.383     2.032   0.0134        343      133.031
 4.71   1417.7998  21.7875     319.9004    690.6979  88.17     2.543     2.114   0.6447        344      189.896
 3.50   1398.4067  17.6019     15109.81    898.8309 -75.49     1.882     1.722   0.0170        345     237.1269
 5.23   1413.1299  19.7218     2144.335    965.9013 -51.24     1.554     1.329   0.0635        346     125.3251
 5.26   1439.5889  25.1382     14.61243    959.6401 -79.99     1.205     0.936   7.2131        347     97.05411
 5.85   1434.0284  24.6802      22.2793    890.3381  17.39     1.038     0.719   4.3318        348     88.86594
 0.00    862.9485  99.0000    -71.67908    655.0118 -46.53     0.819     0.758  99.0000        349     71.01241
 7.64   1406.3228  23.2905     80.12939    183.3160 -45.35     0.565     0.340   0.7932        350     58.52583
 3.50   1416.1143  19.0636     3931.362    953.2365 -69.51     1.969     1.867   0.0318        351     115.0016
 6.47   1393.4110  22.8859      116.318    778.1905  18.91     0.753     0.452   0.5902        352     63.21512
 7.33   1425.8359  23.4724     67.77136    837.5905  11.03     0.877     0.594   1.4495        353      90.4577
 0.00   1410.5024  99.0000    -45.71826   1507.0568 -85.46     1.069     0.775  99.0000        354      102.304
 3.50   1420.0104  21.3978      458.027   1049.5074 -79.68     1.656     1.515   0.2266        355     95.57228
 6.66   1404.2319  23.0361      101.285    753.3615 -59.97     1.547     1.113   1.6203        356      151.113
 3.88   1376.7153  23.4333     70.25781    522.7999  53.61     1.057     0.521   0.7688        357     49.73739
 0.00   1388.5931  99.0000    -16.37634    402.7344  18.63     0.742     0.454  99.0000        358     77.42239
 8.42   1371.8041  22.3159     196.6263   1047.3953 -70.69     0.752     0.446   0.4603        359     83.34081
 6.97   1392.8794  23.5180     64.98047    213.2036  60.90     1.165     0.431   1.4398        360     86.14769
 5.54   1381.9500  23.2104     86.26929    940.0408 -49.56     0.805     0.768   0.9746        361     77.42239
 0.00   1306.6525  99.0000    -46.92444    723.4753 -75.39     2.048     1.302  99.0000        362     101.3697
 6.62   1368.2230  23.8954      45.9043   1364.4091  71.70     0.763     0.452   1.6154        363     68.28014
 3.50   1367.0601  19.7104     2166.854   1438.6954 -69.75     1.877     1.784   0.0557        364     111.2162
 3.50   1364.6747  23.0818     97.11523   1175.2870 -34.09     1.107     1.002   0.6984        365     62.45803
 4.04    876.1050  21.7622     327.4172   1084.7075 -28.86     1.244     1.203   0.2802        366     84.47475
 5.24    864.4854  23.5359     63.92236    522.6914  24.89     1.216     1.024   1.7062        367     100.4267
 4.26    874.0328  23.6045     60.00769    845.5032 -19.13     1.869     1.214   2.0128        368     111.2162
 3.77   1371.6851  23.6108      59.6582   1249.1526  63.98     1.091     1.014   1.2173        369     66.87215
 4.59   1350.2107  22.2443     210.0222   1493.6960  22.22     1.432     1.350   0.5817        370     112.4921
 3.50   1366.5422  23.9376     44.15356    332.5728 -65.15     1.378     1.155   1.8738        371     76.18356
 5.97   1376.5374  22.1141     236.7977    567.9445 -43.59     1.566     1.417   0.7045        372     153.6109
 5.68   1364.8011  24.4936     26.45874   1493.2467 -69.63     1.288     1.042   4.6346        373     112.9142
 3.50    873.5823  21.0444     634.2238    447.6536 -63.10     1.640     1.543   0.1653        374     96.56269
 0.00    868.1310  99.0000    -1.890991   1057.4645 -21.29     0.886     0.683  99.0000        375     57.70724
 3.54   1307.7341  20.8609     750.9807    133.0576 -38.68     1.657     1.569   0.1411        376     97.54305
 5.79   1325.7029  24.4104     28.56604   1202.3856  79.24     1.228     1.030   4.2766        377     112.4921
 5.47   1312.1108  22.1883     221.1558   1231.6163 -35.66     1.938     1.251   0.7264        378     147.9314
 3.54    874.6697  21.0917     607.1682     39.0317 -81.23     1.646     1.528   0.1762        379     98.51365
 0.00    879.6802  99.0000    -27.52271   1222.6667 -44.37     0.571     0.337  99.0000        380     50.68485
 3.50   1248.5431  20.3514     1200.697     37.3657 -76.40     1.825     1.713   0.0962        381     106.4069
 3.50    862.3931  15.3251     123016.3   1395.4015 -52.90     3.782     3.484   0.0019        382     219.6344
 3.50   1311.6833  17.7300     13427.49    923.2286 -64.13     2.188     2.059   0.0104        383     128.2979
 4.93   1301.9756  24.7563     20.77234    941.8833 -13.25     1.170     1.086   5.0226        384     96.06876
 3.84   1275.3074  22.0279     256.3624    569.3286 -69.42     1.529     1.447   0.4234        385     99.95188
 7.19   1303.4929  23.3307     77.21619    953.5069  44.98     0.503     0.497   0.9100        386     64.70274
 8.19   1320.5138  22.7805     128.1768   1482.4796  45.51     0.506     0.493   0.5960        387     70.33929
 0.00   1259.3296  99.0000     -83.5946    468.0339  43.72     1.017     0.726  99.0000        388     104.1475
 0.00   1301.0029  99.0000    -16.24072   1553.9611 -45.22     0.910     0.525  99.0000        389     80.43606
 3.50   1237.1700  20.5614     989.5133    383.7987 -71.23     1.782     1.702   0.1168        390     106.4069
 3.59   1279.1519  22.5832     153.7174   1141.3660  -7.37     1.463     1.362   0.6164        391     87.24516
 3.50   1244.3210  18.1992     8715.945    569.9016 -68.57     2.097     1.978   0.0153        392     122.6097
 7.50   1268.3602  22.7042     137.5011   1312.2224  19.35     1.065     0.808   0.9436        393     119.4653
 3.50   1277.7515  21.4060     454.5642    260.1269  74.55     1.635     1.607   0.2354        394     98.51365
 6.67   1220.1958  23.0408     100.8553    903.3673  72.31     0.775     0.442   0.7352        395     68.28014
 4.79   1267.2450  23.2584     82.53271   1407.5073  67.33     1.246     1.224   1.3583        396     103.2299
 7.93   1274.4855  22.6441     145.3278    942.0164  57.63     1.016     0.613   0.7985        397     106.8531
 3.79   1270.1284  22.5845     153.5356    755.1631 -40.38     1.172     1.009   0.5070        398     71.67921
 0.00   1254.0199  99.0000    -27.03687   1206.6636  89.79     0.736     0.673  99.0000        399     89.93024
 6.35   1261.3464  23.4116     71.67468   1421.6387 -45.47     1.029     0.851   1.5641        400     103.2299
 0.00   1234.3195  99.0000    -185.5975   1465.1670 -66.17     0.883     0.679  99.0000        401     79.24435
 3.50   1241.7740  21.3505     478.3975    864.6569  62.22     1.620     1.452   0.2101        402     92.53746
 8.04    900.4957  24.6194     23.56421    298.5353 -47.69     0.506     0.493   3.2417        403     70.33929
 8.21   1251.7294  21.8793     293.9567   1422.2137  62.76     1.513     0.786   0.5698        404     154.2291
 4.12   1234.7330  21.8681     296.9895    710.9155 -67.00     1.333     1.114   0.3170        405     86.69816
 3.50   1229.0135  21.1821     558.6525    318.5288 -71.82     1.615     1.543   0.1848        406      95.0732
 3.50   1179.0875  21.2155     541.7478      5.8538 -83.74     1.689     1.548   0.1926        407     96.06876
 3.50   1214.1450  17.3514     19030.64   1194.3954 -60.99     2.238     2.104   0.0074        408     130.1387
 0.00   1224.6696  99.0000     -244.313    425.0283  62.52     1.317     1.205  99.0000        409     96.06876
 0.00    905.0942  99.0000     -28.3053   1518.2821  77.45     1.314     0.584  99.0000        410     73.64339
 3.50   1251.3696  21.3477     479.6379    491.9989 -78.80     1.657     1.563   0.2231        411     98.51365
 0.00    888.1315  99.0000    -320.9961    688.9775 -57.79     1.707     1.034  99.0000        412     136.2115
 3.50   1228.9906  19.5185     2585.797   1333.2490 -81.64     1.960     1.871   0.0485        413     115.4145
 3.50    879.8435  17.4776     16941.77    165.4467 -63.62     2.184     2.097   0.0083        414     129.0373
 0.00    973.5118  99.0000    -12.30383    281.4951  44.80     0.508     0.492  99.0000        415     58.52583
 4.40    916.7213  23.1224     93.54944   1145.3708 -10.66     1.250     1.064   1.0001        416     86.14769
 0.00   1185.5048  99.0000    -54.92004    283.8190   3.59     1.112     0.978  99.0000        417     109.4918
 3.50   1238.4437  21.0805     613.4937   1245.6625 -68.69     1.644     1.528   0.1701        418     96.06876
 6.96   1198.6920  25.0382     16.02271    463.6628 -82.32     1.183     0.695   7.4506        419     109.9254
 0.00    921.3797  99.0000    -54.02441    224.6592  48.63     1.091     0.925  99.0000        420     86.69816
 3.50    919.1842  18.3334     7702.662    619.8223 -71.50     2.027     1.911   0.0168        421     119.0665
 4.03    922.7933  21.6896     350.0598    505.8558 -66.61     1.413     1.387   0.3011        422     97.05411
 4.20    915.4302  21.9537     274.4932    936.0518  75.53     2.644     1.808   0.6259        423     158.1882
 6.91    921.2067  22.2869     201.9552    853.6528 -71.79     0.953     0.662   0.5139        424     95.57228
 4.64   1178.5764  21.9368     278.8033   1464.2826   2.64     3.073     1.472   0.6646        425     170.6306
 3.50   1197.8568  25.4136     11.33838    610.2325 -45.66     0.700     0.552   3.4957        426     36.49726
 5.57    927.3735  22.3544     189.7725    855.5706 -47.75     1.059     0.862   0.5236        427     91.50349
 0.00   1203.3785  99.0000    -77.64929   1349.1725 -80.47     1.240     1.074  99.0000        428     92.02193
 0.00   1205.8745  99.0000     -77.7948    116.8624  43.22     1.186     1.112  99.0000        429     93.56001
 5.49   1189.1964  23.0437     100.5773   1456.5712  36.05     1.889     1.326   1.6111        430     149.2122
 3.50   1193.7871  19.6834     2221.456   1030.6880 -87.23     1.931     1.798   0.0546        431     111.6431
 5.87   1160.6014  23.2696     81.69031   1195.9904  62.62     1.027     0.652   1.1155        432     83.90971
 7.44   1187.9056  22.5320     161.1425    585.2480  36.51     1.464     1.043   1.0722        433     159.0879
 6.56    935.9239  23.0306     101.8067    678.9801   6.73     1.478     1.299   1.0459        434      98.0501
 3.50    932.5441  21.2532     523.2731    944.0935 -74.94     4.527     2.298   0.4039        435     194.5978
 0.00   1153.0000  99.0000     -3.89502    542.0130   0.00     0.863     0.289  99.0000        436     52.52854
 6.78    929.8692  22.0096     260.7046    111.2704 -35.54     1.102     0.521   0.3702        437     88.86594
 5.26   1175.3789  25.6961     8.740967   1044.8125 -21.05     1.156     0.871  11.3686        438     91.50349
 8.45    936.6628  23.4981      66.1875    765.6741 -45.50     0.576     0.334   1.0372        439     63.21512
 6.21   1159.4818  23.6059     59.93115     98.0129  -1.74     0.794     0.499   1.2118        440     66.87215
 0.00   1166.9652  99.0000    -19.44934    432.2736 -88.17     0.742     0.657  99.0000        441     62.45803
 3.51    938.6542  24.6621     22.65564    622.0769  23.53     1.046     0.875   2.7264        442     56.87688
 0.00    934.3132  99.0000    -7.148071   1019.9688  -9.49     0.725     0.651  99.0000        443     78.64172
 5.97    933.1538  24.0764     38.85535    530.1095 -39.52     0.831     0.674   2.1293        444     76.18356
 3.59    936.8080  20.9990     661.2933    841.7275 -80.24     1.594     1.545   0.1594        445     97.05411
 7.84    972.3481  22.5289     161.6013   1261.0458  24.17     1.700     0.572   0.9059        446     134.8072
 3.50   1154.0920  20.9327     702.9536    194.7910 -82.67     1.735     1.608   0.1566        447     101.3697
 0.00   1147.7938  99.0000    -18.62903    390.1435  39.32     0.810     0.682  99.0000        448     74.92424
 3.50    942.7796  18.9788     4250.928    689.4196 -82.63     1.966     1.886   0.0298        449     116.6445
 3.50   1139.2327  22.8711     117.9075    311.5732 -14.17     0.981     0.960   0.5315        450     57.70724
 3.50   1130.4121  19.1504     3629.487    620.1830 -77.28     1.953     1.841   0.0344        451     115.0016
 7.77   1132.6074  23.0324     101.6326    292.1523 -19.72     0.728     0.448   0.8273        452     77.42239
 3.86   1074.6722  24.5661     24.74902    141.8901  73.51     1.817     1.611   5.0825        453      115.826
 3.50   1029.2568  21.5764      388.548    309.9079  87.69     1.506     1.360   0.2408        454     86.14769
 4.18   1124.9321  21.3134     495.0323     68.4731  51.88     5.250     2.392   0.5629        455     256.5957
 5.42   1123.9146  22.2495     209.0276    766.8862  86.58     1.225     0.827   0.4861        456     93.56001
 3.53   1015.9736  26.2847     5.082886    820.5222 -26.94     0.998     0.661  10.2099        457     47.78614
 7.38   1031.2301  25.5291     10.19482   1367.2107  73.67     0.848     0.345   7.4205        458     69.65967
 3.50   1095.0286  20.6932     876.4375     15.6405 -74.36     1.809     1.689   0.1324        459     106.8531
 3.50   1100.1575  22.0139     259.6714   1451.7600 -87.06     1.335     1.302   0.3314        460     79.24435
 3.50   1110.9348  21.4624     431.5717   1267.3542 -53.56     1.628     1.540   0.2417        461     96.06876
 3.50   1057.9159  20.6158     941.1896    239.0446 -89.28     1.815     1.614   0.1196        462     103.6897
 5.58   1085.2710  23.7997     50.13025    553.7729 -72.17     0.831     0.350   1.1380        463     52.52854
 6.15   1081.9420  24.8841     18.46558   1121.9431  70.76     0.796     0.786   4.7653        464     81.02534
 5.67   1078.0057  24.0963     38.14941    854.9566 -58.76     1.714     0.723   3.1292        465     109.9254
 4.39   1085.1819  22.5510     158.3435    386.2175 -88.27     1.155     0.765   0.4916        466     71.67921
 5.38   1080.6115  23.6463     57.74121    306.4988 -75.20     1.019     0.733   1.5349        467     81.61037
 3.50   1090.2322  20.6127     943.8479    791.8683  77.65     1.735     1.668   0.1172        468     101.8379
 6.54    969.5267  23.7349      53.2157   1019.4875 -43.79     0.506     0.493   1.1261        469     55.17868
 6.34   1091.0231  23.2282     84.86182   1427.7740  89.07     0.703     0.418   0.7695        470     60.12957
 5.56   1067.3313  22.0944     241.1189   1184.4683  51.33     1.399     0.465   0.3431        471     76.18356
 3.91   1070.1584  22.9488     109.7671     62.2485  24.25     1.393     1.296   0.9155        472     92.53746
 4.07   1027.4890  20.4889      1057.88    607.2560 -18.76     2.941     2.238   0.1841        473     179.3307
 3.80   1042.8846  20.8414     764.6064    423.8866 -42.61     1.752     1.605   0.1586        474     111.6431
 5.23   1064.3309  23.2882      80.2998    531.7479  33.18     1.029     0.908   1.1946        475     88.32899
 0.00   1063.5302  99.0000    -26.85669    862.0614 -58.01     1.458     1.242  99.0000        476     116.6445
 4.02   1040.8853  21.9523     274.8447     22.4731  -8.67     1.448     1.403   0.3912        477     98.99538
 7.19   1054.2803  22.9108     113.6808   1320.1046 -69.47     0.947     0.678   0.9548        478     99.95188
 4.46   1011.2761  22.2044     217.8934    374.0196   5.61     1.408     1.367   0.5392        479     108.1805
 4.07   1050.3533  24.2082     34.41272    312.3636 -17.60     1.447     1.126   2.8547        480      90.4577
 0.00   1049.1913  99.0000    -26.92444    226.7028  59.86     0.859     0.616  99.0000        481     80.43606
 4.67   1047.5114  20.8978     725.8759   1382.1768 -66.89     3.633     2.561   0.3675        482     245.6071
 3.50   1006.4554  21.5370     402.8868   1352.7764 -73.64     1.613     1.464   0.2536        483     94.06711
 3.80   1040.3287  21.4654     430.3634   1083.9568 -85.21     1.551     1.422   0.2486        484     98.51365
 3.55   1030.5763  22.0492      251.365    765.6879  66.42     1.622     1.460   0.4086        485      94.5715
 3.50   1036.8967  22.6046     150.7185    207.5527 -77.78     1.439     1.289   0.5880        486     81.61037
 7.70   1043.1964  24.0434     40.05518   1597.0045 -58.67     0.812     0.504   2.2127        487     81.61037
 3.50   1021.1419  20.8815      736.866    105.8904 -72.26     1.699     1.569   0.1459        488     98.99538
 6.18   1035.4849  23.4734     67.70483    621.7720  35.42     1.396     0.666   1.6705        489     104.1475
 6.43   1030.0685  21.8411     304.4825    847.4033 -65.74     1.627     0.983   0.4981        490     139.6604
 4.29   1020.0123  22.0166     259.0287    502.1168 -87.00     1.466     1.287   0.4328        491     103.2299
 6.03   1009.3141  23.1294     92.94653    185.7090  46.43     0.550     0.345   0.5466        492        46.78
 5.16    984.0339  23.3923     72.95813    173.4649  83.32     1.164     1.055   1.4447        493     97.05411
 3.50   1001.3738  19.4556     2740.058    997.5110 -79.83     1.961     1.820   0.0451        494     113.7538
 5.70   1002.4895  23.1337      92.5835    292.4987 -44.70     0.505     0.495   0.5605        495     47.78614
 5.12    999.5514  22.8392     121.4318   1446.3088  78.90     1.041     1.005   0.8043        496     89.93024
 3.50    995.1923  20.2930     1267.107    144.4737 -66.76     1.784     1.650   0.0885        497     103.2299
 0.00    991.9846  99.0000    -56.96606   1076.9858 -46.45     0.908     0.527  99.0000        498     101.8379
