#   1 KRON_RADIUS            Kron apertures in units of A or B                         
#   2 Y_IMAGE                Object position along y                                    [pixel]
#   3 MAG_BEST               Best of MAG_AUTO and MAG_ISOCOR                            [mag]
#   4 FLUX_BEST              Best of FLUX_AUTO and FLUX_ISOCOR                          [count]
#   5 X_IMAGE                Object position along x                                    [pixel]
#   6 THETA_IMAGE            Position angle (CCW/x)                                     [deg]
#   7 A_IMAGE                Profile RMS along major axis                               [pixel]
#   8 B_IMAGE                Profile RMS along minor axis                               [pixel]
#   9 MAGERR_BEST            RMS error for MAG_BEST                                     [mag]
#  10 NUMBER                 Running object number                                     
#  11 FLUXERR_BEST           RMS error for BEST flux                                    [count]
 4.06     54.7854  16.4414     43999.44     63.6141  10.86     5.365     4.865   0.0050          1     201.5104
 4.05     18.2135  18.6429     5792.029    984.9620 -89.85     4.237     2.095   0.0219          2     116.8546
 4.10     19.4714  19.0790     3876.238     91.2174 -50.22     1.811     1.786   0.0200          3      71.2709
 3.50     16.2576  18.0242     10240.18   1445.6405  10.92     2.069     1.951   0.0072          4     68.27317
 5.88      5.8206  21.5405     401.5876    145.2245  -0.38     1.171     0.700   0.1387          5     51.27777
 3.50     61.4063  16.3390     48349.77   1078.3906  60.70     2.429     2.331   0.0018          6     80.15064
 7.15     11.4045  22.6103     149.9309   1183.2152  19.09     0.760     0.448   0.2882          7     39.79474
 6.20     19.1504  21.5304     405.3691    384.5094   6.20     1.294     0.940   0.1763          8     65.82211
 6.18     26.2150  20.6952     874.8354    366.8643  22.57     1.520     1.277   0.1034          9     83.25911
 8.14     25.4828  21.8115     312.8934    382.6798  34.64     1.089     0.824   0.2574         10     74.14753
 6.45     36.5190  21.3323     486.5114   1110.6578 -49.38     1.297     0.966   0.1558         11     69.78813
 6.19     34.8937  21.1671     566.4731    326.7797  -6.17     1.759     1.173   0.1650         12     86.08225
 3.50     81.5333  16.3911     46086.31    537.4374  -8.76     2.426     2.341   0.0019         13     80.15064
 6.56     40.7101  21.9153     284.3748   1170.5583  40.85     1.270     0.507   0.1958         14     51.27777
 5.84     40.0144  21.9746     269.2617   1521.2733  85.98     0.741     0.661   0.1650         15     40.90551
 5.97     44.3194  21.9633     272.0668    915.1635 -57.45     1.037     0.830   0.2171         16     54.38829
 8.83     45.6943  21.8406     304.6125    440.3448  43.14     0.570     0.337   0.1350         17     37.87114
 3.86     76.6940  20.0999     1513.689    128.1458 -36.54     1.719     1.565   0.0440         18     61.35826
 6.39     91.3040  20.7049     867.0673    376.7011  59.93     2.277     1.590   0.1478         19     117.9997
 5.62     84.3886  21.5145     411.3528    421.1944 -71.75     1.543     1.097   0.1871         20     70.85042
 3.50    123.3941  15.9608     68496.77    788.9817   1.93     2.491     2.407   0.0013         21     82.53824
 4.29     98.1545  19.6524     2285.775     56.0174  -2.94     1.876     1.626   0.0343         22     72.10451
 6.22     99.8760  20.9857     669.4525    452.8296  11.32     1.469     1.252   0.1321         23     81.44497
 5.77     92.9685  21.9764     268.8156    495.7600  -1.84     0.890     0.757   0.1848         24     45.73375
 7.44    118.7651  22.7150     136.1392    990.2153  56.24     0.770     0.712   0.4250         25     53.27821
 7.94    118.3204  22.9113     113.6257    415.3350 -44.33     0.572     0.336   0.3304         26     34.57146
 3.50    163.8909  16.5839     38588.64   1468.2533 -12.36     2.297     2.242   0.0022         27      76.5272
 8.54    132.4837  22.1549     228.0621    418.0073   0.90     0.791     0.500   0.2442         28     51.27777
 3.62    171.7659  18.1995     8713.569    877.2239 -65.04     2.104     2.045   0.0091         29     73.13316
 5.02    152.7571  22.7005     137.9718   1280.5729  70.56     0.724     0.458   0.2151         30     27.33114
 3.53    167.9653  21.2170     541.0248    104.0224 -78.63     1.477     1.352   0.0969         31     48.27642
 6.26    166.7164  20.9881     667.9845   1445.8735  25.87     1.481     1.385   0.1411         32     86.77369
 6.54    161.5322  24.5705      24.6488    634.5322  45.00     0.509     0.489   1.3624         33     30.92166
 6.44    170.4764  22.0628     248.2548   1368.4977   1.76     0.962     0.894   0.2575         34     58.87308
 6.49    170.4273  22.8869      116.214    651.2307  19.56     0.769     0.448   0.3350         35     35.84446
 7.24    181.4357  22.1528     228.5057    575.3188  32.57     1.271     0.859   0.3485         36     73.33715
 5.24    194.1731  20.6385     921.6921   1350.5505 -52.42     1.469     1.346   0.0842         37     71.48021
 6.58    188.1913  21.5229     408.1749   1354.9642  38.80     1.031     0.844   0.1587         38     59.62951
 4.47    212.4319  18.9240      4471.08    827.3854 -12.54     4.254     2.183   0.0320         39     131.7576
 4.70    208.1951  19.9448     1746.063    548.9749 -54.46     1.677     1.562   0.0461         40     74.14753
 3.50    213.7668  20.0268      1619.13   1306.0121  -5.55     1.672     1.540   0.0363         41      54.1129
 5.56    232.0003  18.9762     4260.968    561.9341 -29.94     3.527     3.152   0.0458         42     179.5554
 3.50    267.4318  15.6900     87905.52     67.5887   4.05     2.519     2.455   0.0011         43     85.03456
 5.22    212.3623  21.3670     471.1902    684.2392 -21.57     1.588     1.414   0.1750         44     75.93927
 3.50    261.3217  15.5061     104123.2    997.3779 -21.97     2.507     2.488   0.0009         45     85.21007
 3.57    225.6275  19.7315     2125.275   1226.0277  56.39     1.639     1.513   0.0281         46     54.93492
 4.82    224.2253  21.2152     541.8986    774.7047 -64.76     1.485     1.273   0.1287         47     64.21365
 5.37    245.7519  20.1023     1510.393    112.9574 -84.19     2.268     1.820   0.0757         48      105.287
 4.73    256.7946  19.0976     3810.459    612.8154 -30.55     2.748     2.239   0.0324         49     113.7449
 6.37    240.4774  21.3356      485.028    838.2289  -1.00     1.566     1.476   0.2095         50     93.56676
 6.42    253.0003  21.3156     494.0372   1372.7172 -71.85     1.388     1.020   0.1254         51     57.06307
 7.14    251.7136  21.5599     394.4807    107.6560 -47.45     1.285     0.961   0.1098         52     39.87509
 3.50    289.1075  17.2809        20306   1486.3608   1.53     2.188     2.127   0.0039         53     73.54058
 7.65    254.4976  23.1100     94.62523   1352.0000  31.85     0.805     0.311   0.2160         54     18.82148
 3.60    283.4612  18.9699     4285.999   1522.2333  52.35     1.853     1.816   0.0162         55     63.98056
 8.02    266.9816  24.5451     25.23315    123.0000  90.00     0.858     0.289   1.7127         56     39.79474
 6.63    272.2898  21.4428     439.4026   1273.7919   3.53     1.216     0.928   0.1693         57     68.49165
 3.50    304.5837  17.6056      15057.7    201.6434   9.84     2.209     2.162   0.0053         58     73.74345
 5.28    294.7334  20.8223     778.1502   1475.5226 -23.87     1.490     1.372   0.0975         59     69.86738
 4.40    303.5009  21.1015     601.7338    563.4193 -19.54     1.662     1.501   0.1216         60     67.39219
 3.50    323.5641  18.0777     9748.485    697.2144  48.95     2.098     2.084   0.0079         61     70.85042
 8.21    294.2909  22.7452     132.4095    247.3220 -43.16     0.553     0.344   0.2835         62     34.57146
 8.21    309.9417  21.0512     630.2609     85.7309 -48.00     1.182     0.645   0.1191         63     69.14293
 5.55    322.5255  20.8337     770.0173    641.3193  77.65     1.952     1.534   0.1320         64     93.56676
 5.15    328.8730  19.9692     1707.355    595.4155 -35.20     1.939     1.713   0.0582         65      91.4675
 5.86    331.2283  22.3100     197.7056   1545.7670  43.51     1.148     0.833   0.3062         66     55.74481
 6.09    333.6950  21.5878     384.4711     93.5791  55.69     0.971     0.940   0.1612         67      57.0691
 5.25    351.3244  20.7520     830.2532     54.6837  61.37     1.405     1.282   0.0893         68     68.27317
 3.68    369.6347  18.0336     10152.36    760.9844  20.92     2.099     2.041   0.0079         69     73.74345
 3.50    396.6434  16.2861     50764.54    231.3520 -26.42     2.431     2.344   0.0017         70     80.52258
 4.58    362.7214  20.0186     1631.424   1500.1469   1.09     1.885     1.588   0.0511         71     76.72218
 6.58    362.1609  22.1175     236.0571   1033.3594 -58.97     1.241     0.995   0.3250         72     70.63924
 6.42    376.5254  20.7285     848.3727    753.3805  48.83     1.997     1.131   0.0988         73     77.19098
 5.64    381.7092  23.0865     96.69775      1.5745 -88.36     2.138     0.633   0.5920         74      52.7144
 5.73    375.3517  21.5649     392.6666   1083.9893 -64.08     1.453     1.092   0.1936         75     70.00188
 6.92    371.3849  21.6854     351.4401     72.0737  -4.98     1.328     0.618   0.1850         76     59.87953
 7.68    370.4340  22.2889     201.5726    209.7979 -20.41     0.757     0.448   0.2356         77     43.72983
 3.50    399.6176  18.2825     8072.081    354.4628  17.25     2.015     1.927   0.0090         78     66.94735
 3.50    398.5452  18.4762     6753.262   1461.0853  -1.85     1.953     1.880   0.0103         79     64.21365
 5.48    384.9274  22.2520     208.5503     67.2584  84.64     1.574     0.663   0.2803         80     53.83611
 5.96    376.7703  22.3156      196.682     87.0265   1.14     0.694     0.420   0.1680         81     30.43467
 6.77    382.1244  22.0528     250.5529    125.8206 -25.56     0.976     0.759   0.2496         82     57.59029
 4.02    395.3357  19.9805     1689.717   1088.6277  16.79     1.645     1.542   0.0397         83     61.84332
 7.53    397.2801  21.0642     622.7781    626.6414 -84.29     1.368     1.024   0.1507         84     86.42866
 6.06    413.7102  21.3467     480.0696      1.9376  88.84     2.794     0.912   0.1736         85     76.72218
 5.80    390.9907  22.5710     155.4578   1196.0000  90.00     0.849     0.289   0.1831         86     26.21511
 7.06    405.4550  21.5190     409.6493    526.5231  81.85     1.415     0.997   0.2159         87     81.44497
 3.50    462.6592  15.1520     144281.1    807.5481 -14.75     2.549     2.471   0.0006         88     85.73444
 3.50    439.4121  17.5149     16370.32    252.0300   6.63     2.198     2.152   0.0049         89     73.94577
 6.39    408.1780  22.1955     219.6752    281.9645  29.19     1.164     0.805   0.2923         90      59.1263
 5.73    422.2335  20.6239     934.2385    159.3221  51.63     1.823     1.388   0.1032         91      88.8157
 6.58    427.0642  22.5480     158.7743    299.6302  84.40     1.385     0.613   0.4009         92     58.61877
 7.34    419.4577  21.7498     331.1887   1204.3013  -8.30     1.015     0.481   0.1653         93     50.39614
 7.02    428.1476  20.9619     684.2731   1179.8237  43.93     1.268     1.091   0.1272         94     80.15064
 4.39    434.3699  20.2976     1261.725   1421.9888 -10.82     1.560     1.399   0.0417         95     48.45079
 8.46    424.2213  22.1311     233.1089    133.4180  71.45     0.751     0.455   0.2220         96     47.65348
 5.96    421.4902  22.7807     128.1539   1580.9540   2.68     0.778     0.499   0.3073         97     36.25886
 8.25    421.6680  22.1044     238.9073    136.3273  45.21     0.574     0.335   0.1610         98     35.42521
 7.29    425.5192  22.3819     185.0229   1063.4724  46.62     0.503     0.496   0.2128         99     36.25886
 8.39    431.2661  21.4994     417.1016    718.8472  67.24     1.078     0.508   0.1566        100     60.12851
 6.61    428.4362  19.4740     2694.037    432.8666  -1.42     3.052     0.580   0.0292        101     72.48546
 4.77    469.1457  18.3845     7348.622    850.1890  21.91     7.491     2.172   0.0276        102     186.7339
 4.02    451.8686  18.7410     5291.834     21.3246   5.41     2.100     1.955   0.0161        103     78.26448
 5.98    435.1284  21.3812     465.0696    151.0912  52.00     1.240     1.134   0.1610        104     68.92652
 5.40    441.5390  21.3263     489.1895    305.5747 -51.09     1.441     1.138   0.1491        105     67.17014
 5.43    446.8850  20.6731     892.7839    122.1028  85.16     1.505     1.355   0.0912        106     74.94915
 6.24    435.6659  22.7170     135.8978    353.6778 -45.54     0.573     0.336   0.2227        107     27.87241
 3.92    459.3049  18.6394     5810.751     34.4913 -43.25     1.983     1.870   0.0137        108     73.13316
 8.32    445.0175  23.1906     87.85498    654.3727 -25.27     1.075     0.452   0.6924        109     56.01217
 3.68    465.1302  19.9162     1792.804    468.4329  46.31     1.735     1.537   0.0355        110     58.61877
 5.36    454.5111  22.4503     173.7269   1533.5862   2.60     0.992     0.775   0.2818        111     45.07568
 3.85    462.4621  21.3958      458.843   1096.4276  13.24     1.424     1.022   0.1075        112      45.4059
 6.23    454.6659  23.0739     97.81836   1224.3201  45.65     0.572     0.336   0.3094        113     27.87241
 4.18    473.5636  19.6879     2212.246    734.7416 -32.28     1.675     1.672   0.0335        114     68.27317
 7.77    463.4885  21.9543     274.3289    723.9955 -62.96     1.225     0.497   0.2390        115     60.37647
 4.28    473.0175  20.0773     1545.542    254.3179   2.68     1.614     1.461   0.0450        116     63.98056
 3.50    479.3950  19.4134     2848.646    922.8692  50.14     1.739     1.690   0.0221        117     57.84912
 4.18    479.2153  20.5644     986.8309   1276.8652  88.29     1.667     1.470   0.0699        118     63.51184
 6.15    468.1647  22.4737      170.024   1198.3262 -25.50     0.748     0.647   0.2659        119     41.62955
 4.99    489.4695  21.1639      568.127    839.3799 -85.63     2.556     0.978   0.1474        120     77.11064
 5.00    497.6219  19.5653     2476.652     82.7204 -14.39     2.586     2.443   0.0534        121     121.8614
 4.48    497.1443  19.6783     2231.966   1186.5587 -19.24     2.871     2.197   0.0529        122     108.7766
 5.27    477.6234  22.8654     118.5305   1167.6362 -32.52     1.409     0.553   0.4130        123     45.07568
 3.50    485.5691  20.3177     1238.603   1070.7618 -13.29     1.529     1.376   0.0434        124     49.49881
 3.50    480.5318  22.1115     237.3666    682.5682 -19.27     0.922     0.768   0.1347        125     29.43654
 4.19    532.4379  17.5907     15266.26    518.7012  17.05     4.773     2.905   0.0086        126     121.1149
 5.92    483.2268  22.6663     142.3956   1309.2524  17.63     0.842     0.349   0.2321        127     30.43467
 7.04    490.9982  22.5795     154.2377    424.4974  57.39     0.783     0.319   0.2373        128     33.69609
 4.88    505.6880  20.4062      1141.62    762.6530  29.68     1.866     1.696   0.0804        129     84.50584
 6.07    499.2487  21.7533     330.1404    366.5008  48.61     1.260     0.822   0.1970        130     59.87953
 3.50    503.6251  21.0396     637.0449    863.6788  17.99     1.349     1.193   0.0722        131     42.34122
 4.09    516.8408  19.3116     3128.627   1461.1042  25.64     3.620     1.834   0.0355        132     102.4098
 6.42    511.4173  20.7695     816.9713    164.7969  15.76     2.143     1.304   0.1390        133     104.5751
 3.50    504.0078  23.1401     92.03894    442.7247 -86.66     0.742     0.697   0.2811        134     23.82674
 3.88    515.1553  21.0082     655.7452   1179.1432 -11.58     1.351     1.290   0.0825        135     49.79971
 3.70    520.8367  21.4656      430.275    642.2778   1.63     1.390     1.164   0.1154        136     45.73375
 7.78    522.2990  22.6151       149.27    854.1040 -68.91     0.955     0.691   0.4428        137     60.86934
 6.15    519.8758  22.3496     190.6113   1519.3197  20.54     0.920     0.674   0.2697        138     47.33893
 3.50    541.7062  19.9437     1747.843    999.6561 -28.16     1.600     1.510   0.0322        139      51.8572
 5.95    537.3939  22.0503     251.1106    404.2004  25.92     1.629     0.795   0.2847        140     65.82211
 3.50    560.4191  19.6117     2373.107   1041.6516  18.47     1.867     1.613   0.0271        141      59.1263
 4.94    572.7739  20.0945     1521.267     45.8521  54.85     2.131     1.762   0.0666        142     93.24687
 3.50    573.2246  20.0207     1628.235   1448.4399  29.55     2.441     1.841   0.0481        143     72.10451
 3.56    583.6990  18.0855     9678.325    319.1047  10.28     2.100     2.028   0.0080        144     70.85042
 3.50    582.1724  18.0950      9593.59    144.8971   4.15     2.088     1.978   0.0079        145     69.57373
 6.41    557.7811  22.4053     181.0851    778.6027  72.66     0.764     0.454   0.2150        146     35.84446
 4.04    598.1440  18.4977     6620.906    782.6210 -52.42     3.563     3.261   0.0219        147     133.2236
 5.76    566.2109  21.6203     373.1305    139.6721 -56.27     1.261     1.043   0.1862        148     63.98056
 6.78    568.5834  23.0672     98.43176    633.2251 -19.07     0.738     0.455   0.4135        149     37.47458
 6.26    578.0512  20.8528     756.6143   1001.7804 -28.13     1.682     0.817   0.1014        150     70.63924
 5.30    586.1544  20.9278     706.1223     75.9674  -8.76     1.328     1.229   0.1009        151     65.59474
 3.95   1002.9375  19.4214     2827.745    542.3767  41.74     1.957     1.741   0.0270        152     70.42743
 4.10   1598.2117  20.7808     808.5332    654.3484  -3.12     1.918     1.218   0.0723        153     53.83611
 3.70   1595.8204  21.1328     584.6409    373.5580  36.47     1.480     1.018   0.0837        154     45.07568
 6.34   1594.4935  21.3844     463.7205   1384.2332 -29.70     1.436     0.913   0.1634        155     69.78813
 4.80   1586.2162  20.3051     1253.039   1108.5291  10.82     1.709     1.419   0.0629        156     72.51772
 4.54   1567.9301  19.8291     1942.582     21.5654   3.80     1.823     1.751   0.0436        157     78.07336
 5.33   1567.0110  20.0123     1640.848    784.3434 -85.86     2.030     1.671   0.0629        158     94.99292
 5.50   1529.7546  22.2266     213.4799    733.4183 -70.72     0.745     0.453   0.1597        159     31.40109
 6.53   1516.6896  21.1398     580.8668   1546.3409 -54.01     1.328     1.063   0.1401        160     74.94915
 3.50   1508.4398  16.7606     32790.63    269.0288   0.55     2.425     2.347   0.0027        161     81.81102
 3.50    878.8604  21.1086     597.8303    960.9188 -38.71     1.204     1.126   0.0723        162     39.79474
 6.82    880.5679  22.0878     242.5931    670.7686  20.31     0.733     0.453   0.1678        163     37.47458
 8.15    878.4954  21.8316     307.1465    542.0081   1.12     0.795     0.500   0.1792        164     50.69172
 3.76    870.8542  19.4002     2883.432   1103.3297 -62.93     2.030     2.002   0.0276        165     73.33715
 4.19    868.9675  20.4936     1053.351    939.8438  48.58     1.862     1.435   0.0688        166     66.72382
 6.09    870.7626  22.0544     250.1738    643.2283 -45.21     0.935     0.438   0.1644        167     37.87114
 7.86    868.9410  23.1898     87.91833    454.3015  62.52     0.908     0.211   0.4217        168     34.13659
 3.50    861.9903  22.8530     119.8917   1554.1732 -54.13     0.917     0.472   0.2101        169     23.19124
 5.46    859.8583  21.2981     502.0588   1339.5820 -39.58     1.325     0.950   0.0800        170     36.96435
 8.49    857.5150  21.8607     299.0245    545.0230  31.94     0.801     0.312   0.1432        171     39.41753
 8.31    850.6460  22.5834     153.6934    363.3300  45.93     0.585     0.329   0.2503        172     35.42521
 3.50    845.9612  21.1001     602.5249   1063.7421 -67.28     1.311     1.128   0.0763        173     42.34122
 3.50    844.6611  20.3098     1247.607   1106.0945  26.42     1.757     1.491   0.0473        174     54.38829
 4.44    837.9795  20.3573      1194.23    298.8437  12.85     1.630     1.534   0.0615        175     67.61351
 6.13    838.5260  22.0108     260.4154   1520.5083  45.37     1.021     0.596   0.1961        176     47.02227
 5.37    836.8230  21.5318     404.8268    818.9592  62.38     0.944     0.770   0.1200        177     44.74301
 3.62    824.2859  18.4815     6720.492    654.3231  45.13     2.096     1.990   0.0116        178     71.68891
 6.99    820.6904  22.6941     138.7885    779.6790 -44.39     0.561     0.341   0.2263        179     28.92456
 7.22    817.8287  22.0747     245.5398    878.2869 -18.00     1.042     0.570   0.2381        180     53.83611
 3.50    804.4239  18.5582     6262.171   1378.5775  24.08     1.936     1.900   0.0114        181     65.82211
 0.00    809.3416  99.0000    -25.28259    127.3259 -45.67     0.578     0.333  99.0000        182     18.93557
 3.50    799.8787  17.4163     17926.02    695.5512  86.21     2.757     2.179   0.0050        183     83.25911
 3.58    802.0164  19.4516     2750.175     41.0132  17.44     1.831     1.771   0.0251        184     63.51184
 7.78    796.0267  23.2409      83.8739    295.5872 -68.21     1.214     0.528   0.7753        185     59.87953
 3.87    775.1727  19.3911      2907.86   1427.3771 -86.22     2.914     2.025   0.0342        186      91.4675
 6.20    768.8491  21.6555     361.2397    140.4927 -79.69     1.337     0.879   0.1944        187     64.67728
 7.79    755.8050  22.1165     236.2577    193.6100  79.93     1.782     0.711   0.3909        188     85.03456
 7.71    756.4966  22.1828     222.2734   1342.5267  47.36     0.504     0.495   0.1907        189     39.03668
 4.11    744.2446  20.1163     1491.028    556.2840 -43.37     1.635     1.517   0.0459        190     63.03962
 3.66    739.4138  21.0769     615.5397   1157.9685  25.22     1.297     1.181   0.0759        191     43.04113
 5.24    737.5421  20.6919     877.4579    649.6644  80.76     1.432     1.312   0.0858        192     69.35867
 3.50    727.9818  15.9436     69593.69    848.3533  27.94     2.439     2.389   0.0013        193     82.35703
 3.56    728.8088  20.4347      1112.04   1178.1919  49.30     1.448     1.410   0.0480        194     49.19606
 5.63    722.7590  21.2117     543.6484   1395.0338  -6.53     1.256     0.933   0.1181        195      59.1263
 4.08    717.3167  20.2098     1367.977    808.4107  61.40     1.710     1.557   0.0512        196     64.44588
 3.78    710.4251  20.1711     1417.626   1163.6281   5.38     1.532     1.420   0.0408        197     53.27821
 3.78    706.0970  20.2551     1312.125   1339.0608  -8.24     1.875     1.504   0.0464        198     56.03527
 3.50    704.2918  19.4988     2633.139    952.3771  34.75     1.750     1.664   0.0240        199     58.10681
 5.81    700.5426  21.2320     533.5878    582.6079 -11.30     1.762     1.130   0.1620        200     79.58949
 4.79    692.9648  21.0983     603.5146   1213.7378  25.14     1.489     1.239   0.0887        201     49.28877
 5.19    688.7861  21.3883     462.0477   1213.9966  36.08     1.381     1.095   0.1024        202     43.56133
 6.63    693.1641  22.2922     200.9695    316.0519  11.70     0.956     0.699   0.1740        203     32.20533
 3.86    686.8881  19.7819     2028.752    644.1539  11.80     1.785     1.628   0.0344        204     64.21365
 4.72    688.8412  22.5274     161.8213    130.9188  89.98     0.907     0.746   0.2542        205     37.87114
 7.17    674.4924  22.4917     167.2302    230.4652 -55.24     0.501     0.498   0.2355        206     36.25886
 4.37    656.2733  21.1845     557.4354    870.9708 -80.68     1.445     1.068   0.1016        207      52.1445
 3.50    649.7219  15.9742     67660.74   1464.2932   7.81     2.369     2.331   0.0013        208     79.40156
 7.72    647.1572  21.6978     347.4335    653.2191 -18.86     0.953     0.671   0.1872        209     59.87953
 4.84    631.8602  20.7658     819.7175    806.0596  -7.26     1.448     1.352   0.0869        210     65.59474
 4.45    624.8701  20.2786     1284.041   1581.7686  -0.44     1.487     1.293   0.0502        211     59.37844
 6.88    619.7174  21.4740     426.9614   1151.3589  34.33     1.228     0.597   0.1458        212     57.33029
 7.52    610.6086  21.9680     270.9065    946.1575 -18.98     0.761     0.445   0.1711        213     42.69261
 3.70   1543.1177  19.1341     3684.387    134.8626  13.62     1.861     1.807   0.0193        214     65.59474
 5.31    593.5084  22.5256     162.0948    882.5082  70.91     0.982     0.405   0.2258        215     33.69609
 5.07   1562.5160  20.6060     949.7617    861.0878 -75.69     1.564     1.347   0.0815        216      71.2709
 3.50   1564.8943  16.0911     60750.52    303.8436  -8.00     2.493     2.394   0.0015        217     82.89946
 3.74   1553.8457  17.0460     25212.52    681.9242 -32.53     4.766     4.085   0.0069        218      159.554
 4.26   1571.7207  19.9835         1685     92.3905  85.35     1.728     1.660   0.0453        219     70.21497
 7.15   1564.3650  22.8374     121.6305   1565.6927  47.41     0.579     0.331   0.2628        220     29.43654
 4.36   1546.9213  20.7842     806.0026    863.0593  41.04     2.299     1.275   0.0972        221     72.10451
 7.63   1576.4641  22.4216     178.3811   1491.3174  89.38     1.251     0.465   0.3394        222     55.74481
 3.50   1559.3071  16.0975     60397.61    487.3318  -7.88     2.552     2.462   0.0015        223     84.85869
 6.09   1552.6818  21.7191     340.6942   1221.4905 -81.11     1.347     1.127   0.2318        224     72.72344
 4.39   1543.8602  19.5566     2496.764    654.2137  83.24     1.807     1.722   0.0326        225     74.94915
 7.54   1536.9376  21.6299      369.859   1429.6595 -25.77     1.278     0.620   0.1885        226     64.21365
 5.26   1491.4724  24.1469     36.41187   1494.5192 -44.31     0.508     0.491   0.7987        227     26.77894
 7.04   1534.2606  21.2005     549.2808    414.5703  -1.92     1.290     0.650   0.1237        228     62.56385
 6.03   1521.3392  22.3659     187.7748   1100.1757 -40.25     1.603     0.651   0.3463        229     59.87953
 7.47   1524.0001  24.4585     27.32678     12.4902 -58.10     0.803     0.311   1.4410        230     36.25886
 7.92   1505.0269  23.5487     63.16931   1096.0140 -88.76     0.627     0.613   0.7806        231      45.4059
 3.50   1516.1572  18.2628     8220.143    392.2966   2.53     2.134     1.955   0.0091        232     68.92652
 4.57   1515.6066  21.3401     483.0189    483.5974 -43.91     1.128     0.919   0.1028        233     45.73375
 4.04   1505.4595  20.6372     922.8264    723.2294 -27.09     1.566     1.307   0.0646        234     54.93492
 5.59   1499.6895  21.9328     279.8208    844.0128   4.94     0.731     0.666   0.1470        235     37.87114
 3.71    887.1884  20.6558     907.1399   1499.8871 -10.50     1.355     1.271   0.0559        236     46.70348
 7.15    886.6302  21.4869     421.9398    339.9196   1.88     1.415     0.774   0.1861        237     72.31141
 5.64    898.9808  22.8905     115.8239    987.0000  90.00     0.857     0.289   0.2458        238     26.21511
 5.26    897.4250  20.0226     1625.381    538.4157  29.99     1.893     1.749   0.0618        239     92.44231
 7.61    890.4911  22.1110     237.4547    680.9788  32.19     0.795     0.314   0.1732        240     37.87114
 3.52    901.8569  18.4869     6687.107    302.6142 -40.12     2.039     1.990   0.0109        241     66.88357
 6.65    890.1083  20.9787     673.7947    326.2471  22.80     2.090     1.302   0.1715        242     106.4161
 8.32   1482.7103  20.9616     684.4681    575.0491 -58.96     1.286     0.867   0.1363        243     85.90852
 5.89   1489.2261  22.0108     260.4207     77.9050 -85.23     1.275     0.721   0.2302        244      55.2062
 4.61    913.9817  20.5158      1032.04    838.4760  19.87     1.454     1.365   0.0666        245     63.27617
 5.31    913.9099  21.3461     480.3352   1001.2720 -17.83     1.204     1.096   0.1337        246      59.1263
 3.50    881.6281  15.3879     116102.7   1592.4189  77.84     2.525     2.456   0.0008        247     84.68245
 5.33    895.1293  21.4020     456.2623   1425.6117  22.24     1.332     0.901   0.1346        248     56.54311
 7.51   1438.3938  23.8676     47.09302   1495.2007  19.65     0.765     0.441   0.9845        249     42.69261
 6.70    940.1116  21.0540     628.6561    516.0169  52.85     1.572     1.142   0.1499        250     86.77369
 3.50    923.3138  22.7141     136.2628    806.9643  65.58     1.705     1.570   0.4464        251     56.01217
 3.50   1409.5125  19.5365     2543.295    308.0300  26.47     1.859     1.658   0.0255        252     59.62951
 7.50   1476.4878  21.6611     359.3899    999.4863   0.19     1.041     0.500   0.1618        253     53.55788
 5.00    966.7556  21.7532     330.1488    416.5706 -75.97     1.190     0.957   0.1715        254      52.1445
 3.75    929.8041  20.4269     1120.097   1322.3405  46.82     1.571     1.384   0.0517        255     53.27821
 7.31    948.8851  22.3661     187.7471    444.5893  49.04     1.336     1.036   0.4774        256     82.53824
 6.94   1439.7006  22.2729     204.5608    647.3334  43.21     0.562     0.341   0.1508        257     28.40336
 5.30   1438.3149  22.4973     166.3671   1346.6786  44.67     0.564     0.340   0.1514        258     23.19124
 6.83    951.8928  20.5928     961.3391    654.4578 -83.83     1.279     1.030   0.0856        259     75.74229
 4.16    940.5596  19.8130     1971.541   1067.0040  57.78     1.746     1.480   0.0364        260     66.04869
 4.09   1441.0920  19.5416     2531.386    618.8486 -20.90     1.823     1.680   0.0298        261     69.57373
 3.50   1436.7382  15.7221     85341.67   1089.2109  43.69     2.526     1.821   0.0012        262     93.22005
 3.50   1411.7726  21.0812     613.0625    349.3116  62.13     1.880     1.195   0.0903        263     50.98558
 5.92   1439.8511  21.8176     311.1539   1270.9764 -20.06     1.330     0.943   0.2241        264     64.21365
 7.54   1089.9775  22.2572     207.5466    396.6888  78.15     0.741     0.678   0.2728        265      52.1445
 6.17    979.4700  21.7004     346.5934    452.2737  72.96     1.245     0.901   0.1182        266     37.71478
 3.73   1436.6449  19.1511     3627.065    224.4045  25.06     1.856     1.774   0.0196        267     65.36658
 3.50   1083.0808  18.0668     9846.718   1148.0122   4.62     2.075     1.992   0.0075        268     68.27317
 5.26   1401.7551  20.4355     1111.236   1031.5714 -10.37     1.665     1.429   0.0769        269     78.64533
 5.07   1067.0283  21.5055     414.7512   1596.9507 -16.17     0.796     0.782   0.0981        270     37.47458
 4.66   1416.6246  20.0029     1655.183   1386.4370 -19.31     1.742     1.548   0.0488        271     74.34875
 7.31   1434.0306  21.3624     473.2021    340.5226  88.05     0.823     0.499   0.1050        272     45.73375
 6.25   1413.2245  21.9453     276.6298      1.4409  87.35     1.953     0.489   0.1931        273     49.19606
 7.84   1087.7867  20.6151     941.7888    639.7502 -48.22     1.627     0.425   0.0627        274     54.39724
 3.50   1081.2955  16.7282     33784.99    512.0266   1.75     2.424     2.363   0.0026        275     81.44497
 6.20   1087.1072  21.6915     349.4551   1452.9968 -58.43     1.198     0.771   0.1790        276     57.59029
 6.44   1404.9912  22.2089     216.9891   1362.1821 -52.53     0.940     0.467   0.2137        277     42.69261
 3.50   1390.1338  18.3826     7361.101   1428.3429  24.43     2.015     1.981   0.0100        278     68.05399
 5.60   1407.5088  21.1312      585.476    329.5723  42.39     1.107     0.930   0.1029        279     55.47616
 3.50   1394.7197  15.7604     82379.78    114.2365  -2.25     2.612     2.495   0.0011        280     86.77369
 6.59   1353.0374  20.7984     795.5126    152.1204 -59.00     1.536     1.084   0.1132        281     82.89946
 5.68   1130.1277  21.0919     607.0717    547.3596 -12.52     1.402     1.218   0.1294        282     72.31141
 3.60   1108.7540  18.4351     7013.915    427.8485 -17.02     2.143     1.992   0.0111        283     71.68891
 4.43   1393.6559  19.8708     1869.369   1038.5725  30.72     1.746     1.516   0.0405        284     69.78813
 6.07   1390.4139  21.1467     577.2129    806.3391  14.97     1.517     0.893   0.1301        285     69.14293
 3.94   1391.7336  19.4468     2762.277    713.0140 -18.73     1.876     1.718   0.0269        286     68.49165
 3.50   1095.9811  16.8179     31106.43    778.1253  40.92     2.339     2.123   0.0029        287     82.54669
 3.56   1279.3623  18.9481     4372.881   1331.1583  75.39     1.973     1.870   0.0164        288     66.04869
 8.30   1094.3149  22.1228      234.891    429.3361 -44.00     0.570     0.337   0.1638        289     35.42521
 3.52   1274.1741  17.7289      13440.8    609.6711 -59.24     4.450     2.803   0.0097        290     120.5052
 3.50   1321.3029  16.8145      31203.8    659.7650  30.09     2.403     2.317   0.0031        291     90.32944
 3.50   1211.9462  17.5935     15226.91   1278.7762  81.35     5.912     3.550   0.0111        292     155.4755
 6.39   1386.5453  22.6210     148.4504   1274.2920 -88.27     0.941     0.454   0.2339        293     31.97227
 3.57   1373.8639  18.1317     9275.097   1018.7498 -12.52     2.298     2.062   0.0089        294     75.74229
 3.50   1220.2120  18.0563     9941.745   1194.6749  79.24     2.221     2.136   0.0080        295     73.54058
 3.50   1333.7377  20.5983     956.5167    107.1235 -13.21     1.515     1.391   0.0565        296     49.79971
 4.11   1331.4196  21.3050     498.8739    386.3806  44.83     1.014     0.857   0.0816        297     37.47458
 6.03   1347.4882  21.7856     320.4395    604.6951 -37.74     1.121     0.830   0.1916        298     56.54311
 3.70   1331.1071  19.1374     3673.037    655.6794  30.01     2.005     1.880   0.0179        299     60.54319
 3.91   1308.8210  19.3532     3011.165    669.3890 -39.46     2.205     1.678   0.0226        300     62.66767
 3.50   1320.5798  21.0128     652.9607    263.9218  87.87     1.356     1.157   0.0698        301      41.9869
 3.50   1292.6479  18.4111     7170.392    762.0434 -19.19     2.457     2.002   0.0114        302     75.54478
 4.62   1306.1183  20.6765     890.0437    892.7058  10.67     1.547     1.115   0.0728        303     59.62951
 5.78   1229.8682  21.2450     527.2209   1153.2817  39.15     1.141     0.988   0.1228        304     59.62951
 3.50   1299.5809  14.8303       194036    724.7350 -13.82     2.986     2.612   0.0005        305     95.15007
 8.41   1300.4139  21.8793     293.9579     53.7503 -19.42     0.759     0.449   0.1749        306     47.33893
 7.12   1263.6656  22.3210     195.7125    855.2507  59.95     1.107     0.924   0.3825        307     68.92652
 7.20   1292.7781  22.1267     234.0573    545.4184 -70.33     0.753     0.449   0.1829        308     39.41753
 4.29   1293.8401  20.7375     841.4324    412.4756  -9.04     1.530     1.267   0.0747        309     57.84912
 3.83   1266.6023  19.2987     3165.934    807.7180  21.32     1.922     1.788   0.0234        310     68.27317
 4.85   1201.8480  20.3257     1229.529   1441.9393  52.88     1.812     1.625   0.0718        311     81.26133
 8.04   1262.5000  22.4541     173.1213    216.5174  45.65     0.507     0.493   0.2473        312     39.41753
 6.54   1275.1787  21.7717     324.5643    697.8320 -44.81     0.757     0.569   0.1429        313     42.69261
 6.30   1239.4313  22.2851     202.2885    857.8013 -19.51     0.723     0.459   0.1902        314     35.42521
 6.43   1239.1719  21.4573     433.5973     47.7610 -21.29     0.957     0.857   0.1410        315     56.27827
 4.07   1260.6809  20.1527     1441.882    432.3235  39.19     2.006     1.652   0.0540        316     71.68891
 3.92   1235.6237  19.3703     2964.088    304.5523  17.18     1.862     1.665   0.0243        317      66.2745
 6.02   1231.2905  20.5921     962.0033    599.4324   2.38     1.529     1.374   0.0950        318     84.15152
 5.46   1131.3656  20.8152     783.2924    219.2833   5.73     1.407     1.133   0.0919        319      66.2745
 4.41   1238.3259  20.0079     1647.531   1553.3666 -27.74     1.624     1.543   0.0449        320     68.05399
 6.76   1205.4940  22.4470     174.2614   1216.5016 -44.36     0.501     0.499   0.1927        321     30.92166
 5.50   1213.8219  19.7165     2154.675   1429.0648  62.25     2.314     1.913   0.0563        322     111.7573
 3.50   1215.8936  17.6096     15002.16    512.8163  15.77     2.201     2.128   0.0053        323     73.74345
 4.51   1152.6636  20.2819     1280.081     99.1995   1.42     1.734     1.670   0.0631        324     74.34875
 3.50   1203.1788  20.0336      1609.06    338.7114 -30.18     1.595     1.555   0.0361        325     53.55788
 4.68   1209.0653  20.2115     1365.859    838.6197 -85.46     1.629     1.532   0.0572        326     71.89701
 4.65   1196.0720  19.8386     1925.515    124.1343 -62.98     2.122     1.792   0.0494        327     87.63031
 5.11   1183.4504  21.5139     411.5486    176.4444  43.16     1.018     0.596   0.1010        328      38.2636
 4.83   1154.7657  20.4194      1127.81   1352.9104 -16.12     1.614     1.496   0.0700        329     72.72344
 4.15   1182.1749  21.5506     397.8795    549.4448  52.55     1.339     1.137   0.1359        330     49.79971
 3.50   1139.7526  16.7893     31934.71    147.8719   8.47     2.418     2.290   0.0027        331     80.33682
 3.50   1131.2678  17.4922     16716.13    183.3222 -32.95     2.262     2.226   0.0050        332     76.72218
 3.50   1166.4521  16.2724     51409.86   1299.5201 -18.21     2.442     2.420   0.0017        333     81.81102
 6.03   1177.4873  23.2246     85.14124     18.4826 -45.28     0.507     0.492   0.3944        334     30.92166
 5.64   1162.4760  21.1576      571.411    887.9290  -3.08     1.214     0.999   0.1147        335     60.37647
 3.67   1159.0970  18.6070     5986.673    236.1458  28.14     2.115     1.861   0.0127        336     70.21497
 7.09   1168.7396  22.2288      213.056   1599.5944  70.66     0.747     0.449   0.1625        337     31.87332
 7.44   1159.0020  22.1336     232.5775    566.4996 -87.38     0.808     0.499   0.2135        338     45.73375
 7.78   1067.8488  21.9578     273.4434    569.1644 -43.13     0.772     0.568   0.2013        339     50.69172
 7.25   1132.3717  21.6261     371.1432    357.5125 -36.20     1.445     0.399   0.1559        340     53.27821
 4.51   1121.3683  19.4265     2814.435    329.5204  59.09     2.915     1.938   0.0401        341     103.8583
 6.88   1112.3186  20.1137     1494.517    478.9656  26.14     2.244     1.894   0.0996        342     137.0923
 4.88   1096.9320  20.5581     992.5483   1526.4592  39.67     1.378     1.340   0.0705        343     64.44588
 5.70   1091.7946  21.0535     628.9507    468.3736 -46.23     2.025     1.407   0.1616        344     93.56676
 4.76   1080.5232  21.4197     448.8871    329.8643 -14.82     1.275     0.874   0.1175        345      48.5849
 3.62   1096.0430  21.8034     315.2355   1136.1641  -2.82     0.929     0.750   0.1014        346     29.43654
 3.62   1039.9791  18.2314     8461.576    525.2814  39.16     2.099     2.006   0.0092        347     71.89701
 4.48   1073.2251  19.7678     2055.322   1218.8110 -45.87     2.074     1.941   0.0463        348     87.63031
 6.06   1066.8558  20.2018      1378.05   1563.1591  75.22     1.791     1.399   0.0732        349     92.92589
 8.91   1022.3207  22.2377      211.309   1268.9786  27.92     0.914     0.210   0.1946        350     37.87114
 3.50   1011.1424  17.4553     17293.94    813.5724  16.49     2.242     2.159   0.0047        351     75.54478
 3.50   1041.5156  16.4552     43442.03    632.9080  15.36     2.404     2.380   0.0020        352     81.26133
 4.50    982.2241  20.4853     1061.358    798.0075   3.67     1.606     1.483   0.0687        353     67.17014
 7.17   1041.9910  22.3960     182.6348    467.0000  90.00     0.854     0.289   0.2081        354     35.00094
 6.13    987.8519  20.1644     1426.372    454.2320  47.59     1.987     1.789   0.0854        355     112.1576
 4.40   1031.5873  20.0981     1516.201    302.4051  70.40     2.789     1.769   0.0678        356     94.67786
 3.50   1027.0433  17.3084     19799.38   1379.8351  39.67     2.265     2.217   0.0042        357     75.74229
 6.70   1015.7997  22.3800     185.3466    452.9904 -57.19     0.813     0.506   0.2460        358      41.9869
 7.16    999.1955  22.4986     166.1779    232.9355 -30.82     1.047     0.668   0.3764        359     57.59029
 3.50    986.2090  16.8633     29832.38    558.3832  37.50     2.341     2.296   0.0029        360     78.45514
 4.10   1012.5897  19.6377     2316.935    344.5637  27.05     1.809     1.763   0.0330        361     70.42743
 6.84   1011.5046  22.4631      171.698    266.9890 -31.78     0.807     0.310   0.1956        362     30.92166
 4.05   1001.1897  20.6744     891.7721   1273.6108  -3.61     1.429     1.188   0.0624        363     51.27777
 3.64   1002.5687  20.2583     1308.255   1555.2332  79.83     1.624     1.448   0.0451        364     54.38829
