#   1 KRON_RADIUS            Kron apertures in units of A or B                         
#   2 MAGERR_APER            RMS error vector for fixed aperture mag.                   [mag]
#   3 Y_IMAGE                Object position along y                                    [pixel]
#   4 X_IMAGE                Object position along x                                    [pixel]
#   5 THETA_IMAGE            Position angle (CCW/x)                                     [deg]
#   6 FLUX_APER              Flux vector within fixed circular aperture(s)              [count]
#   7 A_IMAGE                Profile RMS along major axis                               [pixel]
#   8 B_IMAGE                Profile RMS along minor axis                               [pixel]
#   9 FLUXERR_APER           RMS error vector for aperture flux(es)                     [count]
#  10 MAG_APER               Fixed aperture magnitude vector                            [mag]
#  11 NUMBER                 Running object number                                     
 4.78   0.0065     53.0699     63.6729   5.60     37860.15     4.018     3.653     227.2549  16.6045          1
 4.70   0.0444     16.6790    984.9742 -88.37     5563.818     2.949     1.612     227.2549  18.6866          2
 4.64   0.0496     17.7365     91.2467  29.82     4977.669     1.585     1.564     227.2641  18.8074          3
 3.82   0.0243     14.6941   1445.5282 -33.47      10149.9     1.864     1.823     227.2919  18.0338          4
 6.96   0.1745     24.8550    367.3481  76.17     1414.776     1.077     0.413     227.2641  20.1733          5
 3.50   0.0051     59.7846   1078.2339  63.30     48370.41     2.318     2.255     227.3753  16.3386          6
 3.50   0.0052     80.1137    537.5026  22.50     47225.96     2.274     2.216     227.2549  16.3645          7
 5.72   0.1130     74.9609    127.8366  40.18     2183.663     1.269     1.228     227.3105  19.7020          8
 3.50   0.0035    121.7266    788.9883 -20.09     69660.29     2.362     2.343     227.3012  15.9425          9
 5.20   0.0771     96.3947     55.8314 -19.64     3204.309     1.351     1.259     227.3475  19.2857         10
 3.50   0.0063    162.3537   1468.0764 -48.36     39122.59     2.240     2.184     227.2456  16.5689         11
 3.52   0.0270    170.2823    877.1949 -21.19     9152.524     1.990     1.866     227.2549  18.1461         12
 6.63   0.1881    192.3161   1350.3054 -43.42     1312.301     0.961     0.761     227.2734  20.2549         13
 6.93   0.0536    210.5079    826.8788  -8.99     4608.914     2.129     1.474     227.2734  18.8910         14
 5.80   0.1175    206.2401    548.8522 -12.15     2100.325     1.228     1.170     227.3197  19.7443         15
 5.43   0.1450    212.1731   1305.9990  33.24     1702.908     1.289     1.084     227.2919  19.9720         16
 4.31   0.1207    223.6748   1225.5410  21.48     2045.845     1.362     1.284     227.3012  19.7728         17
 3.50   0.0023    259.5799    997.2325 -12.05     106182.1     2.518     2.449     227.3568  15.4849         18
 7.55   0.2616    222.3089    774.6771  44.26     943.5124     0.562     0.341     227.2827  20.6131         19
 7.86   0.0564    229.2374    561.4114  -5.38     4375.913     1.961     1.282     227.3753  18.9473         20
 3.50   0.0028    265.5658     67.4446   6.06     88766.34     2.440     2.402      227.329  15.6794         21
 7.61   0.1092    243.6204    112.7715  16.62     2260.987     0.964     0.645     227.3938  19.6643         22
 5.03   0.0594    255.0403    612.7062 -17.94     4157.334     2.020     1.618     227.2271  19.0030         23
 3.64   0.0116    287.4840   1486.1232 -68.22     21339.92     2.057     2.044     227.2734  17.2270         24
 4.47   0.0561    281.9365   1522.0270  12.36      4399.96     1.606     1.534     227.3105  18.9414         25
 3.71   0.0161    302.8096    201.5882 -10.72     15377.58     2.034     1.978      227.366  17.5828         26
 3.50   0.0247    321.7043    697.1205  -1.30     10001.93     1.978     1.790     227.2919  18.0498         27
 6.62   0.1074    327.1210    595.3193  77.23     2298.351     1.189     1.017     227.3012  19.6465         28
 7.82   0.2091    349.7188     54.6317 -19.52     1180.202     0.987     0.596     227.2364  20.3701         29
 3.87   0.0222    367.8108    760.9422 -23.13     11116.15     1.947     1.892      227.366  17.9351         30
 4.92   0.1427    360.8477   1500.0731  49.68     1729.032     1.286     1.166     227.2641  19.9555         31
 3.50   0.0048    394.8365    231.2965  41.77     51899.11     2.342     2.276       227.19  16.2621         32
 3.79   0.0357    396.8710   1460.8988  19.06     6903.722     1.856     1.733     227.2549  18.4523         33
 3.53   0.0286    397.8305    354.3654  44.79     8621.398     1.880     1.748     227.3753  18.2111         34
 5.31   0.1571    393.6917   1088.5494  89.56     1571.219     1.201     1.013     227.2919  20.0594         35
 3.55   0.0149    437.5111    251.9211  10.63     16600.32     2.046     2.000     227.3012  17.4997         36
 7.41   0.1767    420.7387    160.2448 -19.03     1396.706     0.875     0.354     227.2734  20.1872         37
 3.50   0.0017    460.6596    807.4059  -9.18     145712.7     2.536     2.442      227.329  15.1413         38
 5.14   0.1742    432.4911   1422.0449  46.46     1416.884     1.374     1.035     227.2827  20.1717         39
 4.26   0.0415    449.7294     21.2904 -30.48      5943.87     1.732     1.698     227.3012  18.6148         40
 7.70   0.4501    440.0000    306.0034   0.00     548.6919     0.851     0.289     227.3938  21.2017         41
 6.46   0.2077    444.0940    122.7514 -35.96     1188.555     1.097     0.521     227.2827  20.3625         42
 4.29   0.0358    457.3223     34.5136  41.73     6885.541     1.728     1.708     227.2919  18.4552         43
 6.42   0.0414    467.3464    850.1620  24.15     5963.182     4.168     1.533     227.3012  18.6113         44
 5.89   0.1298    463.3722    468.1685  79.67     1902.916     1.359     1.209     227.4215  19.8514         45
 4.92   0.1117    471.6060    735.0527 -58.35     2210.133     1.407     1.301      227.329  19.6890         46
 5.10   0.1246    470.9091    254.1991  49.03     1980.697     1.311     1.018     227.2271  19.8080         47
 5.03   0.0907    477.5140    922.9158  -6.96     2720.339     1.587     1.405     227.2734  19.4634         48
 6.20   0.2528    477.5089   1276.5143 -73.41      976.381     1.022     0.733     227.2549  20.5760         49
 6.26   0.2401    483.7009   1070.2642  14.35     1027.877     1.125     0.991     227.2641  20.5201         50
 7.66   0.0931    495.1989     82.1738  72.36     2652.231     1.283     0.950     227.3105  19.4910         51
 8.53   0.1142    494.4341   1189.1519  78.86     2161.666     0.889     0.613     227.3105  19.7130         52
 6.31   0.3988    501.2008    863.6279 -73.08     619.0013     0.728     0.454     227.2919  21.0708         53
 5.17   0.0161    530.9677    518.7624  20.70     15289.39     3.402     1.962     227.3568  17.5890         54
 6.81   0.0791    514.9670   1460.7094  27.91     3118.332     2.253     1.208     227.2178  19.3152         55
 9.16   0.3122    513.5115   1178.5464 -51.68     790.6141     0.503     0.494     227.2641  20.8051         56
 4.60   0.1682    539.8800    999.7950  62.93     1467.706     1.209     1.168     227.2641  20.1334         57
 5.32   0.1143    558.6191   1041.6227 -49.67     2160.111     1.472     1.300      227.366  19.7138         58
 3.93   0.0243    580.0731    144.9285  70.03     10166.75     1.889     1.824     227.2364  18.0320         59
 4.08   0.0246    581.5791    319.2335  61.17     10036.58     1.924     1.874      227.366  18.0460         60
 6.84   0.1300    570.7509     45.9504  48.62     1898.088     1.416     1.002     227.2827  19.8542         61
 9.08   0.1806    570.5883   1447.2086 -20.05     1367.336     0.773     0.441     227.3753  20.2103         62
 6.18   0.0433    596.4893    782.4855  81.08     5701.601     2.181     1.972     227.2827  18.6600         63
 6.54   0.3310   1001.1887   1555.3247  19.94     745.7552     1.009     0.856     227.2641  20.8685         64
 3.50   0.0041   1557.4813    487.5983  82.38     59887.38     2.327     2.312     227.2734  16.1067         65
 6.03   0.2293   1560.4124    861.2794 -68.61     1076.396     0.956     0.600     227.2456  20.4701         66
 4.66   0.1075   1542.0265    654.5806 -83.09     2298.008     1.466     1.245     227.3753  19.6466         67
 3.51   0.0073   1079.4902    512.2261  52.36     34035.62     2.272     2.250     227.2178  16.7202         68
 4.37   0.0284   1038.2451    525.3906  64.14     8679.463     1.940     1.862     227.3475  18.2038         69
 7.64   0.8342    999.8316   1273.8098  44.65     295.9756     0.774     0.572     227.3475  21.8719         70
 3.58   0.0082    984.3803    558.4131  38.19     30107.88     2.240     2.206      227.366  16.8533         71
 8.40   0.1253    986.5677    453.8015  -8.78     1970.838     1.032     0.475      227.329  19.8134         72
 5.08   0.1507    938.8494   1066.8739 -33.36     1637.592     1.335     1.210     227.2641  20.0145         73
 8.08   0.4245    928.0016   1322.3192 -89.59     581.4064     0.751     0.672     227.2734  21.1388         74
 7.49   0.4476    912.4890    838.6716 -89.47     551.4451     0.940     0.470     227.2827  21.1962         75
 3.90   0.0361    899.8823    302.7985  34.33      6831.13     1.806     1.751     227.2734  18.4638         76
 5.99   0.1430    896.3807    538.8925 -45.35     1725.118     1.258     0.848     227.2086  19.9580         77
 3.50   0.0020    880.0104   1592.4095  61.59     115017.5     2.500     2.434     213.4323  15.3981         78
 5.78   0.1025    869.0081   1103.1799 -33.97     2408.929     1.486     1.474     227.3475  19.5954         79
 7.24   0.3141    843.1048   1106.8746 -75.23     785.7882     0.977     0.710     227.2734  20.8117         80
 6.00   0.1497    836.2337    298.4426 -87.00     1649.523     1.213     1.019     227.3197  20.0066         81
 3.70   0.0373    822.4516    654.3922  62.20     6610.974     1.904     1.700      227.329  18.4993         82
 4.37   0.0428    802.7779   1378.5225 -60.86     5770.694     1.724     1.702     227.2641  18.6469         83
 3.77   0.0139    798.0681    695.6058  88.39     17780.34     2.554     2.009      227.366  17.4251         84
 4.77   0.0810    799.9539     41.0704  76.56      3048.52     1.478     1.355     227.2734  19.3398         85
 6.60   0.1026    774.1367   1427.0630 -85.17     2406.411     1.892     1.254     227.2734  19.5966         86
 5.37   0.1755    742.3917    556.7034  78.13     1406.222     1.276     1.149     227.2086  20.1799         87
 3.50   0.0035    726.2004    848.3846   5.29      69708.1     2.387     2.346     227.3475  15.9418         88
 5.94   0.3249    726.7937   1178.3159  -8.79     759.4913     0.905     0.765     227.2364  20.8487         89
 5.27   0.2280    715.3685    808.1309 -14.16     1082.578     1.204     0.956     227.3012  20.4639         90
 5.02   0.2783    708.2617   1163.7618  76.33     886.8395     1.319     1.038     227.3012  20.6804         91
 7.18   0.1640    703.4435   1338.5858  50.36     1505.909     1.192     0.802      227.403  20.1055         92
 4.18   0.1179    702.1779    952.2958 -57.04     2092.055     1.515     1.367     227.1993  19.7486         93
 5.61   0.1136    685.3095    644.2097 -60.68     2172.861     1.359     1.289     227.1993  19.7074         94
 3.50   0.0036    648.0182   1464.2284  13.98      68937.6     2.373     2.348      227.366  15.9539         95
 5.20   0.2577    623.0888   1581.3657 -33.28     957.6313     1.049     0.838     227.2086  20.5970         96
 4.19   0.2430   1584.5095   1108.9585   4.45     1015.795     1.144     0.965     227.2641  20.5330         97
 5.94   0.1885   1569.9242     92.4716  -7.79     1309.596     1.285     1.194     227.2641  20.2572         98
 5.35   0.1382   1566.0743     21.9107  87.52     1786.534     1.514     1.200     227.2827  19.9200         99
 3.50   0.0041   1563.1904    304.0690  22.06     60273.84     2.296     2.239     227.3197  16.0997        100
 7.73   0.2126   1565.9939    784.4824 -27.52     1160.639     1.053     0.674     227.2549  20.3883        101
 4.19   0.0112   1552.2479    682.1069 -16.41      22102.9     3.495     3.226     227.2827  17.1889        102
 4.81   0.0738   1541.2142    134.9950  35.19     3346.048     1.596     1.481      227.366  19.2387        103
 3.62   0.0076   1506.6533    269.2621  13.58     32467.44     2.212     2.142     227.2734  16.7714        104
 3.53   0.0080   1094.5632    778.2180  54.25     30772.19     2.279     2.098     227.3845  16.8296        105
 4.26   0.0315   1514.2589    392.6498 -68.73     7830.125     1.858     1.829     227.2734  18.3156        106
 8.07   0.4467   1504.0000    723.0259   0.00     552.5538     0.838     0.289     227.3012  21.1941        107
 8.96   0.1516   1109.7919    478.5934  71.14     1629.049     0.771     0.447     227.3938  20.0202        108
 4.06   0.0347   1107.0256    428.0916  60.21     7102.619     1.938     1.741     227.2086  18.4215        109
 6.72   0.1015   1119.7235    329.5730  63.94     2430.482     1.763     1.198     227.2549  19.5858        110
 3.50   0.0077   1138.0656    148.1535  52.72     32158.51     2.318     2.274     227.2549  16.7818        111
 7.48   0.4082   1129.3524    219.6698  45.87     604.6114     0.584     0.329     227.2641  21.0963        112
 6.72   0.4081   1292.9857    412.3103 -84.44     604.5853     0.748     0.674     227.1993  21.0964        113
 9.22   0.1809   1259.5833    431.8011  19.69     1364.585     0.761     0.447     227.3475  20.2125        114
 4.45   0.0349   1291.0527    761.9366 -40.45     7077.661     1.946     1.766     227.2827  18.4253        115
 3.50   0.0030   1392.8568    114.4532  75.58     81963.15     2.420     2.376     227.2641  15.7660        116
 7.17   0.0817   1293.1210    742.0746 -54.42     3019.532     1.182     1.156     227.2919  19.3502        117
 8.85   0.3881   1304.5039    892.5346  49.55     636.0508     0.503     0.496     227.2827  21.0413        118
 3.70   0.0023   1435.5669   1088.6056  44.99       106629     2.557     1.518     227.3475  15.4803        119
 4.51   0.0735   1434.7941    224.7793  59.57     3358.912     1.608     1.526      227.329  19.2345        120
 5.41   0.1710   1414.9445   1386.1927  58.70     1443.425     1.328     1.112     227.3382  20.1515        121
 4.13   0.1104   1439.2008    619.2315   9.90     2236.933     1.402     1.321     227.3197  19.6759        122
 4.15   0.0335   1388.3762   1428.3523  82.14       7363.5     1.903     1.793     227.3568  18.3823        123
 5.28   0.1145   1407.5312    308.2362 -44.17     2155.451     1.442     1.281     227.3012  19.7162        124
 3.50   0.0013   1298.0531    724.8838   7.23       193730     2.625     2.580     227.2641  14.8320        125
 4.91   0.0968   1389.8398    713.2196  22.48     2549.635     1.506     1.262     227.3753  19.5338        126
 3.86   0.0281   1372.0839   1018.8957  -8.96     8791.128     1.851     1.821     227.2919  18.1899        127
 3.91   0.1454   1391.7970   1038.7438  67.46      1697.93     1.303     1.097     227.3105  19.9752        128
 3.63   0.0078   1319.6772    659.9771 -46.23     31654.29     2.257     2.198     226.1965  16.7989        129
 6.77   0.3555   1332.1638    107.1231 -44.80     694.1702     0.822     0.689     227.2456  20.9463        130
 5.05   0.0436   1329.1886    655.9780 -73.88     5666.168     1.761     1.534     227.3475  18.6668        131
 8.95   0.7783   1318.5270    264.4885  41.73     317.1089     0.502     0.497     227.2734  21.7970        132
 5.50   0.0659   1307.2329    669.3615 -29.04     3744.409     1.668     1.455     227.3382  19.1165        133
 4.87   0.0190   1272.3130    610.1173 -46.83     12992.15     3.419     2.346     227.2919  17.7658        134
 4.20   0.0794   1264.9711    807.7076  45.98      3108.83     1.607     1.519     227.1993  19.3185        135
 4.35   0.0613   1277.7156   1331.1930  25.49     4022.537     1.709     1.595     227.2364  19.0387        136
 4.18   0.0883   1233.8519    304.6235  36.17     2794.914     1.448     1.297     227.3568  19.4341        137
 4.71   0.0191   1209.7463   1278.6859 -86.23     12918.41     4.313     2.794     227.2641  17.7720        138
 6.13   0.1722   1150.6638     99.5787  44.92     1432.948     1.035     0.884     227.2734  20.1594        139
 6.27   0.1977   1236.7913   1553.1951  35.94     1248.907     1.212     1.062     227.3938  20.3087        140
 8.72   0.6052   1153.6675   1353.6735 -45.27     407.8227     0.574     0.335     227.2734  21.5238        141
 4.46   0.0261   1218.5378   1194.7698 -23.65      9451.23     1.993     1.949     227.2919  18.1113        142
 3.64   0.0161   1214.2231    513.0854 -17.02     15359.76     2.069     1.988     227.2271  17.5840        143
 3.50   0.0048   1164.8165   1299.7355  51.77     51355.11     2.375     2.299     227.2919  16.2735        144
 6.20   0.1488   1206.9932    838.8483   0.27     1659.463     1.199     1.079     227.3197  20.0001        145
 5.33   0.1607   1201.3074    339.3056  -1.89     1535.587     1.243     1.068     227.2549  20.0843        146
 6.68   0.1197   1194.0555    124.2096   1.26     2062.261     1.227     0.985     227.3475  19.7641        147
 4.22   0.0427   1157.3247    236.5549  69.75     5778.066     1.809     1.722     227.2549  18.6455        148
 3.52   0.0148   1129.5792    183.6425  83.16     16699.25     2.106     2.071     227.3568  17.4933        149
 4.17   0.0259   1081.3923   1148.1611  68.20     9542.692     2.006     1.897      227.366  18.1008        150
 7.63   0.6614   1095.0028   1526.9939 -45.17      373.359     0.912     0.531     227.3845  21.6197        151
 3.50   0.0057   1039.8917    633.0511  39.11     43672.53     2.366     2.272     227.2827  16.4495        152
 6.59   0.1396   1071.6583   1219.0597  79.90     1767.929     1.587     1.183     227.2456  19.9313        153
 7.94   0.1282   1029.6453    302.3516  63.82     1925.718     1.104     0.816     227.3197  19.8385        154
 3.79   0.0148   1009.4023    813.7109 -80.02     16641.93     2.082     2.027     227.2364  17.4970        155
 3.80   0.0126   1025.4409   1379.8496  72.80     19568.87     2.175     2.084     227.3197  17.3211        156
 5.17   0.0951   1010.7122    344.7850 -21.70     2593.669     1.428     1.290     227.1993  19.5152        157
 5.68   0.0849   1000.9541    542.7292 -56.82     2908.709     1.448     1.364     227.2734  19.3907        158
