#   1 KRON_RADIUS            Kron apertures in units of A or B                         
#   2 MAGERR_APER            RMS error vector for fixed aperture mag.                   [mag]
#   3 Y_IMAGE                Object position along y                                    [pixel]
#   4 X_IMAGE                Object position along x                                    [pixel]
#   5 THETA_IMAGE            Position angle (CCW/x)                                     [deg]
#   6 FLUX_APER              Flux vector within fixed circular aperture(s)              [count]
#   7 A_IMAGE                Profile RMS along major axis                               [pixel]
#   8 B_IMAGE                Profile RMS along minor axis                               [pixel]
#   9 FLUX_RADIUS            Fraction-of-light radii                                    [pixel]
#  10 FLUXERR_APER           RMS error vector for aperture flux(es)                     [count]
#  11 MAG_APER               Fixed aperture magnitude vector                            [mag]
#  12 NUMBER                 Running object number                                     
 4.06   0.0006     54.8102     63.6162   7.95     143763.2     4.204     3.866     12.297     83.75552  15.1559          1
 4.70   0.0039     18.1055    984.9224 -87.76     23439.61     3.562     1.819      9.182     83.72706  17.1251          2
 3.50   0.0045     19.5111     91.2539 -74.58      20199.2     1.594     1.593      4.782     83.73655  17.2867          3
 3.56   0.0017     16.2668   1445.6176   5.53     52367.33     1.890     1.805      4.864     83.80292  16.2523          4
 4.37   0.0211     26.1560    366.6079  16.67     4313.751     1.016     0.880      3.748     83.81239  18.9629          5
 3.50   0.0004     61.3924   1078.3998  50.84       236570     2.294     2.198      5.134     83.74603  14.6151          6
 3.50   0.0004     81.5718    537.4313  -5.04     227991.8     2.231     2.187      5.214     83.81239  14.6552          7
 3.50   0.0000    183.5919   1107.5521 -24.07      2233934     4.890     4.553     10.080     83.82187  12.1773          8
 3.90   0.0109     76.6700    128.0600  63.24     8383.382     1.316     1.219      4.516       83.765  18.2415          9
 3.50   0.0003    123.3897    788.9986  15.16     339019.9     2.311     2.260      5.199       83.765  14.2244         10
 4.09   0.0072     98.1763     56.0645  12.14     12553.32     1.461     1.381      4.802     83.80292  17.8031         11
 8.72   0.0323     99.7577    453.0021   0.10     2816.552     0.695     0.428      4.024     83.81239  19.4257         12
 3.50   0.0001    195.1722    317.9897 -45.18      1448808     2.614     2.518      5.426     83.79344  12.6475         13
 3.50   0.0005    163.8853   1468.2463   6.52     192682.7     2.168     2.119      5.095       83.765  14.8379         14
 3.95   0.0021    171.8063    877.2582 -13.05     43134.98     1.849     1.810      5.159     83.83134  16.4629         15
 6.26   0.0213    166.6234   1445.5895 -45.57     4263.381     1.074     0.955      5.129     83.78396  18.9756         16
 6.27   0.0098    173.0470    325.1680  -4.64     9309.716     1.249     1.149      6.883     83.81239  18.1277         17
 7.19   0.0330    168.1921    104.1895  44.40     2754.133     0.754     0.563      4.439     83.74603  19.4500         18
 4.85   0.0007    236.3907    403.5207 -42.71     132632.7     5.571     4.586     18.337     83.79344  15.2434         19
 6.14   0.0172    194.1268   1350.6166  55.74     5290.443     1.147     1.041      5.429     83.84082  18.7413         20
 5.77   0.0051    212.2842    827.3955  -7.78     17959.84     3.064     1.803     10.757     83.77448  17.4142         21
 5.10   0.0100    208.3243    548.9987  14.64      9058.23     1.403     1.345      5.078     83.81239  18.1574         22
 6.34   0.0152    210.3540    349.7424  51.36     5966.789     1.187     1.029      5.995     83.77448  18.6106         23
 3.83   0.0100    213.7674   1306.0284  -4.51     9107.053     1.489     1.313      4.401     83.80292  18.1516         24
 9.38   0.0333    212.9898    684.5063 -57.67     2727.563     0.791     0.316      3.799     83.75552  19.4606         25
 3.50   0.0002    261.3132    997.3710 -23.07     588233.6     2.403     2.367      5.236     83.77448  13.6261         26
 6.49   0.0061    231.9824    561.7929   6.10     14987.24     2.483     2.286     11.593     83.75552  17.6107         27
 4.02   0.0088    225.6863   1226.0515  38.45      10377.9     1.477     1.312      4.531     83.74603  18.0097         28
 6.12   0.0257    224.2461    774.5557 -15.37      3540.52     1.009     0.965      4.681     83.82187  19.1773         29
 3.50   0.0002    267.4353     67.6016  -3.84     433137.7     2.371     2.303      5.360     83.77448  13.9584         30
 7.01   0.0130    245.6219    113.0311 -81.84     6982.023     1.356     1.122      7.559     83.78396  18.4400         31
 5.62   0.0053    256.8119    612.8681 -22.48     17266.79     2.112     1.770      7.904     83.83134  17.4570         32
 7.99   0.0259    253.1951   1372.6124 -71.84      3504.81     0.758     0.448      4.251     83.74603  19.1883         33
 3.50   0.0001    313.6460    439.4265 -24.89      1709426     2.632     2.551      5.484     83.82187  12.4679         34
 3.50   0.0009    289.1028   1486.3685  -1.22     103048.5     2.022     1.962      4.910     83.71758  15.5174         35
 4.05   0.0039    283.4547   1522.2284  -4.74     23062.08     1.677     1.596      4.816     83.81239  17.1428         36
 5.18   0.0104    291.1014    514.9318 -18.94     8733.278     1.625     1.502      5.795     83.74603  18.1971         37
 3.61   0.0012    304.6104    201.7310  31.11     74958.73     1.979     1.947      5.137     83.83134  15.8629         38
 3.50   0.0003    320.2000    905.3687  10.23     296811.3     2.242     2.205      5.192       83.765  14.3688         39
 4.85   0.0092    295.4975   1327.5172 -13.90     9834.979     1.372     1.364      4.896     83.69859  18.0681         40
 6.62   0.0193    294.9007   1475.5369 -74.29     4721.261     1.173     0.974      5.902     83.74603  18.8649         41
 3.50   0.0001    352.8514    890.7111 -28.70      1561388     2.568     2.504      5.302     83.73655  12.5662         42
 3.50   0.0001    352.8624   1345.7847 -23.23      1482715     2.524     2.493      5.264     83.78396  12.6224         43
 8.97   0.0190    299.3999   1412.7705 -18.71     4790.326     0.759     0.449      4.552     83.74603  18.8491         44
 3.75   0.0018    323.5458    697.2219   5.39     49980.09     1.928     1.868      5.049     83.82187  16.3030         45
 7.68   0.0214    303.9609    563.0087   0.52     4250.549     1.078     0.725      5.115     83.80292  18.9789         46
 5.80   0.0097    328.9993    595.2292 -20.45     9390.244     1.631     1.429      6.605     83.74603  18.1183         47
 9.34   0.0225    322.4987    641.4872  45.81     4044.801     0.503     0.497      3.017     83.69859  19.0328         48
 4.63   0.0026    347.9163    866.9841  39.24     34703.67     1.830     1.739      5.901     83.80292  16.6991         49
 7.46   0.0432    333.5166     93.5302  48.31     2104.773     0.502     0.497      3.013     83.71758  19.7420         50
 4.55   0.0033    357.2899    431.7542 -86.08     27715.91     1.966     1.846      6.167     83.73655  16.9432         51
 6.03   0.0188    351.3906     54.6137  40.34     4848.465     1.061     0.951      4.843     83.75552  18.8360         52
 4.15   0.0018    369.6064    761.0257  39.72     51565.28     1.902     1.847      5.126     83.79344  16.2691         53
 5.27   0.0097    362.6790   1500.2339  23.19     9347.422     1.478     1.287      5.196       83.765  18.1233         54
 4.23   0.0046    368.8589    442.7273   2.26     19577.83     1.676     1.588      5.037     83.74603  17.3206         55
 7.68   0.0373    361.9861   1033.5194 -89.92     2442.406     0.798     0.500      4.244     83.80292  19.5805         56
 3.50   0.0004    396.6423    231.3586   5.16     252101.5     2.248     2.188      5.214     83.79344  14.5461         57
 6.69   0.0302    374.2293    992.4621  -0.46     3017.337     0.965     0.724      4.418     83.79344  19.3509         58
 3.62   0.0025    398.5532   1461.1105  -0.57     36219.55     1.792     1.725      4.760     83.73655  16.6526         59
 3.57   0.0022    399.5710    354.4686  18.77     40962.62     1.831     1.777      4.874     83.79344  16.5190         60
 4.49   0.0105    395.4066   1088.5164 -42.15     8628.209     1.369     1.352      4.784     83.77448  18.2102         61
 3.50   0.0004    421.0752    433.2244  16.34     230527.4     2.212     2.168      5.161     83.78396  14.6432         62
 3.50   0.0008    417.0695    837.3176  35.07     111326.2     2.038     2.017      5.012     83.71758  15.4335         63
 7.26   0.0591    414.4749      1.5991 -88.23     1184.917     1.572     0.613      7.148     64.52565  20.3658         64
 4.05   0.0046    425.6546    926.3806  22.64     19969.62     1.672     1.608      4.973     83.81239  17.2991         65
 3.60   0.0011    439.4595    252.0048  10.36     82055.16     2.018     1.955      5.128     83.84082  15.7647         66
 7.26   0.0195    422.0591    159.4032  64.92     4661.038     1.300     0.858      6.223     83.84082  18.8788         67
 3.50   0.0001    462.6514    807.5664  -4.64     713908.9     2.400     2.356      5.195     83.81239  13.4159         68
 5.74   0.0137    434.3322   1421.9010  11.76     6628.061     1.245     1.134      4.818     83.74603  18.4965         69
 7.77   0.0347    435.2876    151.0216   3.41      2623.26     0.735     0.683      4.408     83.78396  19.5029         70
 4.32   0.0035    451.8255     21.2910 -11.88     26099.75     1.771     1.671      5.294     83.75552  17.0084         71
 5.78   0.0335    441.5108    305.5070 -83.02     2712.941     0.924     0.898      4.491     83.71758  19.4664         72
 7.34   0.0219    446.8344    122.0894 -82.33     4157.229     1.148     0.731      5.526     83.74603  19.0030         73
 4.33   0.0031    459.2914     34.4861 -51.43     29269.17     1.743     1.673      5.191     83.69859  16.8840         74
 5.74   0.0043    469.2626    850.4149  22.43     20978.83     5.847     1.730     17.607     83.78396  17.2455         75
 9.44   0.0205    448.6069    883.8131  18.70     4435.072     0.775     0.444      4.649     83.72706  18.9327         76
 3.80   0.0099    465.1890    468.4067  53.61     9223.057     1.531     1.320      4.692     83.74603  18.1378         77
 6.35   0.0293    462.6235   1096.4197  11.00     3101.194     0.976     0.807      4.884     83.78396  19.3212         78
 4.43   0.0078    473.5376    734.7532  22.27     11601.25     1.505     1.391      4.871     83.75552  17.8887         79
 4.73   0.0109    472.9802    254.2992 -12.91       8326.1     1.391     1.194      4.968     83.72706  18.2489         80
 4.19   0.0060    479.3217    922.9229  32.84     15078.95     1.511     1.481      4.741     83.75552  17.6041         81
 5.93   0.0157    479.4613   1276.8489 -86.46      5781.51     1.230     1.100      5.042     83.75552  18.6449         82
 5.74   0.0210    514.6971   1309.9906   7.70     4334.288     1.319     1.171      4.890     83.74603  18.9577         83
 4.12   0.0145    485.6152   1070.7526  -8.55     6289.076     1.321     1.259      4.598     83.79344  18.5535         84
 6.54   0.0087    497.5776     83.0067  66.37     10500.67     1.905     1.613      8.570     83.78396  17.9970         85
 6.64   0.0086    496.9010   1187.0255  -1.97     10602.05     1.974     1.349      8.186     83.72706  17.9865         86
 4.90   0.0012    534.4559    518.5499  34.05      73986.4     3.647     3.086     12.621     83.78396  15.8771         87
 3.67   0.0015    513.8845   1302.1998   8.49     62600.03     2.027     1.866      5.370     83.78396  16.0586         88
 7.04   0.0143    505.7164    762.5055 -85.19       6342.1     1.245     1.035      6.434     83.70808  18.5444         89
 5.97   0.0225    503.5783    863.4941  14.81     4036.324     0.923     0.889      4.495       83.765  19.0350         90
 5.48   0.0070    516.8466   1461.0226  24.80     13034.76     2.970     1.347      9.810     83.80292  17.7622         91
 5.84   0.0230    515.1458   1179.0188 -47.25     3956.083     1.176     1.000      4.622     83.81239  19.0568         92
 7.91   0.0244    511.1125    165.8792  45.76      3720.17     0.843     0.671      5.055     83.71758  19.1236         93
 7.31   0.0314    520.8629    641.8719 -43.04     2891.298     0.842     0.676      4.740     83.72706  19.3973         94
 3.50   0.0001    589.2521   1315.8784 -32.82      1596693     2.545     2.493      5.265     83.73655  12.5419         95
 3.92   0.0101    541.6472    999.7842  41.53     8992.335     1.306     1.290      4.362     83.80292  18.1653         96
 4.43   0.0074    560.3848   1041.6217  45.42     12312.76     1.536     1.379      4.896       83.765  17.8241         97
 3.77   0.0025    573.9904   1242.7697  14.96      36757.2     1.808     1.724      4.910     83.81239  16.6366         98
 5.79   0.0109    572.9567   1447.7887  47.55      8375.44     1.602     1.416      6.925     83.79344  18.2425         99
 6.09   0.0112    572.8408     45.9018  54.29     8102.828     1.694     1.258      6.784     83.71758  18.2784        100
 3.82   0.0018    583.6829    319.1039  10.22     49164.37     1.937     1.850      5.180     83.69859  16.3209        101
 3.67   0.0018    582.1736    144.8848 -10.85     49221.37     1.949     1.806      5.108     83.77448  16.3196        102
 3.50   0.0000    632.6119    483.1479 -14.17      2460423     2.723     2.636      5.663     83.82187  12.0725        103
 8.96   0.0381    566.4742    139.4969 -37.18     2385.097     0.501     0.498      3.005     83.71758  19.6062        104
 6.43   0.0130    576.0765   1336.7830  30.80      6989.95     1.349     1.065      6.478     83.82187  18.4388        105
 5.27   0.0040    598.0474    782.5241 -49.02     22992.15     2.863     2.518     10.365     83.74603  17.1461        106
 6.31   0.0269    586.1059     75.9743   1.54     3376.656     1.004     0.858      4.737     83.75552  19.2288        107
 4.83   0.0158   1002.6642   1555.2805 -80.59     5755.856     1.320     1.123      4.353     83.72706  18.6497        108
 6.93   0.0152   1598.2859    654.0801  -4.44      4963.54     1.283     0.698      4.906     69.33194  18.8105        109
 7.14   0.0277   1596.1770    374.0029  36.32     3025.405     0.939     0.470      4.704     77.04784  19.3480        110
 4.11   0.0051   1543.0918    134.7388  -2.70     17705.07     1.670     1.574      4.859     83.75552  17.4298        111
 4.75   0.0157    929.7796   1322.2466  36.33     5779.826     1.163     1.114      4.445     83.80292  18.6452        112
 0.00  99.0000    923.3777    806.9763  76.86    -30.32269     1.425     1.204     -2.836     83.79344  99.0000        113
 6.36   0.0222    914.1400    838.4391  67.51     4096.122     1.071     0.954      4.565     83.79344  19.0191        114
 7.87   0.0361    913.7532   1001.0084   0.41     2524.094     0.689     0.431      3.608     83.82187  19.5447        115
 4.08   0.0028    901.8284    302.6319  32.47     32644.16     1.843     1.740      5.091     83.80292  16.7655        116
 3.50   0.0000    883.3814    183.6500 -19.82      2447372     3.195     3.079      6.782     83.80292  12.0782        117
 6.89   0.0124    897.2708    538.1027  69.70     7362.666     1.425     1.164      6.423     83.74603  18.3824        118
 6.11   0.0043    880.5494    224.1360  88.64     21130.84     6.123     1.673     16.208       83.765  17.2377        119
 3.50   0.0002    881.6226   1592.4487  65.69     575831.5     2.397     2.351      5.060     83.80292  13.6493        120
 8.03   0.0210    889.9066    325.8675 -44.75     4322.569     0.844     0.672      5.065     83.73655  18.9606        121
 4.70   0.0207    887.2526   1499.8967 -51.10      4388.86     1.068     1.005      4.130     83.69859  18.9441        122
 7.97   0.0230    887.0178   1304.5103  88.51     3950.838     0.805     0.500      4.832     83.77448  19.0583        123
 6.94   0.0156    880.0314   1176.7563 -66.77     5844.023     1.170     1.034      6.316     83.82187  18.6332        124
 7.44   0.0349    878.8286    960.8246  45.21     2604.324     0.766     0.569      4.264     83.78396  19.5108        125
 4.81   0.0067    870.8043   1103.4138 -32.93     13569.61     1.741     1.609      5.891     83.75552  17.7186        126
 3.50   0.0001    860.6582   1224.3918   9.72      1475827     2.607     2.563      5.208     83.84082  12.6274        127
 7.51   0.0185    869.3853    940.0309  28.13      4915.62     1.297     0.789      6.555     83.81239  18.8211        128
 6.42   0.0206    861.3013   1157.3337  43.91     4420.182     1.024     0.870      4.915     83.77448  18.9364        129
 6.09   0.0242    859.8855   1339.4011 -27.27     3762.072     1.096     0.578      3.683     83.77448  19.1114        130
 7.01   0.0171    846.0428   1205.9912 -53.00     5330.569     0.803     0.795      4.818     83.80292  18.7331        131
 5.36   0.0153    844.5964   1106.1683  25.00     5950.291     1.276     1.066      5.212     83.80292  18.6137        132
 6.93   0.0332    846.1494   1063.8723  45.80     2737.093     0.835     0.668      4.541     83.72706  19.4568        133
 6.16   0.0091    839.1501   1247.1755 -29.21     10030.83     1.482     1.308      6.961     83.82187  18.0467        134
 4.70   0.0123    838.0167    298.7638   5.94     7419.349     1.395     1.172      4.777     83.81239  18.3741        135
 3.94   0.0027    824.4010    654.3109  37.31     33334.54     1.893     1.787      5.039     83.77448  16.7428        136
 3.65   0.0030    804.4127   1378.5909  18.36     30639.22     1.785     1.710      4.695     83.74603  16.8343        137
 3.54   0.0011    799.9121    695.5764  88.77     85961.77     2.586     2.008      6.482     83.78396  15.7142        138
 4.21   0.0064    802.0409     41.0905 -21.87     14230.01     1.571     1.521      4.970     83.74603  17.6670        139
 5.47   0.0071    775.2255   1427.2784 -85.98     12774.57     2.215     1.593      8.171     83.78396  17.7841        140
 5.37   0.0133    768.0120    391.6290  15.91     6861.373     1.314     1.196      5.009     83.80292  18.4590        141
 4.25   0.0118    744.2063    556.2775 -23.97     7740.466     1.405     1.311      4.729     83.79344  18.3281        142
 6.64   0.0293    739.1788   1157.6746  21.00     3101.249     0.921     0.685      4.200     83.81239  19.3212        143
 6.69   0.0288    737.1107    649.3793 -22.30     3154.683     0.925     0.684      4.097       83.765  19.3026        144
 3.50   0.0000    725.5227    404.7261 -14.90      1919244     2.719     2.589      5.410     83.73655  12.3422        145
 3.50   0.0003    727.9932    848.3524  23.62     342396.8     2.318     2.276      5.161     83.82187  14.2137        146
 5.28   0.0162    728.8334   1178.1766  42.38     5628.172     1.189     1.040      4.576     83.79344  18.6741        147
 5.28   0.0130    717.2914    808.3470  55.73     7022.501     1.312     1.312      4.956     83.74603  18.4338        148
 4.44   0.0129    710.4481   1163.6825   4.86     7053.239     1.327     1.237      4.489     83.74603  18.4290        149
 5.89   0.0109    705.5657   1338.9106 -81.17     8379.821     1.391     1.282      6.175     83.74603  18.2419        150
 3.99   0.0071    704.2521    952.3856  34.75     12805.21     1.483     1.448      4.639     83.82187  17.7815        151
 8.02   0.0208    692.9650   1213.7378  65.54      4376.24     1.084     0.816      6.503     83.78396  18.9472        152
 4.46   0.0087    686.9780    644.0174  -9.45     10500.68     1.476     1.408      4.805     83.77448  17.9970        153
 8.50   0.0099    685.0096    471.8991 -46.29     9217.223     1.241     1.044      7.444     83.74603  18.1385        154
 6.45   0.0097    682.8522    543.7064 -55.36     9403.914     1.730     1.427      8.068     83.72706  18.1167        155
 3.50   0.0003    649.7205   1464.2881  16.57     337587.8     2.266     2.231      5.055     83.72706  14.2290        156
 7.15   0.0272    655.9042    870.8224 -47.09     3345.547     0.830     0.668      4.235       83.765  19.2388        157
 3.50   0.0003   1559.3016    487.3324   1.33     296202.2     2.404     2.340      5.099     83.74603  14.3710        158
 3.65   0.0017    641.2100    536.7706  30.10     52851.73     1.936     1.874      5.028     83.80292  16.2424        159
 6.37   0.0265    631.9269    806.1052 -79.16     3429.715     1.132     0.729      4.395     83.73655  19.2119        160
 5.24   0.0160    624.8391   1581.7410   7.67     5700.068     1.212     1.137      4.646     83.79344  18.6603        161
 5.42   0.0154    606.9500    586.2335  26.18     5916.051     1.290     1.091      4.729     83.80292  18.6199        162
 5.10   0.0071   1543.9377    654.2358   6.61     12844.29     1.522     1.502      5.239     83.78396  17.7782        163
 4.80   0.0094    940.5503   1066.9835  58.96     9647.565     1.427     1.278      4.773     83.80292  18.0890        164
 3.50   0.0003   1564.9086    303.8567  -1.79     298606.4     2.387     2.296      5.101     83.73655  14.3623        165
 4.80   0.0131   1586.1338   1108.5453   6.59     6966.387     1.293     1.152      4.517     83.75552  18.4425        166
 4.78   0.0108   1571.6653     92.3622  57.95     8449.821     1.405     1.365      4.819     83.79344  18.2329        167
 7.25   0.0179   1547.3698    863.4689  36.12     5087.415     1.368     0.771      5.758     83.79344  18.7838        168
 5.95   0.0170   1562.6573    861.1366 -55.35     5352.828     1.190     1.114      4.883     83.75552  18.7285        169
 4.58   0.0083   1568.0312     21.5423 -19.68     10923.12     1.620     1.446      5.025     83.81239  17.9541        170
 5.82   0.0125   1567.1318    784.2593 -70.69      7280.36     1.482     1.326      5.946     83.75552  18.3946        171
 4.13   0.0010   1553.8680    681.8541 -27.44      88061.9     4.178     3.728     11.500     83.74603  15.6880        172
 8.39   0.0388   1552.6675   1221.6698 -45.10     2344.601     0.576     0.334      3.014     83.71758  19.6248        173
 3.50   0.0012    931.0528   1178.2883  42.24      76963.9     2.041     1.942      4.825     83.71758  15.8343        174
 7.28   0.0137    987.9465    454.0064  46.76      6653.57     1.373     1.148      7.646     83.85976  18.4924        175
 3.69   0.0023   1516.1770    392.3126  10.51     39674.36     1.934     1.797      4.815     83.78396  16.5537        176
 3.50   0.0006   1508.4668    269.0315  -6.55     161676.6     2.275     2.183      5.058     83.79344  15.0284        177
 6.71   0.0176    982.5072    798.0153  -2.06     5156.194     1.166     0.957      5.687     83.77448  18.7692        178
 3.81   0.0021   1039.9601    525.2932  12.15     43815.77     1.885     1.859      4.947     83.69859  16.4459        179
 7.42   0.0431    948.9724    445.0000  90.00     2110.697     0.853     0.289      3.273       83.765  19.7389        180
 6.30   0.0226   1505.5388    722.9551  -2.18     4028.609     1.136     0.952      4.589     83.78396  19.0371        181
 8.11   0.0389    966.4951    416.5008 -44.59     2338.379     0.501     0.499      3.005     83.70808  19.6277        182
 7.60   0.0228    952.0114    654.7029 -89.33     3997.504     0.755     0.685      4.529     83.74603  19.0455        183
 5.75   0.0206   1001.2355   1273.6947 -19.03     4413.833     0.984     0.854      4.256     83.72706  18.9380        184
 3.50   0.0006    986.2198    558.4037  12.08     149427.4     2.209     2.145      5.063     83.77448  15.1139        185
 3.50   0.0000   1025.0056     50.2368 -16.82      2203311     2.780     2.665      5.457     83.79344  12.1923        186
 6.75   0.0165   1061.0151    726.4691  -1.22     5525.542     1.190     1.100      6.093     83.83134  18.6941        187
 7.95   0.0174   1066.6418   1563.0979  69.46     5217.763     0.930     0.694      5.577     83.71758  18.7563        188
 7.06   0.0348   1080.6638    330.6638 -45.00     2615.424     0.580     0.332      2.197     83.74603  19.5061        189
 8.63   0.0173   1107.5222    678.0247  32.11     5253.909     0.796     0.314      3.908     83.78396  18.7488        190
 7.67   0.0283   1074.2769      6.6344  19.13     3142.288     0.989     0.595      4.457     81.82719  19.3069        191
 3.53   0.0010   1420.6407   1126.1237 -62.87     92309.04     2.191     2.117      5.181       83.765  15.6369        192
 5.59   0.0203   1096.9529   1526.4910  87.46     4470.167     1.111     0.964      4.528     83.71758  18.9242        193
 3.50   0.0005   1081.2905    511.9973   4.48     167466.3     2.222     2.163      5.063     83.74603  14.9902        194
 3.69   0.0026   1108.7441    427.8706   3.58     34992.11     1.940     1.781      4.977     83.74603  16.6901        195
 3.50   0.0001   1435.6680   1090.3186 -15.70     725688.6     2.524     2.482      5.106     83.72706  13.3981        196
 3.50   0.0006   1096.1024    777.9913  14.15     152291.5     2.188     2.134      5.057     83.74603  15.0933        197
 4.08   0.0051   1436.6504    224.3800  15.99     17821.24     1.656     1.583      4.862     83.80292  17.4227        198
 8.03   0.0332   1407.5132    329.4820  45.38     2738.163     0.505     0.494      3.032     83.73655  19.4564        199
 8.14   0.0402   1440.2898   1270.6351  41.51     2260.789     0.570     0.335      3.422     83.74603  19.6643        200
 7.06   0.0201   1401.9138   1031.3040 -12.92     4526.311     1.033     0.762      5.064     83.68911  18.9106        201
 4.49   0.0069   1441.0831    618.8366 -29.66     13163.42     1.597     1.453      4.811     83.78396  17.7516        202
 5.20   0.0108   1416.6306   1386.4108  11.46      8429.44     1.407     1.344      4.891     83.81239  18.2355        203
 3.56   0.0024   1390.1648   1428.3231  15.07     37972.32     1.843     1.776      4.714       83.765  16.6013        204
 3.50   0.0002   1394.7063    114.2195  -0.11     404147.4     2.467     2.376      5.230     83.77448  14.0336        205
 4.21   0.0070   1391.8126    712.9902 -20.82     12925.84     1.595     1.496      4.817     83.75552  17.7714        206
 4.64   0.0071   1409.5522    308.0211  -3.07     12817.61     1.553     1.428      4.899     83.80292  17.7805        207
 7.76   0.0128   1111.8605    479.4189  22.24     7084.661     1.354     0.899      7.426     83.79344  18.4242        208
 8.14   0.0266   1115.1985    674.7978  44.88     3419.875     0.988     0.347      4.572     83.80292  19.2150        209
 3.50   0.0000   1367.8490   1159.4698  14.13      2941500     3.960     2.856      5.714     83.75552  11.8786        210
 4.91   0.0100   1393.6984   1038.3988  23.33     9139.312     1.425     1.229      4.867     83.74603  18.1477        211
 3.84   0.0020   1373.8683   1018.6469 -15.76     44402.34     1.963     1.853      5.005     83.77448  16.4315        212
 3.50   0.0001   1299.6050    724.6524 -17.09     953079.1     2.582     2.526      5.178     83.84082  13.1022        213
 6.66   0.0258   1130.1299    547.3166  13.04     3521.541     1.013     0.756      4.523     83.71758  19.1832        214
 4.68   0.0032   1174.0432    757.8148 -85.99     28258.89     3.045     3.017     10.290     83.79344  16.9221        215
 3.50   0.0006   1139.7612    147.8624   6.64     157884.9     2.269     2.158      5.093     83.78396  15.0541        216
 6.84   0.0225   1306.0023    892.5251   0.29     4047.518     1.048     0.787      4.515     83.82187  19.0320        217
 5.52   0.0083   1121.2595    329.4239  51.19     11010.56     1.993     1.592      7.375     83.82187  17.9455        218
 3.50   0.0006   1321.3052    659.7635  -7.94     153734.2     2.248     2.204      5.171     83.71758  15.0831        219
 7.77   0.0155   1332.3197   1139.7904 -87.83      5858.81     1.160     0.700      6.179     83.78396  18.6305        220
 4.81   0.0204   1333.9618    107.0763  62.32      4448.56     1.198     1.119      4.461       83.765  18.9295        221
 4.57   0.0056   1331.2437    655.5939  -7.57      16371.8     1.772     1.686      4.933     83.81239  17.5148        222
 6.05   0.0290   1320.6711    263.8921 -68.05     3133.281     0.921     0.685      4.129     83.73655  19.3100        223
 3.85   0.0026   1292.7131    761.8975 -13.96     35377.42     2.120     1.779      5.478     83.68911  16.6782        224
 5.80   0.0068   1308.7648   1035.8177 -30.20     13293.71     2.063     1.527      7.356     83.81239  17.7409        225
 6.70   0.0135   1260.7919    432.1530  45.74     6734.895     1.425     1.027      6.529     83.82187  18.4792        226
 8.17   0.0354   1331.5117    386.5117  45.00     2566.584     0.506     0.494      3.036      83.6891  19.5266        227
 3.96   0.0042   1279.3495   1331.1671  87.57     21756.89     1.771     1.669      4.773     83.80292  17.2060        228
 5.24   0.0060   1308.8101    669.4493 -26.72     15160.42     1.725     1.484      5.851     83.82187  17.5982        229
 5.37   0.0127   1152.5564     99.2741  27.73      7165.33     1.401     1.324      5.144     83.75552  18.4119        230
 6.59   0.0121   1294.9531    741.9031 -26.39     7531.745     1.377     1.166      6.671     83.68911  18.3578        231
 6.30   0.0201   1293.8875    412.4502 -74.70      4532.63     1.058     0.971      4.516     83.73655  18.9091        232
 4.17   0.0054   1266.6727    807.6412  19.62     16805.32     1.694     1.594      4.785     83.77448  17.4864        233
 4.31   0.0017   1274.0188    609.7662 -55.23     55109.46     3.802     2.467      9.652     83.79344  16.1969        234
 7.33   0.0305   1181.8950    549.1121  48.59      2977.15     0.835     0.663      4.474     83.68911  19.3655        235
 7.65   0.0192   1231.1221    599.3472 -19.03     4733.391     0.945     0.689      5.363     83.73655  18.8621        236
 7.32   0.0117   1214.0806   1429.3109  63.34     7783.786     1.362     1.092      7.727     83.72706  18.3220        237
 3.50   0.0000   1222.6552    994.9854 -19.67      2629097     5.316     4.874     10.676     83.81239  12.0005        238
 4.18   0.0066   1235.7129    304.5154  10.25     13856.69     1.673     1.489      4.837     83.72706  17.6959        239
 5.89   0.0185   1154.6027   1352.8634 -11.47     4923.786     1.247     0.972      5.099     83.84082  18.8193        240
 5.41   0.0193   1243.6855    672.2896   8.74     4722.153     1.122     0.967      4.301     83.72706  18.8646        241
 5.63   0.0100   1196.4487    123.9950 -29.03     9066.561     1.519     1.420      6.560     83.84082  18.1564        242
 3.83   0.0019   1211.6543   1278.6310  86.64      47215.1     5.195     3.109     11.843     83.80292  16.3648        243
 3.86   0.0019   1220.1406   1194.6002   7.96     49091.29     1.935     1.878      5.084     83.84082  16.3225        244
 6.58   0.0164   1202.4009   1441.9315  14.82     5562.182     1.224     0.967      5.550     83.82187  18.6869        245
 5.28   0.0106   1204.6826   1075.4138  27.95      8553.57     1.478     1.335      6.138     83.80292  18.2196        246
 3.51   0.0012   1215.8728    512.8373   7.10     74667.13     2.015     1.968      4.891     83.78396  15.8672        247
 5.19   0.0104   1208.9304    838.6003  76.49      8720.99     1.410     1.282      4.944     83.82187  18.1986        248
 4.79   0.0110   1203.1107    338.7057   7.71     8261.451     1.349     1.204      4.673     83.70808  18.2574        249
 7.83   0.0251   1064.3143      6.6554  43.63     3541.982     0.574     0.335      3.442     81.85631  19.1769        250
 3.57   0.0011   1131.2589    183.3136   5.89     82264.58     2.098     2.012      5.016     83.73655  15.7620        251
 4.82   0.0106   1238.3405   1553.4193  -5.84     8578.941     1.397     1.300      4.715     83.80292  18.2164        252
 8.41   0.0261   1162.6844    887.6744 -44.50     3488.524     0.566     0.339      2.888     83.72706  19.1934        253
 3.50   0.0004   1166.4545   1299.5092   2.02     254097.1     2.299     2.258      4.948     83.74603  14.5375        254
 7.60   0.0292   1131.3075    219.0416   2.72     3117.437     0.741     0.679      4.449     83.69859  19.3155        255
 3.95   0.0031   1159.1118    236.1489  19.38     29260.56     1.843     1.712      4.920     83.72706  16.8843        256
 3.50   0.0000   1152.9353    693.7203 -12.73      3004710     2.868     2.767      5.603     83.71758  11.8555        257
 4.22   0.0057   1090.5554    642.2964  24.32     15940.96     1.637     1.552      4.862     83.70808  17.5437        258
 3.53   0.0019   1083.0737   1148.0181  -0.56     48886.37     1.912     1.861      4.755     83.83134  16.3270        259
 3.74   0.0017   1105.7887    751.7599  18.16     53874.92     2.027     1.906      5.002     83.79344  16.2215        260
 3.50   0.0004   1041.5289    632.9177  37.70       215126     2.283     2.243      5.087     83.71758  14.7183        261
 5.50   0.0091   1073.2410   1218.8578  -1.62     9946.294     1.629     1.450      6.651     83.77448  18.0558        262
 5.93   0.0108   1031.8055    302.5028  62.35     8452.287     1.693     1.372      7.357       83.765  18.2326        263
 3.50   0.0011   1011.1313    813.5825  27.54     84234.59     2.096     2.020      4.953     83.81239  15.7363        264
 3.50   0.0009   1027.0907   1379.8291  23.69     98215.55     2.090     2.034      4.827     83.75552  15.5695        265
 4.80   0.0071   1012.6168    344.5900  -2.19     12901.11     1.566     1.482      4.996     83.75552  17.7734        266
 4.60   0.0065   1003.0110    542.4254  14.02     14067.98     1.549     1.526      4.965     83.77448  17.6794        267
