#   1 NUMBER                 Running object number                                     
#   2 EXT_NUMBER             FITS extension number                                     
#   3 FLUX_BEST              Best of FLUX_AUTO and FLUX_ISOCOR                          [count]
#   4 FLUXERR_BEST           RMS error for BEST flux                                    [count]
#   5 MAG_BEST               Best of MAG_AUTO and MAG_ISOCOR                            [mag]
#   6 MAGERR_BEST            RMS error for MAG_BEST                                     [mag]
#   7 X_IMAGE                Object position along x                                    [pixel]
#   8 Y_IMAGE                Object position along y                                    [pixel]
#   9 A_IMAGE                Profile RMS along major axis                               [pixel]
#  10 B_IMAGE                Profile RMS along minor axis                               [pixel]
#  11 THETA_IMAGE            Position angle (CCW/x)                                     [deg]
         1   1     39463.04     340.7569  16.5643   0.0094     63.6156     53.0761     4.592     4.073   3.16
         2   1     5083.932     185.0345  18.7893   0.0395    984.8412     16.5106     3.665     1.856 -83.95
         3   1     3466.959     132.6275  19.2049   0.0415     91.1998     17.7176     1.747     1.724  -3.81
         4   1     9125.229     125.7382  18.1542   0.0150   1445.5381     14.7234     1.979     1.966 -51.67
         5   1     582.4489     69.39974  21.1416   0.1294    367.1604     24.5794     1.419     0.833  47.32
         6   1     42990.39     152.1161  16.4714   0.0038   1078.2527     59.7903     2.422     2.360  41.10
         7   1      1091148     289.5977  12.9601   0.0003   1107.1863    182.1497     4.737     4.374 -20.11
         8   1     41266.46     150.7332  16.5158   0.0040    537.4584     80.1555     2.379     2.363  -5.33
         9   1     1497.026     126.5682  20.1167   0.0918    127.4333     75.1599     1.643     1.477  -3.95
        10   1      61992.2     155.8558  16.0739   0.0027    788.9768    121.7121     2.473     2.450 -27.41
        11   1     517.0227     105.3493  21.2710   0.2213    421.1638     82.2965     0.846     0.599 -30.74
        12   1     2074.938     119.7676  19.7623   0.0627     55.8991     96.3192     1.568     1.396 -28.59
        13   1     836.7953     127.3928  20.7482   0.1653    376.3407     89.5106     1.108     0.883 -11.83
        14   1     153.3525     44.60214  22.5906   0.3159   1047.2648     93.6527     0.551     0.343  49.94
        15   1     171.4011     51.16217  22.4697   0.3242    452.2873    117.2951     0.540     0.349 -45.55
        16   1     267957.1     176.3426  14.4846   0.0007    317.9649    193.4188     2.828     2.710 -54.00
        17   1     34450.21     146.5061  16.7118   0.0046   1468.0619    162.3634     2.334     2.289 -38.65
        18   1     46495.43     453.1247  16.3863   0.0106    403.6199    234.6395     5.853     4.829 -41.48
        19   1     7807.862     136.5177  18.3235   0.0190    877.1570    170.3269     2.076     1.959 -20.86
        20   1     547.1351     107.8054  21.2095   0.2140   1445.7671    164.6802     1.117     0.819   1.43
        21   1     1936.121     184.1838  19.8375   0.1033    325.1627    171.3210     1.436     1.335 -25.90
        22   1     418.2589     86.82507  21.5012   0.2254    104.3359    166.7937     0.958     0.664 -70.54
        23   1     447.9158     86.82507  21.4268   0.2105   1367.1927    169.3876     0.760     0.444  18.98
        24   1     216.4323     58.78085  22.2165   0.2949   1047.0000    179.0130     0.828     0.289  90.00
        25   1     441.2333     73.78712  21.4431   0.1816    574.5369    178.4737     0.503     0.495 -47.58
        26   1      941.245     126.9812  20.6205   0.1465   1350.6075    192.5116     1.344     1.047 -46.09
        27   1     4885.997     264.4644  18.8324   0.0588    826.7241    210.2057     3.092     2.057  -9.62
        28   1     1622.426     124.4829  20.0294   0.0833    548.8272    206.2774     1.493     1.251  67.76
        29   1     996.8929     142.8882  20.5582   0.1557    349.4588    208.5168     1.414     1.296  58.95
        30   1     1596.714     114.8588  20.0467   0.0781   1305.9584    212.2595     1.586     1.394  30.59
        31   1     4199.637     289.0549  18.9968   0.0747    562.0215    228.8307     2.935     2.288  17.12
        32   1     116809.5     161.4651  15.3861   0.0015    997.2161    259.5902     2.567     2.511  -5.29
        33   1     202.2473     57.88338  22.2901   0.3108   1226.4763    209.5162     0.501     0.498  47.55
        34   1     285.4452     66.31374  21.9160   0.2523    684.3248    209.6646     0.574     0.335  45.47
        35   1     1589.315      92.0919  20.0518   0.0629   1225.4631    223.7149     1.531     1.366 -13.58
        36   1     1203.413     157.8583  20.3537   0.1425    344.5749    221.2888     1.672     0.940   1.65
        37   1     79398.54     160.8153  15.8052   0.0022     67.4374    265.5734     2.520     2.495  24.63
        38   1     536.3427     99.20712  21.2312   0.2009    774.9658    222.0241     0.796     0.776  42.61
        39   1     1340.076     138.7995  20.2370   0.1125    112.7754    243.9687     1.670     1.178  60.21
        40   1     3434.637     169.0676  19.2151   0.0535    612.6411    255.0827     2.408     1.928 -10.04
        41   1     327861.4     177.8207  14.2656   0.0006    439.1593    312.1872     2.853     2.748 -13.39
        42   1     17853.07     136.1337  17.4255   0.0083   1486.1432    287.5016     2.206     2.117 -24.92
        43   1     3684.033     122.3621  19.1390   0.0361   1521.9921    281.9189     1.743     1.687  -7.56
        44   1     54649.14     155.5195  16.2108   0.0031    905.2997    318.4661     2.485     2.425 -31.32
        45   1     1691.323     165.9422  19.9842   0.1066    514.4774    289.1143     1.786     1.509  59.58
        46   1     13563.98     138.7995  17.7238   0.0111    201.6053    302.7957     2.146     2.092 -18.82
        47   1     277942.1     171.8318  14.4449   0.0007   1345.6716    351.3184     2.751     2.668  -9.05
        48   1     1426.556     91.52167  20.1691   0.0697   1327.3081    293.8499     1.589     1.283 -28.02
        49   1     673.3693     111.1527  20.9841   0.1793   1476.2544    292.7826     0.968     0.831 -33.56
        50   1     288686.1     173.3484  14.4037   0.0007    890.5995    351.2143     2.763     2.683 -24.50
        51   1     9030.818     138.4218  18.1655   0.0166    697.1138    321.6669     2.137     2.027   7.97
        52   1     696.5079     124.4829  20.9475   0.1941    562.5656    301.7118     1.463     0.771  11.11
        53   1     1857.381     163.7189  19.8825   0.0957    595.2062    327.4981     1.538     1.296 -79.29
        54   1     753.8956     106.3386  20.8615   0.1532    639.1662    322.3299     1.100     0.411 -12.92
        55   1     6835.375     175.4497  18.4679   0.0279    866.8652    346.1763     2.071     1.945  16.10
        56   1      5101.98     176.0454  18.7854   0.0375    431.6225    355.4592     2.277     1.981 -79.36
        57   1     9504.518     148.6347  18.1100   0.0170    760.9399    367.7827     2.137     1.988 -31.92
        58   1     993.4784     112.5568  20.5619   0.1230     54.4217    349.5560     1.724     1.072  -8.97
        59   1     1469.375     102.8347  20.1369   0.0760   1500.1036    360.8824     1.558     1.339  33.05
        60   1     3179.495     113.4832  19.2989   0.0388    442.6497    366.8826     1.791     1.626   2.79
        61   1     45740.02     153.8272  16.4040   0.0037    231.3117    394.8527     2.480     2.350  56.18
        62   1     281.5154     71.62703  21.9310   0.2763    991.5938    372.2422     0.752     0.455 -72.07
        63   1      6987.28     124.4829  18.4440   0.0193    354.4063    397.7915     2.020     1.901  49.92
        64   1     434.8281     72.35423  21.4590   0.1807      1.4591    380.5380     1.091     0.497 -88.02
        65   1      41793.8     152.4598  16.5020   0.0040    433.1660    419.2194     2.402     2.366  58.82
        66   1     5950.073     125.7382  18.6185   0.0229   1460.9520    396.8806     1.995     1.799  11.57
        67   1     1260.445     106.8297  20.3035   0.0920   1088.5785    393.7094     1.476     1.300  72.26
        68   1     19741.37        140.3  17.3163   0.0077    837.2755    415.3580     2.234     2.182  -5.21
        69   1     494.5425     95.44178  21.3193   0.2096    626.4155    395.7974     0.761     0.454 -71.76
        70   1     184.2417      61.3946  22.3913   0.3619    976.6553    396.6870     0.573     0.335 -43.56
        71   1     1014.719     117.1156  20.5389   0.1253      1.8796    413.0601     1.889     0.874  85.14
        72   1     14861.05     136.1337  17.6247   0.0099    251.9063    437.5339     2.186     2.125  -3.42
        73   1     130469.3     163.7189  15.2660   0.0014    807.4008    460.6579     2.612     2.525  -6.92
        74   1     3050.468     107.3187  19.3439   0.0382    926.2772    423.9710     1.764     1.558 -23.94
        75   1     948.7612     139.9264  20.6119   0.1602    159.0849    420.2740     1.694     1.092  -7.92
        76   1     1152.575     131.8357  20.4006   0.1242   1422.1628    432.4408     1.444     1.264  47.41
        77   1     4839.544     146.8631  18.8428   0.0330     21.3219    449.6169     1.977     1.846 -74.14
        78   1     436.9114     81.21742  21.4538   0.2019    305.7711    439.7756     1.065     0.762  44.23
        79   1     797.4452     117.1156  20.8005   0.1595    122.5361    444.2969     1.247     0.856 -53.61
        80   1     5285.659     148.6347  18.7470   0.0305     34.5039    457.3157     1.926     1.899 -50.59
        81   1     7274.783     325.0308  18.4002   0.0485    850.4033    467.4598     5.808     1.894  22.81
        82   1     249.6095     63.07695  22.0616   0.2744    884.0000    446.4990     1.151     0.289  90.00
        83   1     1917.521     147.5742  19.8479   0.0836    468.0500    463.3741     1.588     1.489 -11.39
        84   1     2403.548     141.7848  19.6026   0.0641    734.9933    471.5053     1.661     1.558  75.91
        85   1     1418.386     125.3212  20.1753   0.0960    254.0509    470.9929     1.580     1.381  81.26
        86   1     2806.162     138.0431  19.4345   0.0534    922.8270    477.5762     1.754     1.579 -28.19
        87   1     877.0228     79.91786  20.6973   0.0990   1276.2677    477.5721     1.351     1.163 -70.77
        88   1     1090.817     104.8512  20.4604   0.1044   1070.1747    483.7100     1.311     1.252 -64.26
        89   1     1911.717     180.7408  19.8512   0.1027     82.4905    495.4494     2.032     1.487  59.85
        90   1     2050.798     199.2042  19.7750   0.1055   1189.0267    494.2783     2.945     1.336 -44.11
        91   1     19898.87     309.8586  17.3077   0.0169    518.9060    532.4761     4.016     3.205  38.90
        92   1     301.7473     70.89238  21.8557   0.2551    682.4513    481.4957     0.500     0.497  76.47
        93   1     11571.08     150.3854  17.8963   0.0141   1302.7456    512.2040     2.781     1.966   6.51
        94   1     476.9868     84.37881  21.3585   0.1921    840.4951    491.5049     0.502     0.498  45.00
        95   1     1316.472     163.0782  20.2563   0.1345    762.1334    502.8134     1.439     1.154 -76.42
        96   1      3029.91     215.1246  19.3512   0.0771   1460.5060    514.6790     2.939     1.497  33.08
        97   1     475.8577     83.75607  21.3611   0.1911    863.7655    501.2173     1.013     0.848  77.90
        98   1     730.4922     114.8588  20.8957   0.1708   1178.6987    513.5327     1.119     0.911 -75.52
        99   1     451.2961     96.53259  21.4186   0.2323    642.0143    518.4864     0.821     0.500  -0.61
       100   1     300190.2     172.1362  14.3613   0.0006   1315.8365    587.6213     2.721     2.709 -12.88
       101   1      1343.57     88.61547  20.2341   0.0716    999.8557    539.9918     1.458     1.302 -16.36
       102   1     2025.947     110.2067  19.7882   0.0591   1041.7600    558.5293     1.726     1.463 -40.61
       103   1     538150.8     184.1838  13.7275   0.0004    483.2278    630.7018     2.938     2.877   5.71
       104   1      8738.34     136.5177  18.2012   0.0170    144.9193    580.0692     2.006     1.926  80.66
       105   1     6184.394     124.9028  18.5765   0.0219   1242.7043    572.2161     1.896     1.793  29.82
       106   1     8544.141     134.5866  18.2256   0.0171    319.2900    581.6140     2.056     1.960  84.88
       107   1     1607.325     140.6727  20.0395   0.0950     45.6481    570.6909     1.819     1.369  49.17
       108   1     192.6785     67.87428  22.3427   0.3826   1014.4709    558.4872     0.501     0.498  50.10
       109   1     1102.318      128.212  20.4490   0.1263   1337.1954    573.8704     1.471     1.086 -74.50
       110   1     1526.266     167.8244  20.0957   0.1194   1446.6495    570.3349     1.990     1.104 -12.10
       111   1      6779.96     294.4381  18.4767   0.0472    782.5542    596.4547     3.138     2.569 -65.84
       112   1     513.7671     86.82507  21.2779   0.1835     75.9971    583.8234     0.951     0.748  82.67
       113   1     2646.385     152.4598  19.4981   0.0626    542.7369   1001.2201     1.812     1.613 -86.68
       114   1     581.4873     87.42595  21.1434   0.1633    654.8246   1597.7439     1.242     0.630 -74.46
       115   1     227.1927     43.41254  22.1638   0.2075     18.3134   1599.6904     0.558     0.343  44.79
       116   1     225.9447     66.31374  22.1698   0.3187    157.4998   1576.4854     0.507     0.493  44.55
       117   1     3259.663     147.2191  19.2718   0.0490    134.9763   1541.2513     1.723     1.649  52.87
       118   1     968701.7     190.3343  13.0893   0.0002    183.9359    881.5797     3.041     2.966 -25.72
       119   1     1014.342     132.6275  20.5393   0.1420    538.6572    896.1798     1.596     1.272 -20.99
       120   1     104588.5     158.8501  15.5061   0.0016   1592.3890    880.0001     2.579     2.485  67.93
       121   1     701.6167     117.1156  20.9395   0.1813    326.2957    888.5492     0.996     0.689  31.43
       122   1     6172.142     289.0549  18.5787   0.0509    224.4544    878.1487     5.943     1.861  88.32
       123   1     682.1708     122.7892  20.9700   0.1955   1499.8888    885.5248     1.025     0.930   3.37
       124   1     418.0526     73.78712  21.5017   0.1917   1305.5269    886.5057     0.504     0.495 -47.06
       125   1     1292.495     150.7332  20.2762   0.1267   1176.9069    877.1157     1.476     0.943 -65.49
       126   1     469.0828      92.0919  21.3767   0.2132    960.7388    876.4882     1.145     0.537  68.84
       127   1      438.619     77.92789  21.4496   0.1929    543.2203    875.6602     0.752     0.447 -14.94
       128   1     263528.6     173.9514  14.5027   0.0007   1224.4209    858.9732     2.753     2.739  -4.68
       129   1     601.2621     89.20428  21.1071   0.1611    937.5118    867.4836     0.501     0.498 -43.88
       130   1     866.7788     134.1971  20.7100   0.1681   1156.7413    859.0778     1.455     0.735   5.56
       131   1     475.5912     84.99697  21.3617   0.1941   1340.0994    858.3289     0.848     0.602 -26.28
       132   1     2373.035     126.5682  19.6165   0.0579   1102.9994    869.0726     1.825     1.785   6.99
       133   1     530.1296     96.53259  21.2438   0.1978   1063.5879    844.8874     1.092     0.575  26.82
       134   1     921.2882     122.3621  20.6438   0.1442   1106.3450    842.8681     1.418     1.251 -12.89
       135   1     1930.528     173.3484  19.8406   0.0975   1247.5009    837.5648     1.522     1.464  76.40
       136   1      1341.78     133.0216  20.2356   0.1077    298.4919    836.3746     1.459     1.316 -47.33
       137   1     172.4647     56.04535  22.4630   0.3529    102.6929    832.0206     0.895     0.214  61.96
       138   1     5763.601     124.9028  18.6530   0.0235    654.3831    822.4543     2.010     1.887  60.36
       139   1     5250.181      131.438  18.7543   0.0272   1378.5323    802.8203     1.905     1.845  80.44
       140   1     15688.21     152.4598  17.5658   0.0106    695.6246    798.0511     2.676     2.132  87.04
       141   1     2378.049     118.8901  19.6142   0.0543     41.1826    800.0863     1.738     1.594  84.98
       142   1     2405.678     143.9831  19.6017   0.0650   1427.2468    773.9722     2.525     1.713  86.26
       143   1     1097.584     96.53259  20.4537   0.0955    391.8520    766.2651     1.502     1.218  61.13
       144   1     1280.499     104.8512  20.2863   0.0889    556.6754    742.2836     1.591     1.422 -32.48
       145   1     136.2135     25.06424  22.7192   0.1998   1025.6289    739.2838     0.570     0.335  40.93
       146   1     493.3715     95.44178  21.3218   0.2101   1157.4828    737.2999     1.078     0.817  55.05
       147   1     367598.1     178.7018  14.1413   0.0005    404.8293    723.6309     2.834     2.773 -29.16
       148   1     521.0524     102.3243  21.2626   0.2133    649.7789    735.8962     0.990     0.767  27.60
       149   1     62236.04     156.1913  16.0697   0.0027    848.3931    726.2197     2.486     2.436   9.61
       150   1      884.214     117.1156  20.6884   0.1438   1178.2947    726.7856     1.179     1.156  53.65
       151   1     370.6508     84.37881  21.6324   0.2472   1395.1797    720.5832     0.747     0.450 -19.75
       152   1     1030.018     110.2067  20.5227   0.1162    808.2141    715.3133     1.457     1.192  -2.95
       153   1     996.8657     94.89169  20.5582   0.1034   1163.8235    708.3893     1.459     1.172  76.09
       154   1      1678.14     176.0454  19.9927   0.1139   1338.8798    703.7200     1.915     1.487  58.94
       155   1     2040.659     101.2959  19.7804   0.0539    952.2445    702.1442     1.611     1.467 -41.71
       156   1     473.6942     81.21742  21.3660   0.1862    583.4164    699.2138     0.761     0.452  71.29
       157   1     841.0692     133.8064  20.7427   0.1728   1213.1519    687.0832     1.051     0.760  79.73
       158   1     2008.308     133.4146  19.7977   0.0721    644.3716    685.1599     1.616     1.437 -63.46
       159   1     2695.251     220.1757  19.4783   0.0887    472.0266    681.3788     1.720     1.263 -13.81
       160   1     1654.405     160.1629  20.0082   0.1051    544.0564    680.2807     2.175     1.319 -31.27
       161   1     61110.69     155.5195  16.0895   0.0028   1464.2292    648.0242     2.438     2.429 -82.81
       162   1     394.4141     74.49324  21.5649   0.2051    870.4225    654.3412     1.001     0.476 -81.46
       163   1     21276.53      263.274  17.2350   0.0134    682.1388   1552.1313     4.029     3.595 -11.09
       164   1     9707.164     145.4302  18.0870   0.0163    536.7762    639.2222     2.153     2.046  33.19
       165   1     712.6039     134.5866  20.9227   0.2051    653.3860    644.4535     1.539     0.624 -25.37
       166   1     496.7174      100.257  21.3145   0.2192    805.9020    630.8974     1.317     0.649 -18.33
       167   1     792.2063     94.33837  20.8077   0.1293   1581.1930    623.1654     1.169     1.109 -26.50
       168   1     866.7698     108.2899  20.7100   0.1357    586.5619    604.8732     1.257     1.117 -43.17
       169   1      1755.89     100.7778  19.9435   0.0623    654.4996   1541.9044     1.636     1.370 -86.72
       170   1     414.5878     86.22002  21.5107   0.2259   1000.4026    911.2211     0.744     0.454  71.65
       171   1     53918.02     150.3854  16.2254   0.0030    487.5990   1557.4763     2.428     2.382  72.45
       172   1     756.2748     74.49324  20.8581   0.1070    861.2052   1560.4519     1.353     1.039 -47.68
       173   1     903.3568     94.89169  20.6651   0.1141   1108.8656   1584.6049     1.251     1.143 -28.63
       174   1     1438.529     112.5568  20.1600   0.0850     92.4829   1569.9062     1.383     1.314  -9.49
       175   1     627.8173     101.2959  21.0602   0.1752    863.4920   1545.4729     1.075     0.499   0.17
       176   1     54035.16     147.9286  16.2231   0.0030    304.0516   1563.1940     2.354     2.291  19.62
       177   1     1444.093     141.7848  20.1558   0.1066    784.5759   1565.8108     1.744     1.420 -57.96
       178   1     250.9352     59.66483  22.0559   0.2582   1221.6764   1551.3223     0.568     0.338  44.94
       179   1     1825.621     120.2039  19.9013   0.0715     21.9316   1565.9939     1.520     1.364  76.93
       180   1     5532.066     119.3297  18.6976   0.0234    302.8015    899.9005     1.963     1.810  34.09
       181   1     789.3975     124.4829  20.8115   0.1713    798.3163    980.7253     1.282     0.986  25.80
       182   1     479.7196     88.02272  21.3523   0.1993    723.1745   1503.9285     0.960     0.740 -28.62
       183   1      7219.27     131.8357  18.4085   0.0198    392.6544   1514.2578     2.029     1.934 -56.78
       184   1     1584.404     138.0431  20.0551   0.0946   1066.8517    938.7362     1.672     1.491 -66.17
       185   1     29026.65     144.7085  16.8978   0.0054    269.2816   1506.6610     2.292     2.250   8.82
       186   1     910.7261     120.2039  20.6563   0.1433   1322.6416    928.1385     1.281     1.091  26.84
       187   1     749.5925     106.3386  20.8677   0.1541    838.8096    912.6265     1.382     0.831 -85.83
       188   1     26858.92     147.9286  16.9821   0.0060    558.4355    984.3732     2.378     2.293  72.41
       189   1     1770.771     187.2843  19.9344   0.1149    453.7447    986.4722     1.763     1.184 -32.90
       190   1     13691.53     134.9751  17.7137   0.0107   1178.3798    929.3648     2.186     2.096  59.65
       191   1      17724.8     147.9286  17.4333   0.0091   1379.8236   1025.4348     2.326     2.195  79.29
       192   1     965.4576     133.8064  20.5929   0.1505    654.0157    950.0663     1.327     0.754   0.14
       193   1     436352.1     178.4086  13.9552   0.0004     50.1989   1022.9980     2.843     2.806 -30.04
       194   1     194.7454     55.10334  22.3311   0.3073    121.3371   1036.6791     0.574     0.335  44.27
       195   1     933.4451     137.6633  20.6296   0.1602    329.6722   1079.2484     1.151     0.897  33.80
       196   1     334.5597     70.89238  21.7436   0.2301      7.6754   1061.6816     0.567     0.339 -44.69
       197   1     1095.656        140.3  20.4556   0.1391    727.3853   1060.0295     1.205     0.950   8.33
       198   1     714.2764     125.7382  20.9201   0.1912    349.8971   1411.0862     1.152     0.756 -70.30
       199   1     1128.826     146.5061  20.4232   0.1409   1562.6733   1064.9005     1.336     0.719 -71.30
       200   1     620.2537     102.3243  21.0734   0.1792    679.2947   1104.9955     0.739     0.689 -86.01
       201   1      3079.59     138.4218  19.3335   0.0488    224.6958   1434.5785     1.844     1.673  43.70
       202   1     2151.118       192.25  19.7231   0.0971   1219.0242   1071.5355     1.822     1.710  65.47
       203   1     2124.349     95.98873  19.7367   0.0491    619.1802   1439.2206     1.620     1.426   4.29
       204   1     1612.551     131.8357  20.0360   0.0888   1386.3202   1414.9738     1.565     1.257  63.84
       205   1     131346.2     161.1405  15.2587   0.0013   1090.2537   1433.9413     2.561     2.534  52.50
       206   1     16145.11     138.7995  17.5347   0.0093   1126.1588   1418.8267     2.242     2.145  68.50
       207   1     5955.717     124.0617  18.6174   0.0226    428.0912   1106.9894     2.033     1.865  39.80
       208   1     2087.938     139.9264  19.7555   0.0728    308.3306   1407.6844     1.645     1.548 -51.14
       209   1     1497.038     86.82507  20.1167   0.0630   1038.6752   1391.8768     1.439     1.305  48.61
       210   1     6912.363     141.0444  18.4557   0.0222   1428.3680   1388.4165     2.071     1.909  60.07
       211   1      634.364     74.49324  21.0489   0.1275   1031.0702   1400.0413     1.293     0.937 -18.34
       212   1     173952.5     171.8318  14.9537   0.0011    724.8958   1298.0389     2.708     2.660 -15.11
       213   1     736896.6     213.9044  13.3863   0.0003   1158.7950   1365.7566     3.930     2.893  15.32
       214   1     9563.819     134.1971  18.1032   0.0152    751.8412   1104.0637     2.113     2.074  23.24
       215   1     2333.743     131.0391  19.6346   0.0610    713.2720   1389.9965     1.727     1.453  29.41
       216   1       266.92     73.78712  21.9888   0.3002    330.4528   1405.5098     0.505     0.493  50.22
       217   1     73533.55     156.8602  15.8886   0.0023    114.4540   1392.8612     2.511     2.457 -77.22
       218   1     1634.458     179.2867  20.0213   0.1191    479.4358   1110.6648     1.934     1.115  30.02
       219   1     7724.028     133.4146  18.3352   0.0188   1018.8530   1372.1099     1.990     1.908  66.00
       220   1     942.4825     142.8882  20.6191   0.1646   1139.9509   1330.1202     1.650     0.717 -31.22
       221   1     2525.525     133.4146  19.5489   0.0574    669.2114   1307.2793     1.873     1.546 -26.65
       222   1     2815.363     183.3291  19.4309   0.0707   1035.6927   1307.4888     2.212     1.628 -22.64
       223   1     6248.292     150.0369  18.5654   0.0261    761.9831   1291.0103     2.177     1.886 -36.37
       224   1     137.6538     35.44619  22.7078   0.2796    544.3337   1290.6869     0.569     0.338  44.00
       225   1     217.9952     53.16928  22.2087   0.2649    387.0521   1330.3043     0.908     0.211 -27.56
       226   1     27724.51     150.4657  16.9476   0.0059    659.9771   1319.6675     2.335     2.288 -59.73
       227   1     712.3745     77.25317  20.9230   0.1178    107.4654   1331.8578     1.456     1.056 -45.16
       228   1     764.8901     121.5034  20.8458   0.1725    264.3366   1318.9254     1.005     0.850  34.92
       229   1     3562.081     121.0718  19.1755   0.0369   1331.2185   1277.7061     1.874     1.678  21.58
       230   1     679.1429     108.2899  20.9749   0.1732    892.9080   1303.9287     1.292     0.766 -83.49
       231   1     1406.217     116.2181  20.1847   0.0898   1553.3053   1236.6970     1.445     1.336  -1.58
       232   1     3062.048     107.4491  19.3398   0.0381    656.0066   1329.3556     1.820     1.728  67.06
       233   1      1329306     313.2195  12.7457   0.0003    995.1570   1221.1470     5.115     4.783 -20.07
       234   1      1379.11     115.7209  20.2058   0.0911    741.8918   1293.1106     1.687     1.333 -46.10
       235   1     231.4064     57.88338  22.1438   0.2716    673.7078   1113.3611     0.570     0.336  48.23
       236   1     2777.174     119.7676  19.4458   0.0468    807.6886   1265.0039     1.734     1.654  58.97
       237   1     924.9619     127.3928  20.6395   0.1496    412.4548   1293.2135     1.495     0.894  86.74
       238   1     12052.53     220.4134  17.8521   0.0199    610.1691   1272.2166     3.868     2.551 -48.70
       239   1     1786.579     180.1606  19.9247   0.1095    431.8989   1259.2909     1.643     1.228  30.24
       240   1     2193.139     110.6807  19.7021   0.0548    304.5956   1233.8926     1.657     1.489  31.96
       241   1     13660.39     150.3854  17.7161   0.0120    513.1346   1214.2056     2.257     2.121 -47.07
       242   1     28946.79     153.8272  16.9008   0.0058    148.1200   1138.0374     2.431     2.395  57.83
       243   1     767.9462     139.1761  20.8415   0.1968   1353.2083   1153.6528     1.214     0.828   3.41
       244   1     1497.612     185.3172  20.1163   0.1344   1429.0969   1211.9081     1.813     1.390  78.32
       245   1     581.5695     108.2899  21.1433   0.2022    673.0563   1242.0166     1.090     0.873 -61.88
       246   1     911.0635     121.5034  20.6559   0.1448    599.8439   1229.8711     1.261     0.609 -48.54
       247   1     12430.02     251.8925  17.8186   0.0220   1278.8016   1210.0942     4.980     3.158  88.32
       248   1     8559.364     147.9286  18.2237   0.0188   1194.7986   1218.5443     2.072     2.004  -4.67
       249   1     1441.906     134.5866  20.1574   0.1014   1075.9449   1203.0359     1.474     1.365 -20.20
       250   1     520.5964     75.88576  21.2635   0.1583    887.7305   1160.6951     1.154     0.833  89.67
       251   1     8001.807     151.0801  18.2968   0.0205    525.4789   1038.1732     2.108     2.021 -48.21
       252   1     848.9683      143.619  20.7326   0.1837   1441.8871   1200.6940     1.428     0.876  44.78
       253   1     731.6163     121.5034  20.8941   0.1804    219.4273   1129.8171     1.362     0.879  39.16
       254   1     1605.782     142.8882  20.0406   0.0966    339.2401   1201.4369     1.688     1.359  -9.48
       255   1      518.749     105.3493  21.2674   0.2205    547.1807   1128.0908     0.973     0.946 -69.87
       256   1     1392.095     164.6754  20.1956   0.1285    124.1461   1194.0786     1.340     1.252 -33.15
       257   1     560.7811     107.3187  21.1828   0.2078    549.5587   1180.8180     1.049     0.937  79.61
       258   1     5941.283     203.6228  18.6201   0.0372    758.3497   1172.4075     3.116     2.726 -36.72
       259   1     5255.053     139.9264  18.7533   0.0289    236.5813   1157.3176     1.936     1.902 -70.76
       260   1     45645.34     153.4865  16.4063   0.0037   1299.7312   1164.8154     2.486     2.361  40.41
       261   1     14448.99     138.4218  17.6552   0.0104    183.6655   1129.5752     2.191     2.180  50.74
       262   1     144.3247     43.41254  22.6564   0.3267    397.7130   1119.3601     0.567     0.337  48.55
       263   1     1129.945     115.7668  20.4221   0.1113     99.7014   1150.5140     1.491     1.330 -43.16
       264   1     675674.1     186.4438  13.4804   0.0003    693.8820   1151.3230     2.952     2.908 -19.51
       265   1     1419.583     104.3508  20.1744   0.0798    838.8038   1206.8835     1.324     1.310 -29.50
       266   1     9002.786     149.3374  18.1688   0.0180   1148.1636   1081.3711     2.150     1.997  64.42
       267   1     2801.131     203.8798  19.4364   0.0790    329.8071   1119.9270     2.341     1.684  55.72
       268   1     2444.499      129.835  19.5843   0.0577    642.6440   1088.9584     1.706     1.569  19.59
       269   1     27215.75     147.2191  16.9677   0.0059    778.1498   1094.6410     2.386     2.285  75.88
       270   1     731.1659     113.0209  20.8947   0.1679   1527.0699   1094.8972     1.182     0.964 -16.66
       271   1     39175.68     154.8448  16.5722   0.0043    633.0207   1039.8993     2.481     2.377  40.28
       272   1     30398.66     149.3374  16.8476   0.0053    512.2228   1079.5072     2.386     2.317   7.49
       273   1     518.3141     94.33837  21.2683   0.1977   1471.9790   1066.9757     0.852     0.488 -42.32
       274   1     2199.409     212.6771  19.6990   0.1050    302.5814   1029.6738     1.747     1.560  47.82
       275   1     15073.57     142.1535  17.6092   0.0102    813.7350   1009.4149     2.229     2.126  84.07
       276   1      967.144     139.5518  20.5911   0.1567   1274.2612    999.7607     1.566     0.935  -7.18
       277   1     2459.382     151.4262  19.5777   0.0669    344.9109   1010.7822     1.641     1.561   8.81
       278   1      1232.33     138.7995  20.3280   0.1223   1555.3735   1001.8608     1.855     1.153  74.32
