#   1 KRON_RADIUS            Kron apertures in units of A or B                         
#   2 MAGERR_APER            RMS error vector for fixed aperture mag.                   [mag]
#   3 Y_IMAGE                Object position along y                                    [pixel]
#   4 X_IMAGE                Object position along x                                    [pixel]
#   5 THETA_IMAGE            Position angle (CCW/x)                                     [deg]
#   6 FLUX_APER              Flux vector within fixed circular aperture(s)              [count]
#   7 A_IMAGE                Profile RMS along major axis                               [pixel]
#   8 B_IMAGE                Profile RMS along minor axis                               [pixel]
#   9 FLUX_RADIUS            Fraction-of-light radii                                    [pixel]
#  10 FLUXERR_APER           RMS error vector for aperture flux(es)                     [count]
#  11 MAG_APER               Fixed aperture magnitude vector                            [mag]
#  12 NUMBER                 Running object number                                     
 3.50   0.0000    181.0222   1105.8365 -40.31     652229.9     6.539     5.885      7.135  0.006056265  13.5140          1
 3.68   0.0000     52.4050     61.7681  -2.27      27051.6     6.359     5.786     12.859   0.00605695  16.9695          2
 3.50   0.0000     58.9521   1076.9418  81.32     40033.42     2.093     1.972      3.147  0.006054895  16.5439          3
 3.50   0.0000     15.7237    983.4587 -87.90     4398.915     4.509     1.979      7.090  0.006053524  18.9416          4
 3.50   0.0000     17.0120     89.4810 -42.63     4215.993     1.663     1.619      3.025   0.00605695  18.9877          5
 3.50   0.0000     13.8143   1444.2383 -42.28     11056.43     1.721     1.697      2.556  0.006057635  17.9410          6
 3.64   0.0000     16.2665    382.9738  86.43     358.9652     1.231     1.191      2.715  0.006056265  21.6624          7
 4.95   0.0000     13.1674    839.5089 -76.27      144.862     1.479     0.949      4.956  0.006052839  22.6476          8
 3.64   0.0000      9.2333   1182.3411 -70.45     164.6473     1.026     0.964      2.576   0.00605695  22.5086          9
 4.21   0.0001      5.6605   1467.9125   8.54       63.633     1.152     0.903      2.979  0.005741143  23.5408         10
 4.51   0.0000      3.6078    143.2684  59.55     138.7154     1.696     1.490      4.008  0.005265407  22.6947         11
 5.88   0.0001      3.6479    183.5916 -38.45     39.51444     1.080     0.962      4.454  0.005279572  24.0581         12
 6.99   0.0003      2.5114    843.4935  44.82     17.98779     0.507     0.493      3.041  0.004948555  24.9126         13
 6.37   0.0005      1.8622    302.3619  20.33     11.10842     0.906     0.677      5.000  0.004750925  25.4359         14
 3.91   0.0000     23.8545    365.4416  -3.18     803.2924     1.390     1.345      2.863  0.006054895  20.7878         15
 4.93   0.0001     14.8386   1561.6169 -19.92     96.63051     0.905     0.686      2.419  0.006057635  23.0872         16
 4.67   0.0001     17.1879   1213.4882  -0.33     75.93632     0.921     0.725      2.777  0.006056265  23.3489         17
 7.39   0.0001     15.4944    192.9995 -32.51     56.32602     0.786     0.318      2.352  0.006053524  23.6732         18
 4.18   0.0000     33.0747   1108.5681  65.68     370.8045     2.036     1.213      3.668   0.00605421  21.6271         19
 3.82   0.0000     23.0219    381.4543   6.25      242.438     1.319     1.170      3.087   0.00605832  22.0885         20
 5.46   0.0001     22.9778    696.8055  -3.26     126.5922     0.886     0.748      2.817  0.006054895  22.7940         21
 7.61   0.0002     20.6041    212.2110 -18.94     39.25513     0.744     0.450      2.719  0.006052839  24.0653         22
 6.44   0.0001     23.9324   1451.8411 -46.75     53.37595     0.843     0.652      3.195   0.00605558  23.7316         23
 4.88   0.0000     32.3874    325.0325 -26.40     236.4095     1.486     1.262      3.828  0.006056265  22.1158         24
 7.47   0.0001     26.2151    701.0262  -0.99     117.1728     0.703     0.411      3.610   0.00605558  22.8779         25
 6.50   0.0001     33.5743     14.7714 -89.15     101.4512     0.947     0.712      3.325  0.006056265  23.0344         26
 3.57   0.0000     37.0450   1519.9745 -74.77     226.6376     1.093     1.076      2.406   0.00605832  22.1617         27
 4.28   0.0000     38.0067   1169.0526  23.11     197.8819     1.223     1.198      2.739  0.006060374  22.3090         28
 3.71   0.0000     41.6028    913.7512 -64.32     236.0387     1.133     1.039      2.815  0.006059689  22.1175         29
 3.50   0.0000     79.0617    535.8607 -66.40     35687.66     1.966     1.931      3.489   0.00605421  16.6687         30
 4.97   0.0000     43.5270    438.5287 -52.86     211.3683     1.481     1.242      4.702  0.006050096  22.2374         31
 4.10   0.0001     38.6270   1224.5396 -37.16     95.82162     1.156     0.777      2.725   0.00605695  23.0963         32
 4.55   0.0000     49.4868    263.5109  89.83      151.114     1.455     1.089      3.620  0.006051467  22.6017         33
 4.50   0.0001     41.5007    999.9727  -1.62     44.00425     0.790     0.500      2.867  0.006051468  23.9413         34
 7.08   0.0001     42.5779    226.7772  19.95       46.445     0.748     0.450      3.201   0.00605558  23.8827         35
 7.84   0.0001     45.7927    473.3825 -71.71     48.24866     0.746     0.449      3.039  0.006053524  23.8413         36
 4.11   0.0000     49.4914   1433.9777  -4.26     261.1784     1.069     0.925      3.624  0.006053524  22.0077         37
 5.09   0.0001     46.7959   1429.1587  44.33     63.99654     0.809     0.669      2.398  0.006057635  23.5346         38
 5.94   0.0001     46.8517    664.8470 -43.30     119.8296     0.825     0.669      3.552  0.006057635  22.8536         39
 6.42   0.0001     50.4846    119.9498   0.88     99.21031     0.780     0.500      3.142  0.006052839  23.0586         40
 3.52   0.0000     74.1052    126.4799 -19.14      1749.63     1.475     1.433      2.746  0.006050782  19.9426         41
 7.34   0.0002     57.4917   1240.0228 -32.67     29.23735     0.781     0.319      2.919  0.006053524  24.3852         42
 4.98   0.0001     64.9824   1146.2659   9.37     126.3738     1.374     1.141      3.180   0.00605695  22.7959         43
 7.06   0.0001     68.4563     17.7707  88.90     112.6254     0.996     0.721      4.188  0.006057635  22.9209         44
 6.44   0.0002     66.8790   1414.1798 -28.14     35.45574     0.963     0.744      2.971  0.006056265  24.1758         45
 6.93   0.0002     65.5014   1514.5054 -45.69     35.49931     0.501     0.499      2.802  0.006048725  24.1744         46
 5.53   0.0001     70.7447   1320.8502 -68.46     71.33012     0.911     0.682      2.838   0.00605558  23.4168         47
 3.50   0.0000    120.9251    787.4896 -59.16     53124.27     2.018     1.992      3.190  0.006050782  16.2368         48
 3.90   0.0000     81.3288    419.7149 -76.83     316.4682     1.520     1.278      3.333  0.006050782  21.7992         49
 3.94   0.0000     89.6612    375.3916 -19.36     665.5268     2.301     2.014      5.559  0.006059689  20.9921         50
 8.71   0.0000     75.8810     80.4187 -26.69     207.8606     1.370     0.840      8.220   0.00605695  22.2556         51
 4.79   0.0001     78.7909   1031.8494 -33.64     55.92903     0.892     0.849      2.690   0.00605832  23.6809         52
 3.50   0.0000    192.5951    316.2862 -64.39     181236.7     2.878     2.293      3.652  0.006054895  14.9044         53
 3.50   0.0000     95.5876     54.3806 -29.57     2567.663     1.614     1.584      2.938   0.00605421  19.5262         54
 5.86   0.0001     87.0195   1358.1309 -88.30     89.77996     0.995     0.847      3.347  0.006059005  23.1671         55
 5.84   0.0000     87.4903    757.1628  35.83     197.4688     1.165     1.017      4.352  0.006052153  22.3113         56
 6.63   0.0000     82.9746    930.8279  20.66     152.1102     1.160     0.723      4.926  0.006056265  22.5946         57
 6.93   0.0001     86.4810    862.1655 -47.77     109.8692     1.108     0.733      4.139  0.006054895  22.9478         58
 6.86   0.0001     85.0348   1559.2076  52.97     49.74208     0.930     0.470      3.770  0.006056265  23.8082         59
 6.00   0.0001     90.8526   1043.8802  55.00     61.16666     1.397     0.799      3.280  0.006051468  23.5837         60
 3.82   0.0000     90.7001    494.0876   0.64     234.0439     1.105     1.019      2.743  0.006048038  22.1268         61
 4.28   0.0000     97.1019    451.1805 -12.65     473.5094     1.924     1.255      4.552  0.006052153  21.3617         62
 5.06   0.0001     94.6267   1074.8350  39.51     103.4346     1.336     1.126      2.755  0.006056265  23.0133         63
 7.44   0.0001     85.3500    923.3128 -46.64     68.35255     0.575     0.334      2.551  0.006052153  23.4631         64
 6.97   0.0001     87.8495    810.6924 -59.25     52.44099     0.869     0.590      3.268  0.006051468  23.7508         65
 6.33   0.0000     94.0801    387.5246  89.88     143.5057     0.774     0.499      2.917  0.006053524  22.6578         66
 4.03   0.0000    233.9082    401.8713 -47.20     24543.12     8.632     7.090     18.089  0.006051468  17.0752         67
 6.55   0.0001    101.8555    517.3245  20.24     91.40892     0.933     0.683      3.964  0.006052839  23.1475         68
 5.90   0.0000    112.7964    268.6332  80.50     145.8476     1.522     1.118      4.377   0.00605695  22.6403         69
 4.71   0.0001    107.3404    861.3599  41.75     84.90531     0.979     0.859      2.549  0.006056265  23.2277         70
 6.49   0.0006    106.1678   1098.1515 -41.98     10.94033     0.806     0.676      2.709  0.006057635  25.4524         71
 6.85   0.0001    106.9845   1420.9861 -44.46     55.29504     0.881     0.534      2.804   0.00605558  23.6933         72
 7.78   0.0001    106.4694    180.4571 -48.20     64.57468     0.503     0.495      3.016  0.006052839  23.5248         73
 5.35   0.0000    114.2177    414.3000 -75.12     140.7986     1.174     0.927      3.187  0.006052153  22.6785         74
 5.05   0.0002    109.9821   1513.4705   1.43     39.96712     0.806     0.687      2.273   0.00605832  24.0457         75
 3.50   0.0001    116.1276    989.3898 -72.21     80.27268     1.139     0.958      2.746   0.00605832  23.2886         76
 4.15   0.0000    116.6369    152.4058  53.02     134.0921     1.006     0.952      3.109  0.006056265  22.7315         77
 5.52   0.0000    116.3723     65.2133   7.35     178.8839     1.480     0.950      3.289  0.006056265  22.4186         78
 3.50   0.0000    161.4548   1466.8241 -54.44     32927.45     1.934     1.900      2.969   0.00605832  16.7561         79
 5.02   0.0000    125.2403    492.5927  -6.86     142.2303     1.464     1.092      4.176   0.00605695  22.6675         80
 8.11   0.0001    117.6457    911.6918 -47.04     78.81706     0.575     0.334      2.980  0.006050782  23.3084         81
 4.68   0.0000    130.2387    416.2955 -27.12     148.6835     1.014     0.997      2.999  0.006050782  22.6193         82
 4.35   0.0001    127.1574   1476.9080  43.78     63.79746     0.822     0.651      2.739  0.006050096  23.5380         83
 5.12   0.0001    128.0846    884.0657 -58.07     109.5959     0.780     0.779      2.871  0.006050782  22.9505         84
 5.84   0.0000    141.3550    884.3093  52.16      141.512     2.131     0.964      4.416  0.006051468  22.6730         85
 8.30   0.0002    134.6447     97.6783 -46.36      42.0784     0.581     0.330      2.936  0.006052839  23.9899         86
 5.23   0.0000    145.7969    352.2505 -48.50     230.7437     1.407     1.153      3.155  0.006059689  22.1422         87
 0.00  99.0000    138.1987   1599.6450 -72.96  -0.01438025     0.752     0.444      4.510  0.004581989  99.0000         88
 3.50   0.0000    169.2841    875.6372 -78.34     9927.326     1.768     1.723      2.951  0.006054895  18.0579         89
 3.99   0.0000    150.7436   1278.8497  28.32     198.2014     1.078     1.029      2.549  0.006054895  22.3072         90
 4.29   0.0000    164.2198   1444.2903  61.79      682.488     1.450     1.305      2.315  0.006054895  20.9648         91
 3.87   0.0000    154.5441     80.6298 -48.01     139.4493     1.066     0.917      2.865  0.006057635  22.6890         92
 6.00   0.0001    155.1815   1578.5652   5.70      73.1589     0.898     0.727      2.736  0.006056265  23.3893         93
 7.51   0.0002    154.5055    822.5117  46.03     35.55133     0.501     0.498      3.008   0.00604941  24.1729         94
 3.50   0.0000    165.7383    102.5978 -37.77       586.59     1.311     1.165      2.922  0.006059689  21.1292         95
 4.87   0.0001    165.0086    574.7706  86.48     121.6796     1.251     0.963      3.169  0.006056265  22.8370         96
 7.70   0.0001    165.8022   1054.6754 -60.40     89.90557     1.211     1.000      2.697  0.006057635  23.1655         97
 8.26   0.0001    159.3821    491.2143  17.93     71.03211     0.756     0.448      3.871   0.00605558  23.4214         98
 5.10   0.0002    164.3577   1196.5062  18.24     36.84126     0.945     0.817      3.012  0.006050096  24.1342         99
 4.96   0.0001    167.8831    649.7219  36.86     125.3652     1.237     1.028      2.985  0.006052153  22.8046        100
 5.03   0.0000    168.4620   1367.5079  -4.70     173.5872     1.259     0.968      2.539  0.006053524  22.4512        101
 6.77   0.0001    174.8292   1198.9620 -74.73     56.94004     1.100     0.850      3.526   0.00605695  23.6615        102
 4.54   0.0000    179.3327    573.3319  24.33     361.9293     1.714     1.330      4.275  0.006051468  21.6534        103
 5.66   0.0000    185.8885   1353.4348 -69.02     288.2813     1.580     1.377      3.081   0.00605421  21.9005        104
 4.12   0.0000    191.7545   1349.0994  -8.69     910.7353     1.394     1.366      2.517  0.006048725  20.6515        105
 6.94   0.0002    189.5625   1026.0391  51.22     42.97115     1.298     1.107      2.155   0.00605832  23.9671        106
 8.39   0.0001    182.3929     58.7790 -19.01     88.03563     0.766     0.444      3.112  0.006054895  23.1884        107
 3.61   0.0000    209.8589    826.0873  -7.87     3023.046     4.937     2.269      9.571  0.006052839  19.3489        108
 3.95   0.0000    229.0334    560.6039 -26.64     2637.047     3.951     3.606      9.703   0.00605695  19.4972        109
 7.27   0.0001    186.4370    834.3389  -8.75      59.0591     0.995     0.478      4.403  0.006056265  23.6218        110
 5.73   0.0000    194.2279    266.1493  -2.74     210.1832     1.598     1.112      4.373  0.006057635  22.2435        111
 3.50   0.0000    258.9285    995.8074 -39.84     86268.59     2.157     2.062      3.276   0.00605832  15.7104        112
 5.33   0.0000    207.8602    348.2912  42.92     893.7075     2.172     1.551      3.658  0.006052153  20.6720        113
 3.50   0.0000    205.7459    547.4401  30.29     1810.165     1.440     1.435      2.538  0.006054895  19.9057        114
 7.23   0.0390    193.8830   1158.3497  19.93     0.168671     0.901     0.693      5.408  0.006052839  29.9824        115
 4.67   0.0000    202.5069    249.0628 -82.07     235.9253     1.245     1.125      2.803  0.006052839  22.1181        116
 6.30   0.0001    195.0164    447.8040  -1.57     123.9739     0.905     0.757      4.655  0.006053524  22.8167        117
 3.50   0.0000    211.3949   1304.6354 -22.74     1704.879     1.484     1.447      2.432  0.006056265  19.9708        118
 3.50   0.0000    264.9597     65.7597 -32.49        65206     2.095     2.035      3.467   0.00605832  16.0143        119
 4.14   0.0000    209.9293    683.1187 -66.62     426.9844     1.588     1.287      3.226  0.006051468  21.4740        120
 5.97   0.0000    205.0531    940.3129  79.60     156.7211     0.730     0.683      3.493  0.006051468  22.5622        121
 6.18   0.0000    204.7234    935.2993 -17.45     181.1866     1.044     0.660      2.617   0.00604941  22.4047        122
 5.76   0.0001    204.9661    182.0299 -44.92     88.70627     0.793     0.788      3.193  0.006056265  23.1801        123
 6.06   0.0000    221.6865    344.0318  25.49     532.5013     2.076     1.969      3.950   0.00605558  21.2342        124
 3.64   0.0000    208.3053   1224.1161  17.48     134.1336     1.017     0.915      2.426  0.006048038  22.7312        125
 3.50   0.0000    223.2675   1224.5825 -89.29     2077.519     1.447     1.430      2.147  0.006057635  19.7561        126
 6.36   0.0001    216.6158    881.3004 -56.94      91.0052     1.809     0.740      4.087  0.006053524  23.1523        127
 6.23   0.0000    216.7369    739.7720 -48.77      187.891     1.484     1.052      4.854  0.006056265  22.3652        128
 3.50   0.0000    311.2113    437.7717 -43.93     219625.3     2.528     2.337      3.771   0.00605695  14.6958        129
 3.50   0.0000    221.6353    773.3149 -28.64     667.9725     1.304     1.232      2.584   0.00605558  20.9881        130
 7.25   0.0001    213.9205    791.8632 -44.17     74.19753     0.851     0.667      3.230  0.006051468  23.3740        131
 8.64   0.0001    220.8395    373.6221  32.45     110.9124     1.683     0.981      9.376   0.00605695  22.9375        132
 7.72   0.0000    226.6158    323.3230 -86.04      145.037     1.792     0.855      8.911  0.006057635  22.6463        133
 4.09   0.0000    243.0104    111.1028 -84.61     1129.754     2.358     1.744      4.793  0.006052839  20.4175        134
 4.02   0.0000    254.5417    611.2194 -43.66     2881.158     2.738     2.260      5.466  0.006057635  19.4011        135
 7.73   0.0001    220.6618   1401.3055  46.61     47.44864     0.567     0.338      2.912  0.006052153  23.8594        136
 6.32   0.0000    229.1916    546.3879 -64.50     135.6008     1.265     1.034      4.249  0.006052839  22.7193        137
 4.00   0.0000    238.3424    837.3022  -9.76     361.2383     1.711     1.461      3.112  0.006050782  21.6555        138
 3.60   0.0001    232.0458   1551.7197 -75.01     71.38023     0.719     0.670      2.097  0.006052839  23.4161        139
 5.39   0.0001    238.9705   1477.4504 -68.12     78.70589     1.289     0.924      2.642  0.006057635  23.3100        140
 5.53   0.0000    251.0242   1371.4264  88.51     387.1448     1.875     1.660      3.116  0.006056265  21.5803        141
 5.00   0.0000    249.4536    105.7782 -15.15     387.5757     1.367     1.268      6.075  0.006057635  21.5791        142
 6.38   0.0001    247.8134   1412.9871  26.31     86.19324     1.222     0.976      3.236   0.00605421  23.2113        143
 3.56   0.0000    252.4222   1351.3031 -18.77     235.2846     1.077     1.070      2.587  0.006052839  22.1210        144
 4.93   0.0000    248.0549    561.1425 -45.10     135.3723     0.823     0.656      2.524  0.006053524  22.7212        145
 5.40   0.0001    250.4485   1549.2814 -84.04     105.2924     0.998     0.957      3.034  0.006052839  22.9940        146
 3.50   0.0000    286.7189   1484.9951 -39.03     19669.14     1.874     1.841      2.758   0.00605558  17.3155        147
 6.17   0.0001    248.9496    149.9729  73.74     89.33356     0.793     0.788      2.881  0.006057635  23.1725        148
 6.83   0.0001    252.4687    693.5012  40.35     66.69236     0.503     0.496      2.509  0.006052839  23.4898        149
 3.50   0.0000    281.0660   1520.9102  76.99     4815.267     1.639     1.588      2.583  0.006053524  18.8434        150
 6.41   0.0001    264.1126    722.8807 -57.13     123.3916     1.243     0.947      4.484  0.006051468  22.8218        151
 3.50   0.0000    350.4285    889.1489 -49.01     196495.6     2.387     2.221      3.447  0.006057635  14.8166        152
 3.50   0.0000    317.8304    903.7720 -63.35     45803.75     2.038     1.981      3.300   0.00605695  16.3977        153
 5.46   0.0000    264.5226    122.0393  -1.21      168.692     1.080     0.952      3.233   0.00605421  22.4823        154
 4.90   0.0000    270.1254   1272.1100   7.57     332.1343     1.506     1.316      2.515  0.006050782  21.7467        155
 6.48   0.0001    261.2282   1207.9971   0.13     57.40781     0.689     0.420      2.707   0.00605421  23.6526        156
 6.80   0.0001    267.1037   1386.8289  48.46     47.34528     0.839     0.668      2.902  0.006052153  23.8618        157
 7.58   0.0001    268.0160    368.0384   0.94      84.5637     1.012     0.733      3.736  0.006057635  23.2320        158
 3.50   0.0000    350.4937   1344.3156 -36.91     187426.5     2.394     2.229      3.326  0.006048725  14.8679        159
 3.50   0.0000    302.1434    199.9518 -79.73     15669.88     1.813     1.801      3.149   0.00605558  17.5623        160
 6.87   0.0002    268.3021   1308.6689  43.48     32.37346     0.562     0.341      2.528  0.006052839  24.2745        161
 3.50   0.0000    288.8237    513.3386  27.69     1515.831     1.893     1.834      3.289  0.006057635  20.0984        162
 6.27   0.0002    270.4909   1248.9762   1.18      40.1453     0.770     0.500      2.543  0.006053524  24.0409        163
 4.38   0.0000    296.6169   1412.0374 -41.70     702.5027     3.597     1.650      7.188  0.006057635  20.9334        164
 7.97   0.0001    275.9687   1376.4888  89.22     87.20403     0.794     0.500      3.402  0.006053524  23.1987        165
 6.89   0.0001    274.5126   1369.0352   0.02     45.54568     0.780     0.500      2.511  0.006053524  23.9039        166
 3.50   0.0000    293.0799   1326.0524  -7.85     2018.057     1.499     1.464      2.487  0.006052153  19.7877        167
 4.57   0.0000    292.5134   1474.2167 -17.53     646.6131     1.626     1.395      2.569   0.00605558  21.0234        168
 6.58   0.0001    278.4937    555.5334  -0.01     76.35512     1.063     0.500      3.577  0.006053524  23.3429        169
 7.55   0.0001    287.1521    413.4819  13.30     107.2892     1.036     0.857      3.974  0.006053524  22.9736        170
 7.25   0.0001    285.3535    336.7982  67.10     58.09267     0.735     0.659      3.168  0.006059005  23.6397        171
 4.92   0.0000    291.3463    246.8294 -26.38      150.721     1.209     1.045      2.824  0.006057635  22.6046        172
 6.45   0.0001    286.9872   1349.7050 -88.74     47.14928     0.744     0.675      2.817   0.00605421  23.8663        173
 3.50   0.0000    301.2831    561.9075  57.68     845.0479     1.420     1.390      2.846  0.006052153  20.7328        174
 5.46   0.0000    307.6686     83.4995  76.55      274.584     1.953     1.350      4.396  0.006052153  21.9533        175
 6.42   0.0001    294.5245    885.6899 -11.71     104.6509     0.953     0.939      2.843  0.006050782  23.0006        176
 3.50   0.0000    321.1589    695.6109  55.20      11341.9     1.707     1.700      2.872  0.006056265  17.9133        177
 3.50   0.0000    345.4642    865.4515  53.74     6941.029     2.524     2.088      2.736   0.00605421  18.4464        178
 3.59   0.0000    320.7474    639.8264 -63.05     675.0927     2.503     1.668      4.879  0.006057635  20.9766        179
 7.28   0.0000    310.3055    315.7304  75.59     170.1251     1.350     0.931      7.331  0.006052153  22.4731        180
 4.10   0.0000    326.5276    593.7271   4.50     1478.868     2.087     1.959      3.159  0.006051468  20.1252        181
 3.86   0.0001    308.7935    983.5371  25.15     89.42388     0.966     0.956      2.913  0.006059005  23.1714        182
 5.26   0.0000    315.9427    225.0871  -1.04     225.7477     1.236     0.852      3.614  0.006052839  22.1659        183
 6.01   0.0003    312.7872   1494.9622  -1.51     24.62231     0.688     0.409      2.713  0.006057635  24.5717        184
 5.10   0.0000    323.8518    954.0250  24.36     176.2942     1.570     1.202      3.267   0.00605832  22.4344        185
 4.55   0.0000    328.4711   1544.5985 -22.93      346.843     1.198     1.133      2.549   0.00605832  21.6997        186
 7.60   0.0001    320.5096    574.5020  44.12     62.87414     0.501     0.499      3.008   0.00604941  23.5538        187
 3.60   0.0000    331.2683     91.5539 -37.81     425.8261     1.251     1.148      2.915  0.006054895  21.4769        188
 5.25   0.0000    323.9714    340.2361   1.18     143.3828     0.899     0.741      2.824  0.006056265  22.6588        189
 3.50   0.0000    354.8637    430.0891  84.22     4986.548     2.035     1.846      2.944  0.006052839  18.8055        190
 4.51   0.0000    334.1932   1438.9866 -61.97     354.2235     1.187     1.115      2.506  0.006051468  21.6768        191
 7.95   0.0001    328.3133    242.3292 -44.21     78.19637     0.567     0.339      2.797  0.006050782  23.3170        192
 7.57   0.0001    335.0217    621.7671  89.09      63.7487     0.704     0.423      3.152  0.006056265  23.5388        193
 5.84   0.0000    338.5684    804.0828 -10.93     138.5135     2.019     0.865      9.593  0.006054895  22.6963        194
 6.27   0.0001    336.1012    811.3517 -21.42     84.42551     1.121     0.659      6.728  0.006047352  23.2338        195
 7.84   0.0001    335.5740    609.2935   7.76     63.89917     0.983     0.481      4.214  0.006053524  23.5363        196
 3.64   0.0000    349.0482     52.9581 -34.75     960.9187     1.397     1.349      2.789   0.00605695  20.5933        197
 3.50   0.0000    367.2421    759.4966 -16.46      11394.8     1.788     1.731      2.864  0.006050096  17.9082        198
 3.50   0.0000    366.4039    441.0595  60.32     4100.852     1.703     1.614      2.835  0.006059689  19.0178        199
 6.04   0.0001    340.0346   1502.2819 -85.56     55.13262     0.729     0.670      2.384  0.006054895  23.6965        200
 3.50   0.0000    394.2231    229.6339 -61.52     39785.48     2.001     1.944      3.387  0.006056265  16.5507        201
 7.16   0.0001    349.2558    918.5583 -43.59      123.859     1.419     1.262      8.512   0.00605421  22.8177        202
 5.32   0.0000    347.1980     40.6213 -70.01     137.1581     1.034     0.913      3.030  0.006054895  22.7069        203
 3.50   0.0000    360.3920   1498.8724 -13.07     1923.293     1.705     1.432      2.625   0.00605695  19.8399        204
 4.36   0.0000    374.3014    752.1323  56.57     374.3788     2.498     1.457      4.417  0.006052839  21.6167        205
 4.77   0.0000    358.7290    531.6100 -31.96       295.79     1.382     1.241      2.972  0.006059005  21.8725        206
 3.63   0.0000    359.6933   1032.4904 -13.85     455.5974     1.267     1.224      2.470  0.006050782  21.4035        207
 5.23   0.0000    362.5005   1414.1726 -86.10     132.7512     1.351     1.231      2.549  0.006051468  22.7424        208
 5.94   0.0001    355.0646   1396.9675  60.64     46.18466     0.773     0.771      2.801  0.006056265  23.8888        209
 8.72   0.0001    352.5162   1578.9824 -32.66     83.93875     0.781     0.319      2.655  0.006056265  23.2401        210
 6.61   0.0001    360.5316    368.4804  79.14     102.6649     0.947     0.897      3.083  0.006051467  23.0214        211
 4.38   0.0000    369.5655     69.7675 -54.66     221.2646     1.395     1.220      3.090  0.006057635  22.1877        212
 5.83   0.0000    368.2738    208.4582 -81.93     138.8297     1.185     0.992      3.280  0.006052839  22.6938        213
 3.66   0.0000    371.8491    990.9427 -12.33     508.5038     1.288     1.225      2.659  0.006054895  21.2843        214
 3.96   0.0000    372.4417   1082.3573 -12.91     346.1125     1.515     1.457      3.127  0.006056265  21.7020        215
 6.83   0.0003    365.1463    940.1025 -44.47     19.68696     0.827     0.666      2.923  0.006050096  24.8146        216
 3.50   0.0000    396.2050   1459.7307 -71.23     7937.301     1.701     1.671      2.625   0.00605832  18.3008        217
 3.62   0.0000    374.3093     85.4302 -68.26     206.6926     1.049     0.957      3.194  0.006053524  22.2617        218
 3.50   0.0000    397.1697    352.8683 -62.71     8992.516     1.731     1.677      2.919  0.006056265  18.1653        219
 3.50   0.0000    418.7024    431.5961 -53.88     37619.16     1.960     1.933      3.245   0.00605421  16.6115        220
 4.67   0.0000    381.4783     65.5865  33.45     246.5648     1.422     1.131      3.075  0.006057635  22.0702        221
 4.31   0.0000    379.1620    123.8833 -45.19     312.2449     1.160     1.102      3.100  0.006054895  21.8138        222
 8.58   0.0001    374.0639   1344.7878   1.89     72.22617     0.938     0.750      5.629  0.006059005  23.4033        223
 6.86   0.0000    381.7127      9.4485  69.49     208.8299     1.231     1.120      5.661  0.006052153  22.2505        224
 4.83   0.0001    379.1750    510.5343 -33.43      85.1769     1.023     0.805      3.029  0.006056265  23.2242        225
 3.50   0.0000    392.8817   1087.1392   6.31     1861.408     1.464     1.452      2.514  0.006051468  19.8754        226
 3.50   0.0000    414.6595    835.7791 -87.54     20949.71     1.861     1.824      3.055   0.00605695  17.2471        227
 4.67   0.0000    395.7360    625.2922 -84.56     571.2798     2.068     1.808      6.527   0.00605421  21.1579        228
 4.31   0.0000    388.0979   1194.0056 -35.06     182.0705     1.118     1.051      2.649  0.006053524  22.3994        229
 4.90   0.0000    388.7987    259.2574 -22.61     144.9092     0.937     0.845      2.487  0.006059689  22.6473        230
 3.59   0.0000    395.6325    976.0615 -62.57     265.0749     1.294     1.101      2.639   0.00605558  21.9916        231
 5.84   0.0000    402.6347    525.0397  64.46     253.0737     2.007     1.236      4.377  0.006057635  22.0419        232
 4.55   0.0357    389.9111   1166.6669  82.68    0.1839812     0.731     0.650      3.083  0.006052839  29.8881        233
 5.42   0.0000    390.9950     93.6829  -2.17     182.9223     1.145     0.767      3.329  0.006054895  22.3943        234
 5.30   0.0001    391.8295    682.1611  45.39     93.98501     0.806     0.665      2.956   0.00605695  23.1174        235
 5.85   0.0002    390.4073   1063.8210 -19.23     33.23505     0.736     0.453      2.817  0.006054895  24.2460        236
 3.50   0.0000    460.3263    806.0084 -44.64     98701.69     2.174     2.083      3.193  0.006057635  15.5642        237
 7.62   0.0000    410.8039      1.7281 -86.84     134.4523     2.264     0.559      5.118  0.004711461  22.7286        238
 5.59   0.0001    400.5119    810.9987  63.07     68.86877     0.999     0.673      2.616  0.006054895  23.4549        239
 5.11   0.0000    412.4912   1560.8536 -61.91     204.1948     1.786     1.004      3.434  0.006052839  22.2749        240
 3.52   0.0000    406.1577    280.5831 -61.55     221.0984     1.142     1.014      2.771  0.006056265  22.1885        241
 3.50   0.0000    423.2345    924.7849   9.66     4166.994     1.601     1.597      2.743  0.006056265  19.0004        242
 6.00   0.0000    420.4319    132.8687 -27.38     392.7989     2.661     1.886      9.744   0.00605558  21.5646        243
 3.50   0.0000    436.9875    250.2835  64.68     17247.89     1.841     1.824      3.157  0.006056265  17.4582        244
 5.37   0.0000    414.3479    557.6837  74.95     205.4837     1.626     1.253      4.582  0.006051468  22.2681        245
 4.53   0.0000    419.8245    157.4588  31.43     695.8715     1.965     1.661      3.958   0.00605832  20.9437        246
 3.50   0.0000    418.3754    772.9217 -64.50     148.0379     1.309     1.134      2.975   0.00605558  22.6241        247
 4.87   0.0000    417.9241   1202.9960 -69.00     157.0964     1.158     1.150      2.809  0.006057635  22.5596        248
 5.67   0.0000    419.0369   1579.2294 -64.75     210.0862     1.083     0.984      2.309  0.006056265  22.2440        249
 6.35   0.0001    416.3668    938.8957  38.22     74.34117     1.261     0.727      3.253  0.006051468  23.3719        250
 5.72   0.0000    429.8091    717.6165  55.01     324.0372     2.286     1.725      7.120  0.006052839  21.7735        251
 4.53   0.0000    425.8258   1177.8335  37.28     428.4234     1.797     1.380      3.703  0.006056265  21.4703        252
 8.36   0.0001    413.5051    178.4913 -45.92      73.2236     0.501     0.499      3.004   0.00604941  23.3884        253
 4.20   0.0000    466.8871    849.0101  22.49     3591.742     8.631     2.429     15.065   0.00605558  19.1617        254
 7.63   0.0001    417.3970   1295.2036  17.97     45.09451     0.762     0.451      2.492   0.00605421  23.9147        255
 4.71   0.0001    419.9548   1090.9780  44.64     105.3846     0.782     0.763      2.446   0.00605695  22.9931        256
 3.50   0.0000    423.3932   1062.3090 -12.89     170.8187     1.067     0.947      3.025  0.006053524  22.4687        257
 3.50   0.0000    432.1249   1420.5641 -14.37     1218.953     1.485     1.348      2.259   0.00605421  20.3350        258
 3.50   0.0000    433.0948    149.3635  27.67     571.0555     1.303     1.231      2.862  0.006050782  21.1583        259
 4.38   0.0000    425.3532    298.3142 -55.62     203.1347     0.976     0.924      2.476   0.00605421  22.2805        260
 3.50   0.0000    449.3134     19.5175  79.54     5663.884     1.697     1.618      2.983  0.006051468  18.6672        261
 4.28   0.0001    425.8291   1007.1801  45.92      104.699     0.782     0.684      2.469  0.006056265  23.0001        262
 6.46   0.0001    434.7358    118.2145 -14.46     126.3513     1.345     1.271      4.070   0.00605558  22.7961        263
 7.60   0.0002    425.6917    239.6654 -43.70     38.43577     0.567     0.339      2.312  0.006053524  24.0882        264
 4.11   0.0000    444.1478    120.4551 -35.94     695.0972     1.698     1.528      3.284   0.00605421  20.9449        265
 3.50   0.0000    439.0670    303.9563 -83.47     614.4554     1.232     1.225      2.710  0.006054895  21.0788        266
 5.59   0.0001    429.2177   1307.1603 -38.83     48.05978     0.807     0.673      2.962   0.00605695  23.8455        267
 4.53   0.0000    432.5266    404.7667 -70.31     136.0412     0.964     0.910      2.800   0.00605421  22.7158        268
 4.73   0.0001    432.8159    351.6668 -60.34     117.5556     0.947     0.890      2.783   0.00605832  22.8744        269
 3.50   0.0000    456.8181     32.7335 -46.68       6392.4     1.680     1.666      2.968  0.006056265  18.5358        270
 3.63   0.0000    446.5810    882.2385   5.63     675.1326     2.634     1.650      5.059  0.006057635  20.9765        271
 4.13   0.0000    495.3749     81.0525 -72.67     1735.469     2.894     2.604      7.327  0.006059005  19.9515        272
 7.07   0.0002    437.0200   1380.9813 -37.80     31.65512     0.808     0.779      2.452   0.00605558  24.2989        273
 4.77   0.0000    442.9376    653.5607  68.37     181.9671     1.015     1.000      2.673   0.00605558  22.4000        274
 4.62   0.0000    442.8451    172.6565 -62.31     279.3311     1.116     1.013      2.980  0.006054895  21.9347        275
 5.99   0.0001    436.5044     52.4720 -49.04      50.3065     0.502     0.497      2.507  0.006052153  23.7959        276
 5.83   0.0001    441.0673    958.0090 -28.05     107.6725     0.791     0.768      2.668  0.006059005  22.9697        277
 5.57   0.0001    444.5764   1503.9631  -1.95     71.20365     1.086     0.934      2.743   0.00605558  23.4187        278
 3.86   0.0000    532.1016    517.1438  27.64     13305.07     5.815     4.781     13.414   0.00604941  17.7400        279
 3.50   0.0000    462.7155    466.8858  48.38     1865.424     1.566     1.468      2.800  0.006050782  19.8731        280
 3.75   0.0000    452.0206   1531.8784  -2.25     320.5374     1.100     1.075      2.197  0.006056265  21.7853        281
 4.64   0.0000    453.4803   1222.8856 -38.14     145.1445     1.148     1.028      2.866  0.006051468  22.6455        282
 5.26   0.0001    450.7772   1129.9885 -89.03      53.2716     0.923     0.760      3.513  0.006054895  23.7338        283
 3.59   0.0000    460.0517   1094.5823  38.36     570.0995     1.462     1.254      3.005   0.00605695  21.1601        284
 3.58   0.0000    470.5653    252.6783  51.79     1600.444     1.802     1.450      2.722  0.006054895  20.0394        285
 6.42   0.0001    449.5158   1353.0117   0.90     62.78732     0.774     0.500      2.787   0.00605558  23.5553        286
 4.34   0.0000    460.4968    723.4984 -11.52     323.9953     1.812     1.296      3.845  0.006050782  21.7737        287
 3.50   0.0000    471.0944    733.2202 -22.49     2361.059     1.539     1.498      2.694   0.00605421  19.6172        288
 5.65   0.0000    472.3067   1131.0845  83.07     158.6604     2.225     0.835      4.465  0.006050096  22.5488        289
 7.38   0.0001    458.1744   1383.8328 -46.10     56.18131     0.754     0.568      2.599  0.006054895  23.6760        290
 4.30   0.0000    488.1921    838.0147 -89.19     440.8907     3.059     1.144      5.440  0.006052153  21.4392        291
 5.41   0.0001    466.0153   1196.9625  69.90     122.4479     1.187     1.155      2.740  0.006057635  22.8301        292
 3.50   0.0000    476.9968    921.4108 -29.52     3003.952     1.554     1.492      2.577  0.006053524  19.3558        293
 5.31   0.0000    464.7791    559.6370  29.06     141.5323     0.976     0.941      3.089  0.006057635  22.6729        294
 6.72   0.0000    464.5786    127.0419   1.49     168.2042     1.135     0.944      6.133   0.00605695  22.4854        295
 4.29   0.0000    495.0847   1185.2677 -27.37     1692.794     3.570     2.495      7.362  0.006052153  19.9785        296
 3.79   0.0000    477.1317   1275.4792  28.82     1035.287     1.446     1.376      2.366  0.006051468  20.5123        297
 5.98   0.0001    471.8902    780.0573   2.74     63.12117     1.088     0.935      2.860  0.006052153  23.5496        298
 7.44   0.0000    487.8899    422.9886 -48.30       260.15     1.701     0.984      8.137  0.006054895  22.0119        299
 3.60   0.0000    478.1534    680.9650 -64.90     249.8398     1.461     1.071      2.694  0.006057635  22.0558        300
 4.00   0.0000    475.0726   1166.8925   1.25     220.8917     1.114     1.099      2.612  0.006052839  22.1896        301
 6.34   0.0001    468.3778    662.1902  17.81     70.59633     0.748     0.449      3.422   0.00605558  23.4280        302
 3.50   0.0000    483.0456   1069.0903  -3.08     1346.703     1.380     1.345      2.573  0.006051468  20.2268        303
 6.47   0.0000    480.0155   1518.1871 -36.50     146.2943     1.487     1.001      3.865   0.00605558  22.6369        304
 5.52   0.0000    480.2343   1308.2384   0.78     224.2498     1.206     1.072      2.351  0.006056265  22.1732        305
 3.50   0.0000    511.5095   1300.7717 -86.57     13018.57     1.783     1.771      2.854  0.006053524  17.7636        306
 4.18   0.0000    503.2634    761.2393  -9.87     1007.265     2.289     2.038      4.272   0.00605558  20.5421        307
 5.85   0.0001    485.3267    826.9921  67.42     74.73864     0.897     0.684      2.748  0.006057635  23.3661        308
 3.78   0.0000    514.5527   1459.6421  24.54     2307.197     4.804     1.835      8.327   0.00605695  19.6423        309
 5.00   0.0000    492.2603    572.8713 -26.66     150.3329     1.045     0.854      2.699  0.006053524  22.6074        310
 5.07   0.0000    500.9030   1308.7729 -78.62     278.4124     1.327     1.225      2.517  0.006052153  21.9383        311
 3.50   0.0000    501.1404    862.1825  21.91     675.6619     1.340     1.317      2.476   0.00605558  20.9757        312
 4.66   0.0001    494.4830   1419.8359  -6.11     99.90995     1.068     0.948      2.658   0.00605558  23.0510        313
 3.71   0.0000    497.0426    364.6630   3.18     300.6908     1.185     1.114      2.855  0.006054895  21.8547        314
 3.60   0.0000    512.4128   1308.8362  87.94     1081.791     1.482     1.437      2.741   0.00605695  20.4646        315
 3.50   0.0000    586.9171   1314.4430 -43.15     196384.6     2.422     2.258      3.331  0.006053524  14.8172        316
 4.29   0.0000    508.9503    162.6882  -5.14     687.4638     2.454     1.217      4.023  0.006052839  20.9569        317
 7.32   0.0000    504.5137    324.4970  71.03     139.2528     0.916     0.902      5.496  0.006048725  22.6905        318
 4.20   0.0001    502.0302    441.3327  14.30     93.20965     0.975     0.750      2.537  0.006056265  23.1263        319
 3.92   0.0000    512.9186   1177.8134 -27.30     754.2822     1.342     1.259      2.560   0.00605695  20.8562        320
 5.02   0.0000    509.0863    451.9476  35.30     142.3638     1.219     1.128      2.803  0.006052153  22.6665        321
 4.32   0.0001    504.1009   1567.6394 -14.11     127.3335     0.954     0.745      2.607  0.006050096  22.7876        322
 4.03   0.0000    518.2291    640.3262 -26.69     518.4058     1.532     1.378      2.985   0.00605421  21.2633        323
 6.90   0.0001    508.3430    306.9761  -0.24     109.5824     0.744     0.651      3.079   0.00605695  22.9506        324
 4.50   0.0000    517.4140   1517.7860  70.71     259.3341     1.137     1.066      2.591   0.00605558  22.0154        325
 4.69   0.0000    519.9241    852.2421   0.04     162.5423     1.235     1.187      2.902   0.00605421  22.5226        326
 7.17   0.0001    516.0298    165.1891  53.66      70.2907     0.919     0.470      4.024  0.006057635  23.4328        327
 7.39   0.0001    519.3243    580.9985  -2.84     65.77306     0.742     0.671      2.870  0.006057635  23.5049        328
 6.49   0.0000    527.9760    163.3041  59.16     139.1898     1.193     0.695      4.294   0.00605421  22.6910        329
 3.50   0.0000    539.3113    998.3491  74.63     1916.605     1.483     1.429      2.582  0.006052153  19.8437        330
 3.50   0.0000    535.1611    402.8271  28.42     317.3169     1.644     1.292      3.703   0.00605832  21.7963        331
 3.50   0.0000    630.2494    481.5379 -32.96     317418.3     2.814     2.630      3.970  0.006054895  14.2959        332
 3.67   0.0000    543.0117    932.6339 -65.99     215.2088     2.242     0.933      4.340   0.00605695  22.2178        333
 4.27   0.0001    530.8337   1565.1139  31.17       79.212     0.869     0.842      2.530  0.006054895  23.3030        334
 3.50   0.0000    571.8231   1241.3000 -77.75     7965.226     2.038     1.669      2.559  0.006051468  18.2970        335
 3.50   0.0000    558.0266   1040.2273  -7.54     2540.284     1.649     1.507      2.428  0.006056265  19.5378        336
 4.78   0.0001    545.2867    849.4893  -7.45     75.11235     0.980     0.943      2.965  0.006051468  23.3607        337
 5.14   0.0000    573.6470   1335.1353  51.49     1165.023     2.340     1.518      2.902   0.00605421  20.3842        338
 3.63   0.0000    570.2410     44.1226  49.86     1558.936     2.383     1.604      4.516   0.00605421  20.0679        339
 3.50   0.0000    554.9999    777.1362  23.72     217.5316     1.100     1.075      2.508  0.006059689  22.2062        340
 5.14   0.0001    558.2373   1067.7279  74.41     91.81528     1.376     0.874      3.628   0.00605558  23.1427        341
 3.50   0.0000    579.6503    143.1599 -48.59     11265.76     1.725     1.693      3.050   0.00605558  17.9206        342
 3.66   0.0000    595.7372    781.1780 -56.39     4272.918     3.984     3.666      8.627  0.006057635  18.9732        343
 3.55   0.0000    570.7166   1447.0137  21.20     1328.888     3.129     1.935      4.397   0.00605695  20.2413        344
 6.11   0.0001    552.7918    964.5013   0.24      56.5114     0.952     0.725      2.439  0.006052839  23.6697        345
 3.50   0.0000    581.1983    317.4514  32.75     11008.68     1.792     1.741      3.002  0.006059689  17.9457        346
 6.43   0.0001    558.6420   1404.0443  15.36     130.3488     2.178     0.923      4.809   0.00605695  22.7622        347
 5.50   0.0001    553.9773    804.0143 -87.40     94.93067     0.784     0.775      2.632  0.006054895  23.1065        348
 4.29   0.0000    563.7604    137.6717 -27.73      445.997     1.275     1.214      3.006   0.00605558  21.4267        349
 3.77   0.0000    562.1314    904.2994  60.07     139.9435     1.031     0.851      2.571  0.006052153  22.6851        350
 4.21   0.0001    561.8478    839.1899 -61.35     99.96671     1.314     0.783      3.082   0.00605832  23.0504        351
 6.36   0.0001    560.0472   1502.5043  89.86     45.06213     0.783     0.500      2.545   0.00604941  23.9155        352
 6.33   0.0001    563.3165   1168.9200 -73.02     59.94269     0.999     0.744      2.500  0.006052153  23.6057        353
 4.40   0.0000    575.2334   1000.2487 -16.34     434.8015     1.684     1.580      3.095   0.00605695  21.4543        354
 6.75   0.0001    566.4789   1114.5490  65.40      109.829     0.909     0.900      5.451  0.006052153  22.9482        355
 6.85   0.0002    564.9891   1249.5447 -27.72     26.85261     1.041     0.670      3.169  0.006059005  24.4775        356
 5.70   0.0000    565.9993    630.5061  -2.49     140.4289     0.992     0.772      2.981  0.006053524  22.6814        357
 4.81   0.0001    569.1726    112.1811 -50.32     93.55627     0.911     0.851      3.476  0.006056265  23.1223        358
 5.94   0.0000    577.0299    737.8967  35.30     225.6751     1.383     1.152      3.962  0.006051468  22.1663        359
 9.08   0.0001    569.5020   1108.5065  45.12     50.22964     0.504     0.496      2.763  0.006050096  23.7976        360
 5.95   0.0000    578.3694    677.7878  -3.43     194.6757     1.213     1.122      3.489  0.006057635  22.3267        361
 6.66   0.0001    573.9882    548.0839  -0.44     102.6957     0.915     0.752      2.566   0.00605558  23.0211        362
 5.35   0.0000    577.6382    843.3677  21.53     213.1499     1.545     0.887      4.339  0.006056265  22.2283        363
 3.50   0.0000    583.4961     74.2241 -16.70     620.6711     1.322     1.236      2.817   0.00605421  21.0678        364
 6.00   0.0001    582.9614   1099.5001 -50.62     90.53455     1.056     0.924      3.460  0.006050096  23.1580        365
 5.52   0.0001    577.8422    695.0611  44.00     58.73556     0.836     0.659      2.756   0.00605558  23.6277        366
 8.92   0.0001    577.2536    480.9903   0.47     54.17632     0.699     0.435      2.942  0.006059005  23.7155        367
 5.47   0.0000    584.4695   1171.3883   9.73     260.6978     1.087     0.994      2.596   0.00605832  22.0097        368
 4.68   0.0001    581.7790   1485.1768  42.27     46.32233     0.801     0.663      2.469  0.006056265  23.8855        369
 6.94   0.0001    582.6660   1183.9520   4.29     72.31763     0.741     0.674      2.664   0.00605421  23.4019        370
 5.32   0.0001    583.8199    209.8069 -42.27     93.31262     0.796     0.686      2.917  0.006053524  23.1251        371
 5.23   0.0000    587.5363   1137.9189  -0.67     153.7384     1.053     0.922      2.706  0.006051468  22.5830        372
 3.50   0.0000    997.1730    231.6671 -35.31      600.385     1.149     1.100      2.966  0.006056265  21.1039        373
 0.00  99.0000   1598.8207    709.2975   3.07  -0.07073552     1.146     0.840      6.877  0.004846896  99.0000        374
 3.94   0.0000   1596.6750    653.1274 -15.58     373.0791     2.061     1.927      4.103   0.00544744  21.6205        375
 5.60   0.0213   1599.2190     17.0316   3.57    0.2413016     1.619     0.795      6.089  0.004724653  29.5936        376
 3.56   0.0000   1593.4586    372.2879  57.98     490.3238     1.640     1.347      2.965  0.006025357  21.3238        377
 5.54   0.0001    909.3374   1573.8235 -27.17     118.5782     1.073     0.876      2.805  0.006057635  22.8650        378
 0.00  99.0000    909.6639    758.6678 -45.16  -0.02400309     0.578     0.333      0.000  0.006052153  99.0000        379
 5.11   0.0000    907.8714      3.6326 -33.39     169.1003     1.219     0.890      3.520  0.005270921  22.4796        380
 4.75   0.0000    907.2199    657.8135  39.55     261.0319     1.174     1.115      2.845   0.00605421  22.0083        381
 7.19   0.0001    907.8801    259.1469  47.10     77.61767     0.836     0.675      2.489  0.006051468  23.3251        382
 3.50   0.0000    880.5359    182.0380 -36.97     403740.8     3.768     3.384      5.401   0.00605558  14.0347        383
 3.89   0.0000    903.5399   1313.7987  84.60     383.6078     1.698     1.165      2.857  0.006059689  21.5903        384
 5.13   0.0000    903.1458    733.5557  14.18     235.1092     0.975     0.847      2.667   0.00605558  22.1218        385
 3.50   0.0000    899.4399    301.0770  73.75     7138.749     1.683     1.667      2.867   0.00605421  18.4159        386
 0.00  99.0000    902.6298    120.2576 -59.53  -0.04599432     0.997     0.787      5.985  0.006057635  99.0000        387
 4.04   0.0000    895.2032    537.0064   4.93     1384.932     2.345     1.895      5.614  0.006053524  20.1964        388
 5.97   0.0001    899.4494    449.5103 -24.97     113.2616     0.501     0.497      3.003  0.006051467  22.9148        389
 5.06   0.0000    898.7358    378.2324 -44.39     205.0971     0.743     0.553      2.548   0.00605558  22.2701        390
 4.88   0.0000    896.1893    985.8829 -70.45     255.0538     1.264     1.113      2.717  0.006056265  22.0334        391
 4.75   0.0000    877.6211    222.5485  89.23     2980.989     8.409     2.434     13.381   0.00605695  19.3641        392
 6.40   0.0001    894.1964   1570.0686 -41.29     111.0856     0.822     0.670      2.448   0.00605832  22.9359        393
 3.94   0.0000    892.8959   1424.7267 -18.50     424.2679     1.288     1.213      2.511  0.006051468  21.4809        394
 3.50   0.0000    879.3774   1591.1613 -62.85     58963.91     2.135     2.017      2.667   0.00605695  16.1235        395
 7.60   0.0004    891.3237   1213.3125 -45.58     14.88203     0.564     0.340      2.379  0.006050096  25.1183        396
 4.58   0.0000    887.6108    324.2768  15.54     819.5176     2.254     1.609      4.770  0.006059005  20.7661        397
 4.03   0.0000    884.7320   1303.1669  74.24     628.1025     2.172     1.403      3.653   0.00605695  21.0549        398
 4.08   0.0000    887.7652    679.4688 -39.55     234.2137     1.357     1.101      2.759  0.006056265  22.1260        399
 6.93   0.0001    897.5771    727.8093  19.43     94.43629     0.734     0.455      2.843   0.00605558  23.1122        400
 3.67   0.0000    884.8380   1498.8048 -24.85     919.2183     1.336     1.281      2.534   0.00605558  20.6415        401
 5.28   0.0000    883.8837    337.3351  18.66      454.848     1.937     1.260      4.034  0.006051468  21.4053        402
 8.05   0.0001    882.3992    443.7480 -17.61     104.7874     0.735     0.458      3.098  0.006059689  22.9992        403
 4.92   0.0000    877.1025   1175.5532 -13.24     955.5116     2.087     1.979      3.497  0.006048038  20.5994        404
 3.50   0.0000    878.5626    670.3907 -45.07     251.2416     1.548     1.226      3.382   0.00605695  22.0498        405
 3.50   0.0000    876.5951    959.5044 -79.21     602.4376     1.298     1.229      2.591   0.00605421  21.1002        406
 3.50   0.0000    858.3438   1222.9988  25.48     182606.3     2.506     2.412      3.308  0.006060374  14.8962        407
 4.24   0.0000    875.3625    540.0466 -35.41     244.5067     1.105     1.072      2.862   0.00605695  22.0793        408
 3.79   0.0000    866.6870    937.9309  44.80     1003.815     2.483     1.546      4.758  0.006050782  20.5459        409
 3.50   0.0000    868.4225    642.1518  64.32     360.6028     1.174     1.094      2.683   0.00605695  21.6574        410
 5.74   0.0001    868.9875   1434.7231  86.53     66.90795     0.718     0.689      2.702  0.006059689  23.4863        411
 4.18   0.0000    865.7755    453.1805 -42.47     203.9579     1.103     0.916      2.695  0.006056265  22.2761        412
 4.05   0.0000    863.9379   1477.7690  55.58     163.4837     0.983     0.882      2.706   0.00605558  22.5163        413
 6.78   0.0001    864.8473   1175.9413  16.55     73.60951     1.140     0.950      2.578  0.006054895  23.3827        414
 6.14   0.0000    863.4191    353.5639  42.72     190.6008     1.045     0.954      3.021  0.006057635  22.3497        415
 6.49   0.0001    863.0830    772.3165  17.58     114.5953     1.061     0.746      3.495  0.006050782  22.9021        416
 5.42   0.0001    861.1080    266.5716  30.30     120.2955     1.458     0.973      3.296  0.006053524  22.8494        417
 3.76   0.0000    858.6674   1155.9286 -48.65     930.1025     1.409     1.335      2.566  0.006050782  20.6287        418
 6.65   0.0001    861.1178    635.1364 -44.46     115.4961     0.833     0.680      3.338  0.006051468  22.8936        419
 4.20   0.0000    859.6251   1553.0254  17.27     188.5573     1.099     0.932      2.527   0.00605695  22.3614        420
 4.18   0.0000    857.5358   1338.0935 -71.37     713.3878     1.582     1.377      2.685  0.006053524  20.9167        421
 7.36   0.0000    857.3162    573.3596 -45.03     249.0237     1.099     0.647      4.068  0.006054895  22.0594        422
 4.73   0.0000    854.7966    543.6133 -69.35     303.6468     1.437     1.235      3.183  0.006053524  21.8441        423
 9.24   0.0001    854.5144   1428.4879  44.74     113.5281     0.503     0.496      3.019  0.006051467  22.9122        424
 6.94   0.0001    854.1335   1346.3152 -20.02     76.23692     0.909     0.683      2.941  0.006051468  23.3446        425
 4.58   0.0001    849.9979   1302.0090  42.45     92.07471     0.798     0.763      2.555  0.006053524  23.1396        426
 7.12   0.0001    846.8488   1562.1501  45.17     116.9785     0.834     0.674      2.758   0.00605832  22.8797        427
 5.92   0.0000    845.6445    359.7645   5.04     457.4024     1.992     1.388      6.333   0.00605832  21.3993        428
 3.50   0.0000    843.8990   1062.4214 -47.16     571.8343     1.301     1.216      2.445  0.006051468  21.1568        429
 3.67   0.0000    842.4068   1104.7156  21.78     1080.615     1.862     1.499      2.947  0.006054895  20.4658        430
 4.98   0.0000    836.8883   1245.4850 -32.05     1547.289     2.491     2.004      3.156  0.006051468  20.0761        431
 6.17   0.0001    840.1484    545.8178 -42.72     119.7957     0.754     0.569      2.995   0.00605695  22.8539        432
 4.78   0.0000    836.7659    990.3766  -5.11      235.569     1.225     1.117      3.163  0.006056265  22.1197        433
 8.14   0.0000    837.4343    898.6921 -58.58     166.5368     0.978     0.551      5.870  0.006052153  22.4962        434
 3.52   0.0000    835.5318    297.0812 -64.89     1567.053     1.452     1.419      2.751  0.006051468  20.0623        435
 3.95   0.0000    835.7798   1519.0117 -23.38      241.621     1.097     1.040      2.575   0.00605421  22.0922        436
 3.50   0.0000    834.6545    817.6158  -7.21      390.246     1.254     1.120      2.594  0.006057635  21.5717        437
 3.72   0.0000    868.4527   1102.0677 -58.47     2413.828     2.082     1.859      2.948  0.006052839  19.5932        438
 5.90   0.0000    830.7017    403.0029  -2.39     133.0998     0.734     0.666      2.944  0.006053524  22.7396        439
 3.50   0.0000    822.0500    652.7532 -52.62     7022.406     1.701     1.691      2.757  0.006057635  18.4338        440
 7.20   0.0002    825.9781    597.2470  88.91      35.2316     0.685     0.431      2.527   0.00605695  24.1827        441
 5.28   0.0000    823.8243    673.1552 -46.25     143.2843     0.749     0.571      2.664  0.006057635  22.6595        442
 5.00   0.0000    821.0287    328.9834 -51.85     163.8784     0.788     0.765      2.748  0.006056265  22.5137        443
 3.50   0.0000    818.8474   1397.0322 -31.82     192.5587     1.108     1.032      2.501   0.00605695  22.3386        444
 3.85   0.0000    818.0057    777.8375 -67.26     190.1682     1.239     0.766      2.714   0.00605558  22.3522        445
 3.88   0.0000    817.8771    701.1688  40.94     263.3147     1.104     1.007      2.577  0.006054895  21.9988        446
 7.83   0.0001    818.6559   1574.2931  47.62     64.76994     0.564     0.339      2.928  0.006052153  23.5216        447
 4.00   0.0000    814.7400    876.8964  77.42     324.8321     1.579     1.451      2.699  0.006050782  21.7709        448
 3.50   0.0000    816.2355    432.0098 -17.05     203.6932     1.160     0.868      2.953  0.006056265  22.2776        449
 3.71   0.0315    808.9398   1543.1682  66.66    0.2084966     1.106     1.010      3.589  0.006056265  29.7523        450
 5.37   0.0001    808.6687    842.8378 -68.45     94.26544     0.893     0.680      2.791   0.00605558  23.1141        451
 3.50   0.0000    802.1561   1377.2687 -69.34     6708.526     1.723     1.626      2.464   0.00605421  18.4834        452
 3.50   0.0000    797.5828    694.0785 -87.88     18373.53     2.521     1.785      3.724   0.00605695  17.3895        453
 3.50   0.0000    799.6658     39.3432 -29.18     3114.364     1.733     1.515      2.966  0.006053524  19.3166        454
 7.40   0.0035    800.9561   1595.2843 -83.77     1.798925     0.735     0.666      3.951   0.00575702  27.4125        455
 5.69   0.0001    797.9482    177.0328  89.96     78.23785     1.061     0.726      2.994  0.006057635  23.3165        456
 4.69   0.0000    793.4384    293.9872 -85.78     182.3394     1.408     1.180      3.432  0.006057635  22.3978        457
 5.05   0.0001    788.6844    407.2916  46.63     90.98344     0.932     0.749      2.293  0.006050782  23.1526        458
 5.48   0.0001    785.3309   1347.5808  22.57      99.2567     0.899     0.788      2.509  0.006059005  23.0581        459
 3.56   0.0000    773.3043   1425.9481 -89.25     2132.625     3.750     2.204      6.488  0.006050782  19.7277        460
 6.56   0.0001    780.4772   1265.1068  -1.37     75.41158     0.771     0.499      3.029  0.006051468  23.3564        461
 8.48   0.0001    777.2938    475.3512 -42.18     113.9246     0.567     0.338      2.704  0.006050782  22.9085        462
 3.96   0.0000    766.9832    138.3622 -60.94       369.41     1.496     1.333      3.190  0.006057635  21.6312        463
 3.67   0.0000    765.5649    390.1940  -2.87     1359.996     1.469     1.420      2.680  0.006056265  20.2162        464
 5.43   0.0000    766.4203    928.8621  17.25     161.7796     1.177     0.979      2.918   0.00605695  22.5277        465
 4.08   0.0000    763.4435    565.8588 -13.47     155.6101     1.026     0.929      2.789  0.006054895  22.5699        466
 6.72   0.0001    762.5083   1570.5126 -45.36     47.96451     0.503     0.496      2.282  0.006050096  23.8477        467
 4.22   0.0000    756.6255   1339.8118 -44.25     230.4906     2.002     1.006      3.904  0.006054895  22.1434        468
 6.65   0.0000    757.2419    104.2812 -82.72     188.4239     0.918     0.632      3.796  0.006053524  22.3622        469
 4.66   0.0000    753.7518    194.1373  70.38     532.0933     2.004     1.746      5.287   0.00605421  21.2350        470
 4.80   0.0000    751.5210   1078.7631 -58.73     172.4838     1.015     0.781      2.540  0.006053524  22.4581        471
 6.62   0.0001    751.7948    431.6564 -65.66     84.43777     0.990     0.893      2.855  0.006060374  23.2337        472
 7.99   0.0001    746.7986    443.8998  61.00     127.6007     0.998     0.758      4.359  0.006052839  22.7854        473
 7.28   0.0001    746.6627   1108.6885 -46.23      99.8746     0.569     0.337      2.479  0.006052153  23.0514        474
 7.69   0.0000    743.7292    839.2839  44.04     233.3233     1.422     1.371      5.291  0.006050782  22.1301        475
 3.50   0.0000    741.7888    554.6887 -46.92     1629.338     1.505     1.450      2.809   0.00605558  20.0200        476
 6.50   0.0001    745.5015    364.0371  -1.88     57.78666     0.776     0.500      3.535   0.00604941  23.6454        477
 3.50   0.0000    723.1733    403.1625 -38.65     218515.6     2.657     2.350      3.645  0.006056265  14.7013        478
 4.91   0.0001    738.4103   1271.2405  56.26      120.982     1.037     0.800      2.734  0.006056265  22.8432        479
 3.76   0.0000    737.0958   1156.6532 -47.58     571.2411     1.281     1.247      2.673  0.006051468  21.1580        480
 3.87   0.0000    735.1339    648.1766  23.49     632.7043     1.280     1.262      2.530   0.00605695  21.0470        481
 3.50   0.0000    725.6390    846.8148  -4.11      50990.5     2.062     2.033      3.277  0.006057635  16.2813        482
 7.17   0.0001    728.8027    751.6425  70.75     100.1123     1.122     0.877      5.102  0.006057635  23.0488        483
 3.50   0.0000    726.5377   1176.7671 -12.69     1110.195     1.411     1.372      2.655   0.00605558  20.4365        484
 4.66   0.0000    727.9813   1542.4713  -1.07     133.2739     0.809     0.691      2.249  0.006059005  22.7381        485
 3.83   0.0000    720.4841   1393.5349   9.72     444.7681     1.467     1.242      2.768  0.006051467  21.4297        486
 6.38   0.0001    721.2885    260.9367  -8.71     71.07784     0.739     0.673      3.252  0.006052839  23.4207        487
 5.88   0.0001    740.3921    918.1597  19.20     63.13454     0.761     0.444      2.711   0.00605695  23.5493        488
 3.50   0.0000    714.8723    806.8587 -16.74      1416.46     1.451     1.408      2.668  0.006052839  20.1720        489
 7.29   0.0001    739.9937    370.4539   0.01     90.31447     0.825     0.690      4.260  0.006061059  23.1606        490
 3.50   0.0000    708.0434   1162.3575  15.51     1455.914     1.443     1.401      2.340   0.00605558  20.1422        491
 5.93   0.0000    709.3591    193.3632  45.70     148.8127     1.026     0.876      3.998   0.00605832  22.6184        492
 4.14   0.0000    703.2103   1337.6471 -71.72     1414.074     2.232     1.846      2.924   0.00605832  20.1738        493
 5.46   0.0000    706.7255    537.0632  22.78     159.7314     1.109     1.008      2.551  0.006052153  22.5415        494
 3.50   0.0000    701.9611    950.9947 -43.79     2590.456     1.639     1.516      2.561  0.006056265  19.5166        495
 7.39   0.0002    702.3176    632.3156 -45.10     33.57906     0.563     0.341      2.237  0.006050782  24.2348        496
 5.80   0.0001    700.5140    649.9135  -0.13     127.8584     0.779     0.500      2.678  0.006050782  22.7832        497
 4.32   0.0000    698.0168    581.0302   9.81     643.4954     2.375     1.335      4.942  0.006057635  21.0286        498
 6.55   0.0001    696.1909   1199.1677  41.45       77.995     0.741     0.566      2.895   0.00605558  23.3198        499
 5.28   0.0001    695.3126    275.2812 -45.20     95.43158     0.919     0.741      3.217  0.006052153  23.1008        500
 4.12   0.0000    690.8043   1212.2382  38.83     534.8665     1.656     1.406      2.841   0.00605558  21.2294        501
 4.41   0.0000    685.6290   1212.3180 -31.36     387.9637     1.336     1.159      2.395   0.00605558  21.5780        502
 3.54   0.0000    690.9828    314.4811 -89.34     255.7894     1.363     1.269      3.042  0.006057635  22.0303        503
 5.58   0.0000    682.1815    470.6699 -71.25     1399.807     3.997     3.773      8.339   0.00605832  20.1848        504
 8.13   0.0001    688.3418    666.6924  46.63     78.33404     0.569     0.337      3.417  0.006050782  23.3151        505
 3.50   0.0000    684.5341    642.6834 -85.70     2104.694     1.677     1.518      2.838  0.006050096  19.7420        506
 3.50   0.0000    686.5600    129.1386 -74.02     328.4408     1.213     1.118      2.831   0.00605558  21.7589        507
 7.14   0.0001    686.3936   1043.2445  19.21       65.076     0.756     0.445      2.777  0.006057635  23.5164        508
 4.64   0.0000    680.1719    541.9000 -72.99     1470.971     2.845     2.013      4.984  0.006050782  20.1310        509
 6.08   0.0000    684.0917    399.3588  67.60     168.5126     1.243     1.072      3.191  0.006050096  22.4834        510
 7.31   0.0001    683.1840   1564.3816  71.56     75.94471     0.750     0.447      3.079   0.00605558  23.3488        511
 7.70   0.0004    681.9842    388.5002 -87.74     16.20314     0.807     0.499      3.739   0.00605421  25.0260        512
 6.79   0.0000    676.4925    199.9110   0.69     160.2749     0.787     0.500      2.986  0.006050096  22.5378        513
 6.35   0.0001    674.9564   1162.9944   2.98     105.4946     0.792     0.783      3.116  0.006057635  22.9919        514
 5.27   0.0000    671.8871    229.7756 -40.14     181.4385     1.169     1.030      3.422  0.006054895  22.4032        515
 6.88   0.0417    672.5187    424.4439 -49.40    0.1577342     0.507     0.489      2.801  0.006052839  30.0552        516
 5.53   0.0000    668.2863   1219.9636 -52.73     269.2936     1.505     1.346      2.961  0.006054895  21.9744        517
 7.54   0.0001    668.8893    526.1393  47.57     68.41871     0.840     0.672      3.277  0.006052839  23.4621        518
 4.82   0.0000    665.7657   1178.5731   3.32     173.1736     0.954     0.918      2.858  0.006056265  22.4538        519
 4.90   0.0001    665.4871   1068.5939  69.03     91.48722     0.931     0.807      2.848  0.006054895  23.1466        520
 6.86   0.0001    661.6160     80.7631  17.24     63.69749     0.744     0.454      2.898  0.006057635  23.5397        521
 3.50   0.0000    647.4363   1462.9254 -64.41     50111.18     2.018     1.955      3.009   0.00605421  16.3002        522
 3.93   0.0000    653.7332    869.3082 -77.19     643.3893     1.333     1.243      2.507  0.006052839  21.0288        523
 6.76   0.0000   1533.4886    973.8960 -50.72     464.5712     1.369     0.971      5.819  0.006048725  21.3824        524
 7.63   0.0001    646.2842   1152.9969   7.20     90.42162     0.748     0.678      2.508  0.006054895  23.1593        525
 4.38   0.0000    644.7533    651.3694 -64.65      426.891     1.230     1.185      2.697   0.00605832  21.4742        526
 3.50   0.0000    638.8298    535.1763  50.02     11707.12     1.838     1.771      2.878  0.006054895  17.8789        527
 4.27   0.0000    640.3396    274.9371 -42.66     224.2351     1.232     1.077      3.004  0.006053524  22.1732        528
 7.94   0.0002    636.8403    551.5649  84.77     26.97778     1.262     0.484      3.913  0.006057635  24.4725        529
 7.52   0.0002    638.2928    390.9521  -9.02     26.76451     0.744     0.677      3.137  0.006050782  24.4811        530
 4.96   0.0001    630.2939    853.7196 -14.08     74.57148     0.980     0.851      3.047  0.006051468  23.3686        531
 3.50   0.0000    629.7246    804.6202  19.19     683.3196     1.308     1.237      2.799  0.006057635  20.9634        532
 5.71   0.0001    628.1733    940.8096  43.14     70.51684     0.793     0.684      2.034   0.00605558  23.4293        533
 7.15   0.0001    625.9575    131.7406 -87.62     73.38405     0.677     0.438      3.093  0.006054895  23.3860        534
 3.50   0.0000    622.6840   1580.3485  20.28     1154.514     1.414     1.383      2.136  0.006051468  20.3940        535
 8.00   0.0454    625.4883   1286.4780  45.77    0.1447232     0.506     0.493      2.101  0.006050096  30.1487        536
 8.68   0.0001    624.0000    341.9937   0.00     94.13194     0.858     0.289      4.288  0.006052839  23.1157        537
 7.52   0.0000    649.6454   1159.5402 -17.03     141.1013     0.987     0.832      5.091   0.00605421  22.6762        538
 4.96   0.0000    617.2538   1150.4204 -12.75      487.255     2.287     1.393      5.922   0.00605695  21.3306        539
 6.66   0.0001    618.5089     93.3388 -32.37     116.8645     1.211     0.851      3.438  0.006052839  22.8808        540
 3.94   0.0001    615.0223   1233.4691  87.76     85.91238     1.100     0.935      2.837  0.006057635  23.2149        541
 5.29   0.0001    615.6664    117.0446  -5.76     109.0103     0.738     0.663      3.312   0.00605421  22.9563        542
 6.09   0.0001    612.8040   1366.5983  39.27     67.83885     1.171     0.988      2.745   0.00605421  23.4713        543
 7.68   0.0001    614.2545    288.0167  -0.90     100.2573     0.679     0.435      3.467  0.006057635  23.0472        544
 4.91   0.0001    610.5709    994.0137  -0.22     96.25739     1.148     0.951      2.736  0.006057635  23.0914        545
 8.13   0.0001    608.3402   1334.2922 -68.31     63.67207     1.306     0.899      4.287  0.006052153  23.5401        546
 5.46   0.0001    610.2504    961.5877 -71.92     53.41839     0.706     0.464      2.525   0.00605832  23.7308        547
 4.16   0.0000    608.4410    943.8952  30.88     268.9895     1.092     0.996      2.788  0.006050096  21.9757        548
 5.55   0.0001    606.6353   1009.8097 -69.38      76.9008     0.873     0.677      2.584  0.006056265  23.3352        549
 3.53   0.0000    604.6259    584.8419 -61.11     1198.363     1.443     1.381      2.648  0.006059005  20.3535        550
 5.81   0.0000   1503.3109   1310.4329  16.06     261.1284     0.983     0.947      2.623  0.006053524  22.0079        551
 3.96   0.0000   1545.0631    861.9321  46.11     1370.502     1.840     1.611      3.233  0.006052839  20.2078        552
 7.45   0.0003    603.2000    511.9024 -30.59     20.83917     1.053     0.647      2.959  0.006052839  24.7528        553
 6.56   0.0001    601.7997    763.1479  43.14     62.63017     0.823     0.670      2.651  0.006059689  23.5580        554
 5.31   0.0001    599.8062   1424.6854  18.29     125.7271     0.989     0.881      3.811  0.006054895  22.8014        555
 6.79   0.0001    598.3499    666.8875 -73.86      119.783     1.018     0.751      2.990  0.006052153  22.8540        556
 7.22   0.0001    595.8287   1124.1578 -45.06     63.54142     0.754     0.572      2.703  0.006057635  23.5424        557
 5.63   0.0000    592.9840    881.1221  89.40     131.6714     1.257     0.890      3.232   0.00605695  22.7513        558
 8.67   0.2816    592.3361   1355.7000  46.86   0.02334404     0.564     0.340      3.311  0.006052153  32.1296        559
 5.13   0.0000   1592.2811   1383.3767 -13.23     356.7339     1.487     1.105      2.902  0.006054895  21.6691        560
 5.46   0.0000   1537.7726    504.2819 -81.92     237.3265     1.314     0.918      3.302   0.00605558  22.1116        561
 6.43   0.0001   1588.4667   1334.4884  43.34     110.6953     0.508     0.491      2.549  0.006052839  22.9397        562
 7.02   0.0000   1551.2142    131.4193  70.62     150.5877     0.739     0.454      3.399  0.006054895  22.6055        563
 6.34   0.0002    914.5125    124.0380 -87.80     27.71228     0.795     0.699      3.040   0.00605421  24.4433        564
 3.56   0.0000   1583.8901   1107.3706  31.05     2085.767     1.439     1.413      2.401  0.006053524  19.7518        565
 3.99   0.0000    911.3047    999.6408  25.14     602.8826     1.228     1.183      2.695  0.006050782  21.0994        566
 4.90   0.0000   1590.2817    565.3278  11.70     280.7279     1.032     0.899      2.576  0.006050782  21.9293        567
 3.50   0.0000    911.7652    836.9797  46.82     966.8613     1.343     1.296      2.691   0.00605695  20.5866        568
 3.50   0.0000   1541.5651    652.9879 -80.24     3142.004     1.572     1.520      2.802   0.00605695  19.3070        569
 5.36   0.0001   1553.0010   1370.2423 -89.95     99.78708     0.684     0.428      2.401  0.006057635  23.0523        570
 4.89   0.0000   1570.4656   1337.0802  49.64     192.8728     0.857     0.675      2.711  0.006051468  22.3368        571
 5.76   0.0000    913.6678   1117.9517   2.16      205.948     1.082     1.049      5.970   0.00605421  22.2656        572
 5.56   0.0000   1561.7994    384.6131 -75.58     447.8646     1.476     0.890      3.670   0.00605558  21.4221        573
 5.30   0.0000   1584.9180   1068.0917 -36.80     558.7343     1.155     1.083      2.553  0.006053524  21.1820        574
 5.98   0.0001    916.5121   1111.4973 -71.08     101.9691     0.937     0.420      2.129  0.006048725  23.0288        575
 6.59   0.0000   1585.3274    639.9982   1.63     217.6126     0.742     0.664      3.587   0.00605832  22.2058        576
 3.50   0.0000   1540.7145    133.3124 -50.71     4340.244     1.564     1.554      2.962  0.006051468  18.9562        577
 3.72   0.0000   1580.4880   1412.9047  69.04     401.2663     1.381     1.137      3.001  0.006048725  21.5414        578
 7.90   0.0000   1556.4828    736.5074 -43.82     157.6202     0.503     0.497      2.142  0.006052839  22.5560        579
 3.87   0.0000   1574.3569   1489.9440   4.25     449.0051     1.022     0.938      2.294  0.006054895  21.4194        580
 3.99   0.0000   1514.5411   1545.7484  75.59     689.3735     1.713     1.256      2.968  0.006053524  20.9539        581
 3.50   0.0000   1562.5902    302.4592 -49.50     47509.35     1.981     1.944      3.428  0.006059689  16.3581        582
 3.55   0.0000   1565.5569     20.1926 -73.30     2726.105     1.533     1.499      2.805   0.00605695  19.4611        583
 3.50   0.0000   1569.3970     90.9337 -30.49     2280.566     1.511     1.425      2.901  0.006059005  19.6549        584
 3.50   0.0000   1551.5663    680.5849 -23.92     17630.46     4.963     4.156     11.276  0.006056265  17.4343        585
 3.67   0.0000   1564.7480    782.9547 -73.93      1684.59     2.173     1.589      3.189  0.006056265  19.9838        586
 3.96   0.0000   1561.7164   1564.7347  83.74     358.9471     1.068     0.926      2.714  0.006050782  21.6624        587
 3.50   0.0000   1560.2748    859.8225  73.43      1645.06     1.395     1.346      2.741   0.00605695  20.0095        588
 3.50   0.0000   1551.0110   1512.0599  29.59     202.2457     0.781     0.773      2.498  0.006059005  22.2853        589
 3.50   0.0000   1557.0215    485.9543 -57.57     46122.95     1.991     1.950      3.344   0.00605695  16.3902        590
 3.93   0.0000   1537.6398    261.7019  47.27     292.9441     0.972     0.868      3.041  0.006050782  21.8830        591
 4.31   0.0001   1550.4930    350.8476  52.56     130.2692     0.879     0.671      2.911  0.006050782  22.7629        592
 6.54   0.0000   1553.0337   1231.4982  -0.59     217.6994     0.811     0.695      2.931   0.00604941  22.2054        593
 3.68   0.0000   1535.2637   1427.3330 -46.27     650.7285     2.123     1.077      3.708  0.006052153  21.0165        594
 6.78   0.0000   1540.4457    328.4951  25.93     149.0761     0.501     0.496      2.088  0.006050096  22.6165        595
 6.09   0.0000   1450.3645   1223.7706 -72.33     235.2619     1.128     0.669      3.101   0.00605558  22.1211        596
 4.16   0.0000   1549.9670   1220.5962 -11.51     805.3853     1.264     1.125      2.246   0.00605695  20.7850        597
 4.01   0.0000   1522.6630    377.0125  59.76     365.7201     1.735     0.951      4.191  0.006057635  21.6421        598
 4.91   0.0000   1534.7495    918.2697 -19.33     393.4708     0.935     0.832      2.603  0.006052839  21.5627        599
 4.61   0.0000   1518.0699     83.4022   9.88          462     1.318     1.191      3.151   0.00605832  21.3884        600
 4.23   0.0000   1531.5778    414.1128  13.39     745.1898     1.677     1.487      3.693   0.00605558  20.8693        601
 5.56   0.0000   1527.3539    731.6343  62.03     382.4801     1.327     1.082      3.225  0.006057635  21.5935        602
 5.32   0.0000   1521.5106     12.5315  -7.76     367.8602     1.017     0.992      3.060  0.006051467  21.6358        603
 8.01   0.0000   1493.2001    870.4006  70.78     205.3625     0.764     0.445      3.462   0.00605695  22.2687        604
 3.99   0.0000   1513.5579    481.9728 -80.06     920.2197     1.223     1.123      2.782  0.006059005  20.6403        605
 3.50   0.0000   1513.8682    390.9596   2.32     9011.442     1.709     1.671      2.847   0.00605558  18.1630        606
 5.32   0.0000   1526.0801    877.5831 -18.35     287.6732     1.002     0.726      2.813   0.00605695  21.9028        607
 4.68   0.0000   1487.1720     76.3101  -5.75     664.0793     1.301     1.181      3.124  0.006053524  20.9944        608
 3.50   0.0000   1503.1475    721.7911 -72.44     1210.298     1.380     1.324      2.739  0.006059005  20.3428        609
 4.72   0.0000   1519.0063   1099.2742 -87.46     611.3459     1.626     1.220      3.533  0.006059005  21.0843        610
 7.91   0.0001   1511.3092      3.6534  43.28     63.31522     0.572     0.336      3.433  0.005271708  23.5462        611
 6.27   0.0001    918.8821   1343.1436  45.01     112.0166     0.824     0.663      3.102  0.006052839  22.9268        612
 5.33   0.0000   1502.9550   1095.0253 -26.75     351.4558     1.109     0.888      2.593   0.00605832  21.6853        613
 3.50   0.0000   1506.1284    267.6196 -39.06     30202.41     1.890     1.876      3.222  0.006059005  16.8499        614
 3.50   0.0000   1481.3833    573.6016 -45.53     901.3815     2.213     1.470      3.809   0.00605421  20.6627        615
 5.35   0.0000   1501.3430   1412.0780  75.35     188.8265     1.029     0.740      3.260   0.00605421  22.3598        616
 5.43   0.0000    915.7727    251.4663  56.44     236.0232     1.873     1.097      4.988   0.00605558  22.1176        617
 3.50   0.0000   1497.7295    842.8806  35.10     684.3841     1.131     1.083      2.599  0.006052153  20.9618        618
 4.09   0.0000    931.4003   1116.4285 -40.25     177.2868     1.036     0.947      2.671  0.006053524  22.4283        619
 7.42   0.0001   1496.3085   1123.3169 -44.54     130.1939     0.559     0.342      2.425  0.006052153  22.7635        620
 6.18   0.0000    921.4901   1197.6259 -53.94     165.6754     1.657     1.149      3.202   0.00605421  22.5019        621
 4.53   0.0000   1437.7632    645.7658   2.75     405.1139     1.329     0.990      3.746   0.00605832  21.5311        622
 6.05   0.0000   1495.3975    928.7016 -57.86     204.7454     0.909     0.546      2.919  0.006053524  22.2720        623
 5.31   0.0000   1466.6744   1126.9293  27.03     204.3302     1.258     0.872      3.093  0.006050782  22.2742        624
 4.37   0.0000   1497.0087   1231.3116 -88.43     203.9914     0.733     0.664      2.739   0.00605558  22.2760        625
 4.70   0.0000   1474.0746    996.8602 -16.36     966.9539     2.590     1.317      6.002  0.006053524  20.5865        626
 6.97   0.0001    924.5815    309.2061 -20.12     75.48431     0.742     0.450      2.521   0.00605421  23.3554        627
 3.97   0.0000    924.8867     44.8511 -26.12     230.8202     1.060     0.954      2.992  0.006052153  22.1418        628
 7.02   0.0001   1482.3333    766.6622  44.81     99.08405     0.579     0.332      3.141  0.006052839  23.0600        629
 5.83   0.0000    924.0271    932.7233  87.69     148.7638     0.729     0.685      2.787  0.006054895  22.6188        630
 4.61   0.0000   1475.9445    197.0222   9.99     367.9614     1.192     0.971      3.013  0.006057635  21.6355        631
 3.65   0.0000    927.3818   1321.0515 -60.20     1155.847     1.433     1.344      2.552   0.00605695  20.3927        632
 8.06   0.0001   1470.6782    428.6792 -45.05     45.07142     0.567     0.339      2.769  0.006052839  23.9152        633
 5.40   0.0001   1496.5206    671.9360   1.87     109.3856     0.770     0.499      2.749  0.006050782  22.9526        634
 6.68   0.0000   1477.1406   1022.3224  47.76     249.4941     1.154     0.627      2.744  0.006052839  22.0573        635
 3.50   0.0000   1418.4011   1124.8586 -77.49     19833.88     2.022     1.866      2.772  0.006059689  17.3065        636
 8.12   0.0001   1451.5862   1163.1904 -20.41     87.58407     0.763     0.442      3.575  0.006053524  23.1939        637
 5.83   0.0001    946.8134     42.6076  50.12     66.94868     1.105     0.675      3.532  0.006051468  23.4856        638
 5.27   0.0000   1402.8489   1361.6335 -74.33     405.9398     1.115     0.938      2.728   0.00605695  21.5288        639
 5.49   0.0000    946.4409    131.7579 -14.69     284.0384     1.108     1.032      2.909   0.00605695  21.9166        640
 7.16   0.0000   1474.9755   1569.0132  31.13     259.3058     0.800     0.795      2.739  0.006054895  22.0155        641
 5.21   0.0000    925.0620    664.6942  35.82     173.2038     0.997     0.819      2.725  0.006052153  22.4536        642
 5.40   0.0000    940.5189    724.4358  41.32     225.0614     1.064     1.034      3.075  0.006054895  22.1692        643
 3.50   0.0000   1452.4904    389.9434  -2.31     375.9305     1.051     0.921      2.839  0.006052153  21.6122        644
 4.82   0.0000    937.3098    514.6938  60.38     705.2946     2.256     1.650      6.543  0.006050096  20.9291        645
 3.50   0.0000    928.7859   1176.9735 -63.34     16425.71     1.788     1.770      2.740   0.00605558  17.5112        646
 4.99   0.0000   1456.7534    610.2356 -77.31     221.6121     0.967     0.854      3.263  0.006057635  22.1860        647
 3.50   0.0000    946.7559    443.5303 -11.64     436.2425     1.245     1.172      2.826   0.00605421  21.4507        648
 4.15   0.0000   1437.7389   1269.7083 -34.43     825.2433     1.244     1.181      2.729  0.006053524  20.7585        649
 3.55   0.0000    938.2715   1065.6440  74.35     2049.644     1.516     1.424      2.600  0.006053524  19.7708        650
 6.58   0.0000   1453.9989    921.0148   0.10     204.8155     0.618     0.610      3.027  0.006053524  22.2716        651
 8.04   0.0011   1454.6998   1143.3197  43.89     6.240758     0.557     0.343      2.494  0.006048038  26.0619        652
 3.50   0.0000   1431.2603    339.1749  19.84     731.8847     1.931     1.296      3.948   0.00605695  20.8889        653
 6.94   0.0000   1453.4241    165.2227  19.37     144.7862     0.747     0.453      2.748   0.00605695  22.6482        654
 4.67   0.0000    948.6108    265.9981  16.72      248.525     1.079     0.933      2.800  0.006053524  22.0616        655
 3.50   0.0000   1438.7891    617.5158  -9.75     3338.371     1.518     1.457      2.725   0.00605558  19.2412        656
 3.50   0.0001   1436.2822    385.9742 -10.44     87.90898     0.726     0.665      2.408  0.006054895  23.1899        657
 4.85   0.0001    949.4341    825.3799 -67.70     107.4081     0.963     0.841      3.135  0.006056265  22.9724        658
 3.50   0.0000   1433.4287   1089.0946 -40.78     98384.74     2.216     2.101      3.142  0.006052839  15.5677        659
 4.96   0.0000    951.0420     59.8504 -55.61       286.81     1.223     1.146      2.946   0.00605695  21.9060        660
 4.48   0.0000    985.7009    452.4940  66.36      1185.15     2.192     1.917      6.838   0.00604941  20.3656        661
 4.81   0.0000   1448.4435     86.3038 -75.48     248.0378     0.964     0.937      2.755  0.006050096  22.0637        662
 5.81   0.0001    958.6643    891.9353   5.72     118.4038     0.739     0.656      2.559  0.006052153  22.8666        663
 6.70   0.0001    952.3122   1502.9946   2.63      105.543     0.732     0.667      2.461   0.00605421  22.9914        664
 6.60   0.0000    962.8923    422.3037  19.58     153.3681     0.935     0.675      2.593   0.00604941  22.5857        665
 0.00   0.0050   1445.3502    729.8088 -28.36     1.303049     1.132     1.047      6.792   0.00605832  27.7626        666
 8.96   0.0001   1431.5128   1278.9904 -32.00     110.6536     0.800     0.312      3.473   0.00605558  22.9401        667
 6.33   0.0002    975.5884     70.2583 -18.53     35.37834     0.739     0.456      2.679   0.00605832  24.1782        668
 0.00  99.0000   1422.9612   1595.5355  27.20  -0.01788946     1.054     0.653      6.323  0.005707802  99.0000        669
 3.50   0.0000   1434.2783    223.0297 -38.73     4355.459     1.575     1.529      2.832   0.00605421  18.9524        670
 3.68   0.0000    949.7264    652.6766  89.27     908.0526     2.209     1.529      3.748  0.006052153  20.6547        671
 6.10   0.0000    954.1638   1027.8688  44.93     141.9457     0.809     0.675      2.960  0.006056265  22.6697        672
 6.84   0.0000    983.8214    952.2770 -36.11     146.2169     1.047     0.527      3.378  0.006056265  22.6375        673
 5.98   0.0000   1391.8539   1532.9331 -74.35      442.472     1.314     1.120      2.933  0.006053524  21.4353        674
 3.50   0.0000   1407.1237    306.5707 -33.37     3197.997     1.524     1.452      2.941  0.006054895  19.2878        675
 3.94   0.0000    964.0480    414.7322 -20.48     432.9544     1.256     1.116      2.830   0.00605421  21.4589        676
 6.92   0.0001    973.0498    546.6980 -15.16     109.0353     1.003     0.749      2.759  0.006048038  22.9561        677
 3.50   0.0000   1435.2114   1345.9427 -76.43     526.8439     1.103     1.098      2.594   0.00605832  21.2458        678
 5.44   0.0000    976.1675   1279.1414 -43.84     157.1474     0.813     0.681      2.509   0.00605695  22.5592        679
 3.50   0.0000    983.9273    556.8638 -47.92     26667.92     1.891     1.871      3.046  0.006051468  16.9850        680
 6.11   0.0000   1410.6138    365.7228 -69.34     282.0698     2.048     0.652      4.781  0.006059005  21.9241        681
 5.38   0.0000   1387.7228   1583.7048   3.16      280.979     0.928     0.853      2.680  0.006050096  21.9283        682
 3.62   0.0000   1414.4304   1385.1575  32.96      2230.13     1.424     1.390      2.565   0.00605832  19.6792        683
 5.58   0.0000    977.7038   1064.9983  -4.34     145.7286     0.728     0.665      2.078  0.006054895  22.6411        684
 5.97   0.0000   1419.1465    428.0791 -41.74     212.2025     0.853     0.657      2.802  0.006052153  22.2331        685
 6.80   0.0000   1417.7028    105.0311 -11.65     176.4531     0.750     0.672      2.952  0.006050782  22.4334        686
 5.35   0.0000    981.3090   1485.5173 -20.65     250.7947     0.951     0.926      2.631  0.006052839  22.0517        687
 3.73   0.0000   1410.1467    348.3118  48.27     1084.546     1.824     1.430      3.406  0.006052153  20.4619        688
 4.79   0.0000    977.1621    451.1198 -80.29     536.0656     1.395     1.281      2.866   0.00605421  21.2270        689
 4.03   0.0000   1405.3202    328.2343 -52.99     980.5795     1.263     1.192      2.644   0.00605421  20.5713        690
 3.50   0.0000   1392.3256    112.7033 -57.14     61270.45     2.043     1.990      3.549  0.006052153  16.0819        691
 4.16   0.0000    979.9540    796.3262 -60.74     987.0044     1.897     1.679      3.078  0.006052839  20.5642        692
 7.69   0.0001   1401.2513     61.0088  -0.45     86.80187     0.683     0.434      3.234  0.006059005  23.2037        693
 3.50   0.0000   1387.8695   1427.1104 -78.66     8964.029     1.676     1.662      2.490  0.006050782  18.1687        694
 5.43   0.0000   1305.7584    572.4661 -28.68     265.0757     1.038     0.790      3.089   0.00605558  21.9916        695
 5.53   0.0001   1028.8491    945.8722 -42.73     120.7824     0.837     0.654      3.310  0.006051468  22.8450        696
 4.18   0.0000   1399.7241   1029.9249  30.94     1317.106     1.676     1.466      2.785  0.006052153  20.2509        697
 7.24   0.0001   1388.1443   1100.9866  85.64      44.5067     0.920     0.753      2.885   0.00605832  23.9289        698
 0.00   0.0002   1396.0151   1101.5850   5.73     30.79783     0.989     0.763      5.934   0.00605558  24.3287        699
 7.62   0.0001   1386.4980    675.9568   0.02     112.8152     0.789     0.500      3.049  0.006050096  22.9191        700
 8.03   0.0000   1402.0109   1343.7205 -84.02     251.0385     0.758     0.680      3.537   0.00605695  22.0506        701
 4.65   0.0000   1358.5231   1133.8226  74.98     6855.958     9.508     6.594     16.764   0.00605558  18.4598        702
 3.50   0.0000   1389.4053    711.6841  81.49     3299.154     1.589     1.516      2.811  0.006054895  19.2540        703
 6.99   0.0000    990.2462      7.4625 -28.26     299.7253     1.469     1.124      3.311  0.006018467  21.8582        704
 3.50   0.0000   1365.6389   1158.5627 -61.99     387343.7     2.775     2.613      3.654  0.006057635  14.0798        705
 3.50   0.0000   1391.3113   1037.2988 -67.49     2467.103     1.494     1.448      2.615   0.00604941  19.5695        706
 6.34   0.0000   1027.8447    179.1574 -46.03     180.2232     1.273     0.867      3.893  0.006057635  22.4105        707
 8.07   0.0000   1384.5070   1383.5040  -0.31     239.4076     1.068     0.500      3.859   0.00604941  22.1022        708
 4.49   0.0000   1378.1963    317.5049 -18.68      526.575     1.323     1.092      2.931  0.006053524  21.2463        709
 4.99   0.0000   1027.0353    462.2316  -5.81     164.6026     0.873     0.743      3.062  0.006056265  22.5089        710
 4.34   0.0000   1027.3413    350.5627 -39.74     213.3027     1.013     0.865      2.534  0.006056265  22.2275        711
 4.72   0.0000   1351.2303    150.2305  80.68     721.0047     2.162     1.660      4.647   0.00605695  20.9052        712
 3.62   0.0000   1345.8954    192.6021  62.75     280.3464     1.027     0.942      3.036  0.006054895  21.9308        713
 3.50   0.0000   1371.5310   1017.4489 -37.34     9819.074     1.902     1.751      2.775  0.006053524  18.0698        714
 4.39   0.1228   1026.6232    605.9142  -0.73   0.05355874     1.056     0.926      4.107  0.006054895  31.2279        715
 4.61   0.0000   1367.3762    147.6849  44.63      418.898     1.049     0.928      3.043  0.006054895  21.4947        716
 6.03   0.0035   1368.1707   1068.1990  45.38     1.870439     0.745     0.564      2.326  0.006052839  27.3701        717
 5.57   0.0000   1369.6470   1213.9382 -16.30     242.4816     1.108     0.943      2.777   0.00605421  22.0883        718
 0.00   0.0006   1311.2119    269.9725   1.04     10.93884     0.698     0.409      4.189   0.00605695  25.4526        719
 3.94   0.0000   1276.5571    341.7841  80.92     330.6642     0.954     0.928      2.914   0.00605695  21.7515        720
 3.50   0.0000   1264.4229    806.2896 -18.43     3785.941     1.560     1.538      2.645  0.006054895  19.1046        721
 7.00   0.0001   1307.3242    793.3080 -45.86     92.51873     0.562     0.341      2.406  0.006051468  23.1344        722
 3.50   0.0000   1094.6395   1525.1777 -30.46      1074.25     1.334     1.266      2.477   0.00605695  20.4722        723
 6.63   0.0000   1361.7042   1110.3534  56.98      195.887     1.183     0.776      2.430   0.00604941  22.3200        724
 4.76   0.0000   1351.8541    473.8246 -48.19     215.2267     0.815     0.672      2.910  0.006059005  22.2178        725
 5.27   0.0000   1369.7343    705.0079   5.00     135.2445     0.719     0.666      2.759  0.006059689  22.7222        726
 4.34   0.0001   1359.8328   1242.1254  42.19     97.19672     0.788     0.679      2.599   0.00605421  23.0809        727
 7.35   0.0000   1351.7126    965.6663 -42.38     188.6669     0.557     0.342      2.571  0.006052153  22.3608        728
 5.66   0.0000   1329.6985   1138.2083 -78.58     1058.153     2.447     1.630      3.158  0.006052839  20.4886        729
 8.03   0.0001   1098.2954    861.6458  42.19     62.76961     0.569     0.337      2.766  0.006050096  23.5556        730
 8.52   0.0000   1361.5084    525.3306 -89.77     231.3678     0.931     0.470      4.034  0.006052153  22.1392        731
 5.18   0.0000   1361.7424    389.2371 -25.90     310.9461     1.318     0.771      3.150  0.006056265  21.8183        732
 5.33   0.0000   1302.4600     40.9724  88.35     155.6063     0.798     0.697      2.878  0.006057635  22.5699        733
 3.84   0.0000   1345.2644    603.6066 -53.36     605.8395     1.351     1.168      2.841  0.006059005  21.0941        734
 4.45   0.0000   1298.1709     52.2045  42.58     612.2437     1.145     1.089      2.890   0.00605558  21.0827        735
 6.46   0.0000   1305.3463    842.9009  21.88     437.2759     1.169     1.048      6.543  0.006048725  21.4481        736
 3.50   0.0000   1306.4845    668.0395 -50.87     3150.611     1.914     1.586      2.756  0.006054895  19.3040        737
 3.50   0.0000   1328.8699    654.2535  11.69     3511.293     1.733     1.657      2.674  0.006052839  19.1863        738
 3.51   0.0000   1331.7373    105.7020 -22.36     1260.825     1.408     1.294      2.853  0.006052839  20.2984        739
 3.92   0.0000   1387.8553    805.0548  64.31     799.2015     1.193     1.139      2.629  0.006054895  20.7934        740
 3.50   0.0000   1318.9818    658.3548 -10.07     27268.29     1.880     1.869      3.162   0.00605695  16.9609        741
 8.15   0.0001   1316.2993   1355.6572  42.83      118.869     0.566     0.339      2.460   0.00604941  22.8623        742
 3.50   0.0000   1220.4615    993.4240 -37.25     737107.2     7.178     6.670      8.248  0.006057635  13.3812        743
 6.41   0.0001   1314.3456   1132.9926   3.01     112.8878     0.742     0.668      2.634  0.006061059  22.9184        744
 3.58   0.0000   1258.4662    430.8267  -5.62     1849.074     2.268     2.110      4.643  0.006056265  19.8826        745
 7.00   0.0000   1338.1383   1478.8722  41.74     213.8487     0.831     0.669      2.552  0.006052839  22.2247        746
 7.08   0.0000   1301.7408    937.3929  86.72      164.718     1.329     0.611      2.904  0.006059689  22.5081        747
 6.17   0.0000   1324.0872    631.8570   9.21      296.695     1.745     0.712      3.575  0.006052153  21.8692        748
 3.71   0.0000   1303.8031    891.3152 -58.81      1014.43     1.341     1.271      2.441  0.006054895  20.5344        749
 4.11   0.0000   1306.6106   1034.6216 -39.20     2385.318     2.756     2.091      4.016   0.00605421  19.6061        750
 3.50   0.0000   1329.3933    385.2852  -3.69     777.5129     1.296     1.253      2.635  0.006054895  20.8232        751
 3.64   0.0000   1318.3696    262.4020 -29.61     1111.356     1.276     1.231      2.655   0.00605421  20.4354        752
 6.94   0.0001   1322.6433    957.6936 -47.21     69.10269     0.575     0.334      2.317  0.006050096  23.4513        753
 3.50   0.0000   1297.3101    723.3259 -19.97       121945     2.659     2.132      3.489  0.006051468  15.3346        754
 7.95   0.0000   1100.0000    111.0088   0.00     158.8721     0.859     0.289      3.782  0.006052839  22.5474        755
 7.44   0.0001   1311.9938    998.0768 -28.43     115.9911     1.170     1.052      2.959  0.006056265  22.8889        756
 3.93   0.0000   1128.1840    545.7701 -30.27     727.8874     1.357     1.284      2.767  0.006057635  20.8948        757
 3.50   0.0000   1290.3876    760.6219 -25.70      7246.89     2.257     1.708      2.712  0.006054895  18.3996        758
 3.50   0.0000   1277.2014   1329.9415 -87.78     4871.498     1.635     1.592      2.552  0.006059689  18.8308        759
 5.36   0.0000   1384.7158   1272.3895  46.12     570.5748     1.497     1.334      3.925  0.006054895  21.1592        760
 6.67   0.0002   1123.5750    756.7877 -48.27     32.10872     1.098     0.721      2.753  0.006054895  24.2834        761
 6.04   0.0000   1124.4918    274.9145  -0.16     177.8451     0.776     0.500      2.793   0.00604941  22.4249        762
 6.67   0.0000   1175.9192     17.0545 -23.45     267.4779     1.282     0.648      4.137  0.006051468  21.9818        763
 6.61   0.0001   1299.0090    845.0176  -0.23     131.4578     0.629     0.597      2.865  0.006053524  22.7530        764
 8.09   0.0000   1128.5016    872.2014  88.21     196.2495     0.976     0.730      4.934  0.006052839  22.3180        765
 4.20   0.0000   1290.6204    544.2021 -20.71     402.3296     1.143     1.012      2.656  0.006054895  21.5385        766
 6.33   0.0001   1292.7864   1089.9070  60.37      122.389     0.923     0.748      2.747   0.00605421  22.8306        767
 7.27   0.0001   1104.0562    625.2693  83.01     98.94624     0.721     0.682      2.528  0.006052839  23.0615        768
 3.50   0.0000   1150.6973    692.2532 -38.99       367696     2.887     2.676      3.987  0.006050096  14.1363        769
 3.50   0.0000   1291.5846    411.0669  -7.91     1407.712     1.363     1.260      2.803   0.00605832  20.1787        770
 8.12   0.0000   1107.3711    969.7735 -17.41     188.5864     0.756     0.447      3.031   0.00605695  22.3612        771
 4.77   0.0000   1282.3370   1567.6477 -45.17     278.5541     0.972     0.847      2.347   0.00605421  21.9377        772
 4.40   0.0000   1202.3214   1074.0956  33.00     1554.668     2.223     1.786      3.224  0.006050096  20.0709        773
 8.52   0.0000   1152.4865    574.5125 -44.93     217.3063     0.506     0.494      3.034  0.006050782  22.2073        774
 7.49   0.0000   1196.4852   1199.4744  48.16     152.9531     0.502     0.498      2.407  0.006050782  22.5886        775
 5.26   0.0000   1129.1439   1143.1812 -48.55     161.1649     0.817     0.666      3.079  0.006056265  22.5318        776
 7.01   0.0000   1140.4651    659.7985 -52.32     502.0482     1.893     1.522      3.390  0.006059689  21.2981        777
 4.18   0.0000   1272.8336    696.5293 -23.77     462.6628     1.376     1.208      2.926   0.00605558  21.3868        778
 4.58   0.0000   1261.2365    853.7141 -51.40     711.4196     1.240     1.125      2.600  0.006054895  20.9197        779
 4.33   0.0000   1172.2396    206.5415  -0.52      234.453     0.948     0.716      2.985  0.006056265  22.1249        780
 7.67   0.0000   1144.4635   1337.2426  -9.82     165.2832     1.001     0.475      3.124  0.006054895  22.5044        781
 7.53   0.0000   1227.8853    913.5693 -17.44     160.7533     1.499     1.332      2.422   0.00605558  22.5346        782
 4.39   0.0000   1105.8502   1265.8051 -41.21     176.9597     0.868     0.840      2.332  0.006059689  22.4303        783
 5.42   0.0000   1243.1521    612.2711   8.43     280.6267     1.060     0.898      2.344  0.006053524  21.9297        784
 4.15   0.0000   1227.8395   1152.2141 -22.11      563.246     1.188     1.147      2.466  0.006057635  21.1733        785
 3.50   0.0000   1271.8032    608.2762 -58.06     10866.82     4.613     2.623      9.208  0.006056265  17.9597        786
 6.11   0.0001   1243.4989   1537.5067 -45.16     62.77769     0.504     0.496      3.024  0.006050096  23.5555        787
 3.50   0.0000   1213.5747    511.3549 -25.18      16928.6     1.795     1.778      3.079   0.00605832  17.4784        788
 3.50   0.0000   1236.6469     46.4764  -7.04     624.6151     1.257     1.207      2.962  0.006052839  21.0610        789
 3.54   0.0000   1241.5844    671.1392   6.78     1138.521     1.349     1.311      2.625   0.00605558  20.4091        790
 4.91   0.0000   1128.6785    503.2145 -72.86     292.1594     0.970     0.848      2.624  0.006057635  21.8860        791
 6.05   0.0000   1237.0966    855.9076 -56.54     489.2207     1.347     1.137      3.295   0.00604941  21.3262        792
 3.50   0.0000   1209.7596   1277.4928  80.92     9637.998     6.133     3.697     12.093   0.00604941  18.0900        793
 3.89   0.0000   1179.9685    547.8348  27.07     817.8473     1.325     1.278      2.709   0.00605695  20.7683        794
 3.52   0.0000   1236.1481   1552.2064 -62.25     2021.943     1.513     1.419      2.401  0.006060374  19.7856        795
 5.47   0.0000   1228.9092    597.3938  -8.65     861.5884     1.958     1.837      3.881  0.006052839  20.7118        796
 7.87   0.0001   1223.3279    403.3292 -44.94     80.45028     0.573     0.336      2.738  0.006050096  23.2862        797
 7.66   0.0000   1174.8308    251.6800 -22.04     170.0836     0.744     0.641      2.972  0.006054895  22.4733        798
 3.65   0.0000   1018.5430   1153.2629 -11.43     212.9831     1.024     0.928      2.578   0.00605421  22.2291        799
 6.41   0.0001   1252.5984   1087.1168  72.04     122.6618     0.947     0.671      3.224   0.00605558  22.8282        800
 4.88   0.0000   1184.2291    312.3769  -4.81     322.3239     0.955     0.906      2.478  0.006056265  21.7793        801
 4.38   0.0000   1203.2086   1215.9971 -46.57      286.576     1.081     1.040      2.600  0.006053524  21.9069        802
 3.50   0.0000   1261.4006    214.4516 -30.80     439.1138     1.011     0.985      2.967  0.006059689  21.4436        803
 5.10   0.0000   1220.3372   1429.9238 -84.30     459.8602     1.241     1.166      3.037  0.006052153  21.3934        804
 4.24   0.0000   1211.8528   1427.9130  72.05     1701.682     2.884     2.287      5.684  0.006051468  19.9728        805
 7.06   0.0001   1086.4921   1010.4984 -44.40     120.7137     0.501     0.499      3.008  0.006050096  22.8456        806
 4.41   0.0000   1194.0449    122.4260 -77.15     1789.231     2.421     1.984      4.468   0.00605832  19.9183        807
 3.89   0.0000   1171.4908    756.1340 -51.46     6146.818     3.866     3.757      7.638  0.006053524  18.5784        808
 6.93   0.0000   1194.9761   1051.7767  26.54     227.0059     1.358     1.086      2.714   0.00605695  22.1599        809
 3.50   0.0000   1233.3156    303.1268  10.70     3188.519     1.539     1.496      2.777  0.006051468  19.2910        810
 5.49   0.0000   1209.7424    827.6857  20.32     260.5898     1.355     0.992      2.900  0.006053524  22.0101        811
 5.19   0.0000   1209.4709   1414.3469   8.04     365.0691     1.389     0.977      2.679  0.006052839  21.6441        812
 3.55   0.0000   1206.7057    837.2629 -23.02     2098.336     1.473     1.408      2.539  0.006052839  19.7453        813
 3.50   0.0000   1200.0442   1440.7319  64.16     1351.923     1.865     1.674      3.085   0.00605421  20.2226        814
 3.50   0.0000   1200.7561    337.4187 -18.04     2036.295     1.454     1.439      2.720  0.006056265  19.7779        815
 5.57   0.0001   1197.0143    410.9902   3.15     91.78101     0.615     0.613      2.686  0.006052839  23.1431        816
 7.37   0.0001   1186.0320   1233.0010  45.53     63.10938     0.915     0.530      2.277  0.006054895  23.5498        817
 5.96   0.0000   1181.9125    672.2666 -38.80     423.4212     1.337     1.252      2.414  0.006052839  21.4831        818
 3.50   0.0000   1180.7084    174.5835  42.19     664.7026     1.217     1.137      2.916   0.00605558  20.9934        819
 5.48   0.0001   1222.1429    828.8300  43.66     95.18583     0.817     0.666      2.469  0.006057635  23.1036        820
 0.00  99.0000   1187.8943    935.4072 -48.99   -0.0107398     0.997     0.748      0.000   0.00605421  99.0000        821
 4.40   0.0001   1195.9845   1332.0293 -26.05     115.2983     0.791     0.777      2.583  0.006057635  22.8954        822
 6.16   0.0001   1208.4907   1453.4929 -44.90     122.5406     0.505     0.495      2.568  0.006050096  22.8293        823
 7.42   0.0001   1185.2233    389.9972   0.12      104.234     0.692     0.416      2.606   0.00605558  23.0050        824
 5.91   0.0000   1179.3308   1402.4528 -22.60     193.0488     0.953     0.825      3.018  0.006052839  22.3358        825
 7.60   0.0001   1178.1711   1306.1359  44.87     111.5732     0.759     0.567      4.554   0.00605558  22.9311        826
 5.29   0.0000   1146.7434    110.7038   6.37     208.1515     1.044     0.920      3.042  0.006050096  22.2541        827
 3.69   0.0000   1119.2843    328.1035  59.93     2293.474     2.997     1.855      6.406  0.006048038  19.6488        828
 3.50   0.0000   1164.2914   1298.2402 -60.14     41902.49     1.971     1.917      3.087  0.006050782  16.4944        829
 3.70   0.0000   1150.1506     97.7526 -18.30     1599.799     1.468     1.382      2.843  0.006057635  20.0398        830
 5.51   0.0000   1157.1002    184.2888 -70.77     237.5684     1.252     0.910      3.377  0.006048038  22.1105        831
 5.05   0.0000   1155.2443    565.8426 -72.71     315.4875     1.371     1.108      3.081  0.006057635  21.8025        832
 8.18   0.0003   1166.4851    637.9879  -0.63     19.89961     0.781     0.500      3.753   0.00605558  24.8029        833
 4.59   0.0745   1166.0668   1598.8599  81.41   0.07052572     1.399     0.944      4.986  0.004838328  30.9291        834
 3.99   0.0000   1152.6777   1351.5503 -11.80     1092.104     1.660     1.613      2.935  0.006051468  20.4543        835
 6.36   0.0000   1155.5432    349.9644 -61.96     164.4577     1.000     0.667      2.982   0.00605695  22.5099        836
 4.16   0.0000   1160.7136    886.1776  -5.98     721.2487     1.328     1.227      2.616  0.006054895  20.9048        837
 7.46   0.0001   1156.7861    969.3268 -20.66     70.87356     0.978     0.847      2.532  0.006060374  23.4238        838
 3.50   0.0000   1156.7560    234.6834 -79.93     6413.354     1.671     1.666      3.003  0.006053524  18.5323        839
 6.77   0.0001   1154.0000   1123.9731   0.00     130.4587     0.860     0.289      3.380   0.00605421  22.7613        840
 3.50   0.0000   1218.0081   1193.4810  65.18     11139.52     1.997     1.875      2.526  0.006054895  17.9328        841
 7.48   0.1387   1205.5585    721.4760  38.68   0.04738875     0.504     0.491      2.542   0.00605421  31.3608        842
 6.43   0.0000   1145.6858    793.0436  -9.70     152.1406     0.733     0.663      2.794   0.00605421  22.5944        843
 3.57   0.0000   1129.1498    217.8572  -3.65     743.7795     1.557     1.367      3.051  0.006054895  20.8714        844
 4.30   0.0000   1171.6689    231.1080 -63.51     243.5501     1.079     0.977      2.823  0.006051468  22.0835        845
 4.68   0.0000   1144.4302    768.3583 -59.72     333.7358     1.570     1.123      2.925   0.00605832  21.7415        846
 4.35   0.0915   1176.0365   1597.4617 -85.35   0.06229113     1.045     0.936      4.119  0.005246461  31.0639        847
 3.50   0.0000   1137.4620    146.3127 -54.99      28956.6     1.912     1.893      3.294  0.006052153  16.8956        848
 5.35   0.0000   1078.2360    920.6154 -32.32     189.6128     0.959     0.940      2.890   0.00605695  22.3553        849
 4.59   0.0000   1130.0065    357.5856 -42.74     503.4353     1.180     0.984      2.824  0.006052153  21.2951        850
 4.86   0.0000   1132.8885    605.9141 -11.29      360.201     1.313     1.173      2.709  0.006051468  21.6586        851
 3.50   0.0000   1128.9320    181.7648 -53.97      17705.3     1.817     1.770      3.149  0.006056265  17.4297        852
 6.05   0.0000   1127.2538    836.0876  74.99       203.04     1.023     0.750      2.751  0.006050782  22.2810        853
 5.53   0.0000   1104.5703    677.0995  39.04     676.3983     2.169     1.755      4.253  0.006050096  20.9745        854
 6.54   0.0000   1125.1917    164.8132 -46.07     153.1032     0.742     0.565      2.666  0.006052839  22.5875        855
 7.26   0.0001   1120.9564    739.5446   0.88     88.74659     1.058     0.785      3.267  0.006054895  23.1796        856
 5.82   0.0001   1119.8595    638.3765  23.52     59.08443     1.121     0.835      3.242   0.00605832  23.6213        857
 5.18   0.0000   1115.5903   1168.8553 -34.12     258.6158     1.356     0.982      3.311  0.006059005  22.0184        858
 3.50   0.0000   1106.4481    426.3384  -9.29     7869.099     1.716     1.686      2.831  0.006053524  18.3102        859
 6.93   0.0001   1116.5751    663.2375 -57.89     53.89235     1.025     0.796      2.616  0.006056265  23.7212        860
 6.38   0.0000   1107.9810   1122.0045 -62.43      164.705     0.791     0.782      2.856   0.00605421  22.5082        861
 5.17   0.0000   1113.1106    672.6693 -71.48     620.2053     1.311     1.310      2.827  0.006050782  21.0687        862
 8.70   0.0001   1114.6976    505.6875 -44.41     97.62309     0.554     0.344      3.076  0.006048725  23.0761        863
 5.24   0.0000   1110.1713    477.9135  27.23     1622.143     3.267     2.221      9.086  0.006054895  20.0248        864
 3.50   0.0000   1103.5300    750.2573 -87.83     12246.83     1.778     1.761      2.866  0.006052839  17.8299        865
 3.77   0.0000   1093.7592   1134.8015  40.97     361.5147     1.145     1.081      2.648   0.00605695  21.6547        866
 6.69   0.0001   1083.5940    844.8043  19.73     121.0591     0.765     0.444      3.447  0.006053524  22.8425        867
 5.81   0.0000   1076.9998    466.9958 -37.55      140.861     0.792     0.772      2.998   0.00605558  22.6780        868
 3.50   0.0000   1093.8246    776.4846  83.71     26804.69     1.916     1.881      3.203  0.006054895  16.9795        869
 3.68   0.0000   1078.3486    328.4358 -38.53     640.5588     1.267     1.239      2.706  0.006056265  21.0336        870
 4.89   0.0000   1089.8680    466.5598 -61.42     888.3914     2.769     1.373      5.538   0.00605558  20.6785        871
 6.19   0.0000   1091.9058    427.6240  27.34     475.0048     2.152     1.530      4.571  0.006053524  21.3583        872
 5.08   0.0000   1087.3275    395.1394  67.72     331.3722     1.334     1.094      3.003  0.006052839  21.7492        873
 4.47   0.0000   1059.0112    725.3658  25.60     927.9823     2.079     1.759      3.065  0.006057635  20.6311        874
 3.81   0.0000   1085.5021   1451.3997  65.38     391.3889     1.515     1.213      3.003  0.006052839  21.5685        875
 3.50   0.0000   1088.2401    640.8350  86.91     3414.914     1.566     1.534      2.851  0.006057635  19.2165        876
 3.50   0.0000   1022.7267     48.6201 -35.71     265241.9     2.597     2.408      3.601   0.00605832  14.4909        877
 3.50   0.0000   1079.0282    510.4786 -32.38     29895.36     1.914     1.898      3.114   0.00605421  16.8610        878
 4.25   0.0000   1062.2235      5.4637 -29.00     504.7538     1.246     1.180      2.979  0.005708529  21.2923        879
 3.50   0.0000   1080.8505   1146.6935  77.88     10950.18     1.745     1.731      2.734  0.006050782  17.9514        880
 4.12   0.0000   1071.2167   1217.5026 -70.66     1870.394     2.520     2.104      6.654   0.00605421  19.8702        881
 4.82   0.0000   1082.6919     41.1963  -8.16     593.5101     1.616     1.304      3.124  0.006052839  21.1164        882
 4.37   0.0000   1065.7548    567.4888 -62.16     340.1353     1.384     1.135      2.867  0.006052153  21.7209        883
 5.51   0.0000   1079.3701     51.4391 -43.55     169.9364     1.041     0.920      2.515   0.00605695  22.4743        884
 4.63   0.0000   1016.3798    199.5536  42.36     285.8629     1.080     0.949      3.232   0.00605695  21.9096        885
 4.14   0.0000   1072.2291      5.1956 -71.72     670.2751     1.268     1.239      2.866  0.005651552  20.9844        886
 3.50   0.0000   1008.8694    812.1041  84.86        18152     1.824     1.805      2.959  0.006052839  17.4027        887
 5.26   0.0000   1073.5564    350.7970  61.84     303.8048     1.464     1.131      3.504  0.006059005  21.8435        888
 4.81   0.0000   1062.8992    290.3218 -19.83     273.4578     1.087     0.971      3.256  0.006050096  21.9578        889
 4.43   0.0000   1064.2568   1561.6133 -67.53     1122.601     2.826     1.830      6.087  0.006057635  20.4244        890
 3.50   0.0001   1064.9015   1595.6791  -0.52      102.475     1.193     1.117      2.485  0.005675727  23.0235        891
 3.50   0.0000   1039.2612    631.3998 -52.15     35323.25     1.943     1.906      3.219  0.006059689  16.6798        892
 5.96   0.0001   1055.2920    663.0732   5.50     129.5532     0.739     0.675      3.191  0.006052839  22.7689        893
 5.25   0.0001   1059.5073    689.4709   0.23     89.36118     1.035     0.500      2.647  0.006052153  23.1721        894
 4.91   0.0000   1066.9222   1472.6885  13.82     453.1272     2.290     1.464      8.158  0.006050096  21.4094        895
 6.46   0.0000   1046.9856   1157.0267  37.73     157.3365     0.802     0.775      2.348   0.00605558  22.5579        896
 6.80   0.0000   1047.3096    206.9439  -7.42     156.0153     0.748     0.663      2.813  0.006052153  22.5671        897
 3.96   0.0000   1051.4053    236.0589  32.58     203.3599     1.280     1.083      3.219  0.006059005  22.2793        898
 3.50   0.0000   1037.6960    523.7816  82.78     9297.209     1.756     1.726      2.807   0.00605421  18.1291        899
 4.81   0.0000   1041.5990   1094.1293  31.86     201.6522     1.300     0.830      3.245   0.00605832  22.2885        900
 5.15   0.0000   1051.6841    399.0921 -82.94     236.4958     1.140     0.849      3.174  0.006050782  22.1154        901
 7.71   0.0000   1052.5165   1383.5254  56.93     138.6014     0.500     0.499      2.882  0.006051467  22.6956        902
 6.71   0.0000   1032.5081    491.9370  -0.07      136.731     0.789     0.500      2.743  0.006053524  22.7103        903
 5.45   0.0000   1039.6661    465.6006  32.05     284.2957     1.347     1.141      2.985  0.006059005  21.9156        904
 4.73   0.0000   1036.8652    120.3497 -37.54      695.316     2.572     1.361      4.092   0.00605421  20.9445        905
 6.90   0.0001   1025.0353      5.9489 -44.25      51.2694     0.891     0.532      3.152  0.005802962  23.7754        906
 5.31   0.0003   1032.7021    100.3017  39.23     25.37483     0.931     0.759      3.389   0.00604941  24.5390        907
 5.23   0.0000   1036.4390    240.4637  -4.44     203.9021     0.907     0.880      3.057   0.00605558  22.2764        908
 3.62   0.0000   1013.5132    451.4057  19.72     395.4316     1.293     1.062      3.106  0.006054895  21.5573        909
 3.73   0.0000   1029.2534    300.8980  65.90     1763.308     2.833     1.955      5.648   0.00604941  19.9342        910
 4.77   0.0000    992.2214    498.2236  13.88      193.564     0.950     0.845      2.506   0.00605695  22.3329        911
 3.50   0.0000   1024.8685   1378.5450 -82.84     19784.18     1.908     1.781      2.819  0.006052839  17.3092        912
 6.67   0.0000   1024.2909    126.9758   2.36     192.6513     0.735     0.678      3.750   0.00605421  22.3381        913
 6.46   0.0001   1031.4546   1166.4862  30.61     92.54665     0.501     0.497      2.333  0.006052839  23.1341        914
 3.50   0.0000   1010.2822    343.0762 -25.98     2740.441     1.542     1.500      2.727  0.006052839  19.4554        915
 5.39   0.0001   1028.5204   1033.8624  49.53     123.2104     0.858     0.665      2.759  0.006051468  22.8234        916
 5.72   0.0000   1010.0002    266.0419  37.06     439.8854     1.151     1.135      3.128   0.00605695  21.4417        917
 7.25   0.0001   1008.5160    188.9674   0.83       91.069     0.782     0.500      2.699   0.00605558  23.1516        918
 6.09   0.0001   1025.4962   1265.4888 -34.41     69.36814     0.938     0.561      3.072  0.006048725  23.4471        919
 4.83   0.0000    991.4347    344.4879 -26.49     241.6167     0.908     0.880      2.510  0.006054895  22.0922        920
 3.50   0.0000   1003.3541   1236.5841  39.67     143.6447     1.130     0.769      3.050  0.006056265  22.6568        921
 4.80   0.0000   1020.2845   1267.2625  45.75     343.2732     2.403     0.986      5.567  0.006052153  21.7109        922
 3.50   0.0000   1000.7197    541.0186  31.04     2904.879     1.581     1.571      2.653   0.00605695  19.3922        923
 3.50   0.0000   1000.5585   1554.0790 -38.51     1274.645     1.361     1.359      2.527   0.00605421  20.2865        924
 3.68   0.0000    998.8989   1272.4159 -27.00      982.774     1.391     1.252      2.338  0.006053524  20.5689        925
 5.61   0.0000   1042.1692    808.1451 -29.58     181.7804     0.877     0.838      2.562  0.006057635  22.4011        926
 7.01   0.0001    998.5260   1439.5573 -49.47     57.12928     0.506     0.490      2.654  0.006053524  23.6579        927
