#   1 KRON_RADIUS            Kron apertures in units of A or B                         
#   2 Y_IMAGE                Object position along y                                    [pixel]
#   3 MAG_BEST               Best of MAG_AUTO and MAG_ISOCOR                            [mag]
#   4 FLUX_BEST              Best of FLUX_AUTO and FLUX_ISOCOR                          [count]
#   5 X_IMAGE                Object position along x                                    [pixel]
#   6 THETA_IMAGE            Position angle (CCW/x)                                     [deg]
#   7 A_IMAGE                Profile RMS along major axis                               [pixel]
#   8 B_IMAGE                Profile RMS along minor axis                               [pixel]
#   9 MAGERR_BEST            RMS error for MAG_BEST                                     [mag]
#  10 NUMBER                 Running object number                                     
#  11 FLUXERR_BEST           RMS error for BEST flux                                    [count]
 4.06     54.7854  16.4816     42398.69     63.6141  10.86     5.365     4.865   0.0052          1     201.5104
 4.05     18.2135  18.6641     5680.272    984.9620 -89.85     4.237     2.095   0.0223          2     116.8546
 4.10     19.4714  19.2035     3456.365     91.2174 -50.22     1.811     1.786   0.0224          3      71.2709
 3.50     16.2576  18.0978     9569.337   1445.6405  10.92     2.069     1.951   0.0077          4     68.27317
 5.88      5.8206  22.1266     234.0859    145.2245  -0.38     1.171     0.700   0.2379          5     51.27777
 3.50     61.4063  16.4107      45259.2   1078.3906  60.70     2.429     2.331   0.0019          6     80.15064
 7.15     11.4045  22.9577     108.8716   1183.2152  19.09     0.760     0.448   0.3970          7     39.79474
 6.20     19.1504  21.2403     529.4979    384.5094   6.20     1.294     0.940   0.1350          8     65.82211
 6.18     26.2150  20.4556     1090.861    366.8643  22.57     1.520     1.277   0.0829          9     83.25911
 8.14     25.4828  21.4693     428.8209    382.6798  34.64     1.089     0.824   0.1878         10     74.14753
 6.45     36.5190  21.5555     396.1025   1110.6578 -49.38     1.297     0.966   0.1913         11     69.78813
 6.19     34.8937  21.1874     555.9462    326.7797  -6.17     1.759     1.173   0.1682         12     86.08225
 3.50     81.5333  16.4314     44407.55    537.4374  -8.76     2.426     2.341   0.0020         13     80.15064
 6.56     40.7101  22.3525     190.1035   1170.5583  40.85     1.270     0.507   0.2929         14     51.27777
 5.84     40.0144  22.1433     230.5096   1521.2733  85.98     0.741     0.661   0.1927         15     40.90551
 5.97     44.3194  22.0903     242.0415    915.1635 -57.45     1.037     0.830   0.2440         16     54.38829
 8.83     45.6943  22.6958     138.5702    440.3448  43.14     0.570     0.337   0.2968         17     37.87114
 3.86     76.6940  20.1174      1489.49    128.1458 -36.54     1.719     1.565   0.0447         18     61.35826
 6.39     91.3040  20.2296     1343.319    376.7011  59.93     2.277     1.590   0.0954         19     117.9997
 5.62     84.3886  21.1830     558.2295    421.1944 -71.75     1.543     1.097   0.1378         20     70.85042
 3.50    123.3941  16.0035     65858.24    788.9817   1.93     2.491     2.407   0.0014         21     82.53824
 4.29     98.1545  19.6823     2223.622     56.0174  -2.94     1.876     1.626   0.0352         22     72.10451
 6.22     99.8760  21.2277     535.6925    452.8296  11.32     1.469     1.252   0.1651         23     81.44497
 5.77     92.9685  22.1683     225.2524    495.7600  -1.84     0.890     0.757   0.2205         24     45.73375
 7.44    118.7651  23.0584     99.22583    990.2153  56.24     0.770     0.712   0.5831         25     53.27821
 7.94    118.3204  24.1291     37.01477    415.3350 -44.33     0.572     0.336   1.0143         26     34.57146
 3.50    163.8909  16.6407     36618.69   1468.2533 -12.36     2.297     2.242   0.0023         27      76.5272
 8.54    132.4837  22.1398      231.243    418.0073   0.90     0.791     0.500   0.2408         28     51.27777
 3.62    171.7659  18.2693     8171.319    877.2239 -65.04     2.104     2.045   0.0097         29     73.13316
 5.02    152.7571  24.5171      25.8927   1280.5729  70.56     0.724     0.458   1.1463         30     27.33114
 3.53    167.9653  21.2870     507.2423    104.0224 -78.63     1.477     1.352   0.1034         31     48.27642
 6.26    166.7164  20.9812      672.256   1445.8735  25.87     1.481     1.385   0.1402         32     86.77369
 6.54    161.5322  24.8537     18.99023    634.5322  45.00     0.509     0.489   1.7683         33     30.92166
 6.44    170.4764  22.1644     226.0735   1368.4977   1.76     0.962     0.894   0.2828         34     58.87308
 6.49    170.4273  23.4836     67.07422    651.2307  19.56     0.769     0.448   0.5804         35     35.84446
 7.24    181.4357  21.9253     281.7496    575.3188  32.57     1.271     0.859   0.2827         36     73.33715
 5.24    194.1731  20.5851     968.1836   1350.5505 -52.42     1.469     1.346   0.0802         37     71.48021
 6.58    188.1913  21.1931      553.056   1354.9642  38.80     1.031     0.844   0.1171         38     59.62951
 4.47    212.4319  18.8362     4847.527    827.3854 -12.54     4.254     2.183   0.0295         39     131.7576
 4.70    208.1951  19.8998     1820.029    548.9749 -54.46     1.677     1.562   0.0442         40     74.14753
 3.50    213.7668  20.1484     1447.591   1306.0121  -5.55     1.672     1.540   0.0406         41      54.1129
 5.56    232.0003  18.7890     5062.958    561.9341 -29.94     3.527     3.152   0.0385         42     179.5554
 3.50    267.4318  15.7344     84382.45     67.5887   4.05     2.519     2.455   0.0011         43     85.03456
 5.22    212.3623  21.1920     553.6023    684.2392 -21.57     1.588     1.414   0.1490         44     75.93927
 3.50    261.3217  15.5366     101242.5    997.3779 -21.97     2.507     2.488   0.0009         45     85.21007
 3.57    225.6275  20.0056     1651.047   1226.0277  56.39     1.639     1.513   0.0361         46     54.93492
 4.82    224.2253  21.0096     654.8601    774.7047 -64.76     1.485     1.273   0.1065         47     64.21365
 5.37    245.7519  19.8603     1887.517    112.9574 -84.19     2.268     1.820   0.0606         48      105.287
 4.73    256.7946  19.0511     3976.888    612.8154 -30.55     2.748     2.239   0.0311         49     113.7449
 6.37    240.4774  21.1283     587.0408    838.2289  -1.00     1.566     1.476   0.1731         50     93.56676
 6.42    253.0003  19.4307     2803.723   1372.7172 -71.85     1.388     1.020   0.0286         51      73.7302
 7.14    251.7136  19.5105     2605.046    107.6560 -47.45     1.285     0.961   0.0300         52     71.90964
 3.50    289.1075  17.3290     19426.21   1486.3608   1.53     2.188     2.127   0.0041         53     73.54058
 7.65    254.4976  21.5284     406.1219   1352.0000  31.85     0.805     0.311   0.0754         54     28.18893
 3.60    283.4612  19.0428     4007.654   1522.2333  52.35     1.853     1.816   0.0173         55     63.98056
 8.02    266.9816  22.7747     128.8561    123.0000  90.00     0.858     0.289   0.3354         56     39.79474
 6.63    272.2898  21.8198     310.5198   1273.7919   3.53     1.216     0.928   0.2395         57     68.49165
 3.50    304.5837  17.6808      14049.6    201.6434   9.84     2.209     2.162   0.0057         58     73.74345
 5.28    294.7334  18.8007     5008.708   1475.5226 -23.87     1.490     1.372   0.0215         59     99.28322
 4.40    303.5009  21.0666     621.3947    563.4193 -19.54     1.662     1.501   0.1178         60     67.39219
 3.50    323.5641  18.1322     9270.684    697.2144  48.95     2.098     2.084   0.0083         61     70.85042
 8.21    294.2909  22.4291     177.1631    247.3220 -43.16     0.553     0.344   0.2119         62     34.57146
 8.21    309.9417  21.2154     541.7795     85.7309 -48.00     1.182     0.645   0.1386         63     69.14293
 5.55    322.5255  20.6825     885.1306    641.3193  77.65     1.952     1.534   0.1148         64     93.56676
 5.15    328.8730  19.8172     1963.848    595.4155 -35.20     1.939     1.713   0.0506         65      91.4675
 5.86    331.2283  22.2019     218.3898   1545.7670  43.51     1.148     0.833   0.2772         66     55.74481
 6.09    333.6950  21.5397     401.9176     93.5791  55.69     0.971     0.940   0.1542         67      57.0691
 5.25    351.3244  20.7273     849.3376     54.6837  61.37     1.405     1.282   0.0873         68     68.27317
 3.68    369.6347  18.0677     9838.254    760.9844  20.92     2.099     2.041   0.0081         69     73.74345
 3.50    396.6434  16.3282     48834.04    231.3520 -26.42     2.431     2.344   0.0018         70     80.52258
 4.58    362.7214  19.9745     1699.065   1500.1469   1.09     1.885     1.588   0.0490         71     76.72218
 6.58    362.1609  21.7625     327.3456   1033.3594 -58.97     1.241     0.995   0.2344         72     70.63924
 6.42    376.5254  20.2763     1286.753    753.3805  48.83     1.997     1.131   0.0731         73     86.63128
 5.64    381.7092  20.5966     958.0034      1.5745 -88.36     2.138     0.633   0.0598         74      52.7144
 5.73    375.3517  21.3860      463.006   1083.9893 -64.08     1.453     1.092   0.1642         75     70.00188
 6.92    371.3849  21.4908     420.4286     72.0737  -4.98     1.328     0.618   0.1547         76     59.87953
 7.68    370.4340  22.3115     197.4199    209.7979 -20.41     0.757     0.448   0.2406         77     43.72983
 3.50    399.6176  18.3512     7577.295    354.4628  17.25     2.015     1.927   0.0096         78     66.94735
 3.50    398.5452  18.5625     6237.079   1461.0853  -1.85     1.953     1.880   0.0112         79     64.21365
 5.48    384.9274  21.9874     266.1066     67.2584  84.64     1.574     0.663   0.2197         80     53.83611
 5.96    376.7703  22.7545     131.2811     87.0265   1.14     0.694     0.420   0.2518         81     30.43467
 6.77    382.1244  22.0129     259.9204    125.8206 -25.56     0.976     0.759   0.2406         82     57.59029
 4.02    395.3357  20.1320     1469.588   1088.6277  16.79     1.645     1.542   0.0457         83     61.84332
 7.53    397.2801  20.9118     716.6221    626.6414 -84.29     1.368     1.024   0.1310         84     86.42866
 6.06    413.7102  19.8080     1980.646      1.9376  88.84     2.794     0.912   0.0421         85     76.72218
 5.80    390.9907  24.1847     35.16577   1196.0000  90.00     0.849     0.289   0.8096         86     26.21511
 7.06    405.4550  21.5798      387.345    526.5231  81.85     1.415     0.997   0.2283         87     81.44497
 3.50    462.6592  15.1900     139311.5    807.5481 -14.75     2.549     2.471   0.0007         88     85.73444
 3.50    439.4121  17.5825     15381.63    252.0300   6.63     2.198     2.152   0.0052         89     73.94577
 6.39    408.1780  22.0926     241.5278    281.9645  29.19     1.164     0.805   0.2659         90      59.1263
 5.73    422.2335  20.3828      1166.53    159.3221  51.63     1.823     1.388   0.0827         91      88.8157
 6.58    427.0642  22.8126     124.4363    299.6302  84.40     1.385     0.613   0.5116         92     58.61877
 7.34    419.4577  22.8723     117.7816   1204.3013  -8.30     1.015     0.481   0.4647         93     50.39614
 7.02    428.1476  21.5305     405.3131   1179.8237  43.93     1.268     1.091   0.2148         94     80.15064
 4.39    434.3699  20.5952     959.2284   1421.9888 -10.82     1.560     1.399   0.0663         95     58.53868
 8.46    424.2213  21.6368      367.521    133.4180  71.45     0.751     0.455   0.1408         96     47.65348
 5.96    421.4902  23.7047     54.71484   1580.9540   2.68     0.778     0.499   0.7197         97     36.25886
 8.25    421.6680  22.0837     243.5121    136.3273  45.21     0.574     0.335   0.1580         98     35.42521
 7.29    425.5192  23.1284     93.03516   1063.4724  46.62     0.503     0.496   0.4232         99     36.25886
 8.39    431.2661  21.5945     382.1353    718.8472  67.24     1.078     0.508   0.1709        100     60.12851
 6.61    428.4362  21.1410     580.2518    432.8666  -1.42     3.052     0.580   0.1053        101     56.25123
 4.77    469.1457  18.2608     8235.292    850.1890  21.91     7.491     2.172   0.0246        102     186.7339
 4.02    451.8686  18.7661     5170.993     21.3246   5.41     2.100     1.955   0.0164        103     78.26448
 5.98    435.1284  21.1677     566.1593    151.0912  52.00     1.240     1.134   0.1322        104     68.92652
 5.40    441.5390  21.2716      514.483    305.5747 -51.09     1.441     1.138   0.1418        105     67.17014
 5.43    446.8850  20.7229     852.8031    122.1028  85.16     1.505     1.355   0.0954        106     74.94915
 6.24    435.6659  23.9265     44.60608    353.6778 -45.54     0.573     0.336   0.6786        107     27.87241
 3.92    459.3049  18.6447     5782.672     34.4913 -43.25     1.983     1.870   0.0137        108     73.13316
 8.32    445.0175  22.7610     130.4972    654.3727 -25.27     1.075     0.452   0.4661        109     56.01217
 3.68    465.1302  20.0128     1640.118    468.4329  46.31     1.735     1.537   0.0388        110     58.61877
 5.36    454.5111  22.3382     192.6282   1533.5862   2.60     0.992     0.775   0.2541        111     45.07568
 3.85    462.4621  21.3996     457.2688   1096.4276  13.24     1.424     1.022   0.1078        112      45.4059
 6.23    454.6659  22.8913     115.7352   1224.3201  45.65     0.572     0.336   0.2615        113     27.87241
 4.18    473.5636  19.7975     1999.858    734.7416 -32.28     1.675     1.672   0.0371        114     68.27317
 7.77    463.4885  21.7699     325.1136    723.9955 -62.96     1.225     0.497   0.2017        115     60.37647
 4.28    473.0175  20.1523     1442.386    254.3179   2.68     1.614     1.461   0.0482        116     63.98056
 3.50    479.3950  19.5532     2504.473    922.8692  50.14     1.739     1.690   0.0251        117     57.84912
 4.18    479.2153  20.5183     1029.634   1276.8652  88.29     1.667     1.470   0.0670        118     63.51184
 6.15    468.1647  22.4232     178.1191   1198.3262 -25.50     0.748     0.647   0.2538        119     41.62955
 4.99    489.4695  20.9953     663.5603    839.3799 -85.63     2.556     0.978   0.1262        120     77.11064
 5.00    497.6219  19.5168     2589.926     82.7204 -14.39     2.586     2.443   0.0511        121     121.8614
 4.48    497.1443  19.6832     2221.807   1186.5587 -19.24     2.871     2.197   0.0532        122     108.7766
 5.27    477.6234  22.8737     117.6323   1167.6362 -32.52     1.409     0.553   0.4161        123     45.07568
 3.50    485.5691  20.6483     913.4594   1070.7618 -13.29     1.529     1.376   0.0588        124     49.49881
 3.50    480.5318  23.1083     94.76819    682.5682 -19.27     0.922     0.768   0.3373        125     29.43654
 4.19    532.4379  17.6028     15096.84    518.7012  17.05     4.773     2.905   0.0087        126     121.4234
 5.92    483.2268  23.3318     77.14172   1309.2524  17.63     0.842     0.349   0.4285        127     30.43467
 7.04    490.9982  23.1053     95.03333    424.4974  57.39     0.783     0.319   0.3851        128     33.69609
 4.88    505.6880  20.4032     1144.731    762.6530  29.68     1.866     1.696   0.0802        129     84.50584
 6.07    499.2487  21.9741     269.3784    366.5008  48.61     1.260     0.822   0.2414        130     59.87953
 3.50    503.6251  21.4791      424.964    863.6788  17.99     1.349     1.193   0.1082        131     42.34122
 4.09    516.8408  19.3056     3145.913   1461.1042  25.64     3.620     1.834   0.0354        132     102.4098
 6.42    511.4173  20.7422     837.7466    164.7969  15.76     2.143     1.304   0.1356        133     104.5751
 3.50    504.0078  24.0179     41.00464    442.7247 -86.66     0.742     0.697   0.6310        134     23.82674
 3.88    515.1553  21.2603     519.8397   1179.1432 -11.58     1.351     1.290   0.1040        135     49.79971
 3.70    520.8367  21.8228     309.6489    642.2778   1.63     1.390     1.164   0.1604        136     45.73375
 7.78    522.2990  23.4665     68.13879    854.1040 -68.91     0.955     0.691   0.9701        137     60.86934
 6.15    519.8758  22.6250     147.9154   1519.3197  20.54     0.920     0.674   0.3476        138     47.33893
 3.50    541.7062  20.1841     1400.756    999.6561 -28.16     1.600     1.510   0.0402        139      51.8572
 5.95    537.3939  21.9766     268.7498    404.2004  25.92     1.629     0.795   0.2660        140     65.82211
 3.50    560.4191  19.7988     1997.457   1041.6516  18.47     1.867     1.613   0.0321        141      59.1263
 4.94    572.7739  19.9468     1742.889     45.8521  54.85     2.131     1.762   0.0581        142     93.24687
 3.50    573.2246  20.3044     1253.776   1448.4399  29.55     2.441     1.841   0.0625        143     72.10451
 3.56    583.6990  18.1526     9098.421    319.1047  10.28     2.100     2.028   0.0085        144     70.85042
 3.50    582.1724  18.1605     9032.273    144.8971   4.15     2.088     1.978   0.0084        145     69.57373
 6.41    557.7811  22.8055     125.2534    778.6027  72.66     0.764     0.454   0.3108        146     35.84446
 4.04    598.1440  18.6490      5759.58    782.6210 -52.42     3.563     3.261   0.0251        147     133.2236
 5.76    566.2109  21.1946      552.259    139.6721 -56.27     1.261     1.043   0.1258        148     63.98056
 6.78    568.5834  22.6648      142.583    633.2251 -19.07     0.738     0.455   0.2854        149     37.47458
 6.26    578.0512  21.9153     284.3568   1001.7804 -28.13     1.682     0.817   0.2698        150     70.63924
 5.30    586.1544  21.1023     601.2974     75.9674  -8.76     1.328     1.229   0.1185        151     65.59474
 3.95   1002.9375  19.5021     2625.211    542.3767  41.74     1.957     1.741   0.0291        152     70.42743
 4.10   1598.2117  21.1683     565.8475    654.3484  -3.12     1.918     1.218   0.1033        153     53.83611
 3.70   1595.8204  21.8962     289.4092    373.5580  36.47     1.480     1.018   0.1691        154     45.07568
 6.34   1594.4935  21.6241     371.8306   1384.2332 -29.70     1.436     0.913   0.2038        155     69.78813
 4.80   1586.2162  20.4536     1092.846   1108.5291  10.82     1.709     1.419   0.0721        156     72.51772
 4.54   1567.9301  19.8442     1915.585     21.5654   3.80     1.823     1.751   0.0443        157     78.07336
 5.33   1567.0110  20.3438     1209.115    784.3434 -85.86     2.030     1.671   0.0853        158     94.99292
 5.50   1529.7546  23.3404     76.53003    733.4183 -70.72     0.745     0.453   0.4456        159     31.40109
 6.53   1516.6896  21.0982     603.5568   1546.3409 -54.01     1.328     1.063   0.1349        160     74.94915
 3.50   1508.4398  16.8232     30955.38    269.0288   0.55     2.425     2.347   0.0029        161     81.81102
 3.50    878.8604  21.9365     278.8809    960.9188 -38.71     1.204     1.126   0.1550        162     39.79474
 6.82    880.5679  23.2749     81.29102    670.7686  20.31     0.733     0.453   0.5006        163     37.47458
 8.15    878.4954  22.5441     159.3517    542.0081   1.12     0.795     0.500   0.3455        164     50.69172
 3.76    870.8542  19.5810     2441.173   1103.3297 -62.93     2.030     2.002   0.0326        165     73.33715
 4.19    868.9675  20.6980     872.5604    939.8438  48.58     1.862     1.435   0.0830        166     66.72382
 6.09    870.7626  22.5029     165.5206    643.2283 -45.21     0.935     0.438   0.2485        167     37.87114
 7.86    868.9410  24.5933     24.13782    454.3015  62.52     0.908     0.211   1.5359        168     34.13659
 3.50    861.9903  23.5589     62.57849   1554.1732 -54.13     0.917     0.472   0.4025        169     23.19124
 5.46    859.8583  21.4008     456.7672   1339.5820 -39.58     1.325     0.950   0.1320        170     55.51627
 8.49    857.5150  22.9266     112.0413    545.0230  31.94     0.801     0.312   0.3821        171     39.41753
 8.31    850.6460  22.7807     128.1531    363.3300  45.93     0.585     0.329   0.3002        172     35.42521
 3.50    845.9612  21.4499     436.5419   1063.7421 -67.28     1.311     1.128   0.1053        173     42.34122
 3.50    844.6611  20.7551     827.8478   1106.0945  26.42     1.757     1.491   0.0713        174     54.38829
 4.44    837.9795  20.3126     1244.413    298.8437  12.85     1.630     1.534   0.0590        175     67.61351
 6.13    838.5260  22.7773     128.5537   1520.5083  45.37     1.021     0.596   0.3972        176     47.02227
 5.37    836.8230  22.1570     227.6084    818.9592  62.38     0.944     0.770   0.2135        177     44.74301
 3.62    824.2859  18.5645     6225.651    654.3231  45.13     2.096     1.990   0.0125        178     71.68891
 6.99    820.6904  23.9064     45.44214    779.6790 -44.39     0.561     0.341   0.6913        179     28.92456
 7.22    817.8287  22.2447     209.9426    878.2869 -18.00     1.042     0.570   0.2785        180     53.83611
 3.50    804.4239  18.7188     5401.078   1378.5775  24.08     1.936     1.900   0.0132        181     65.82211
 4.93    809.3416  24.3532     30.11084    127.3259 -45.67     0.578     0.333   0.6829        182     18.93557
 3.50    799.8787  17.4928     16706.87    695.5512  86.21     2.757     2.179   0.0054        183     83.25911
 3.58    802.0164  19.5250     2570.469     41.0132  17.44     1.831     1.771   0.0268        184     63.51184
 7.78    796.0267  22.1400     231.2063    295.5872 -68.21     1.214     0.528   0.2813        185     59.87953
 3.87    775.1727  19.6438      2303.99   1427.3771 -86.22     2.914     2.025   0.0431        186      91.4675
 6.20    768.8491  21.8796     293.8684    140.4927 -79.69     1.337     0.879   0.2390        187     64.67728
 7.79    755.8050  21.3836     464.0299    193.6100  79.93     1.782     0.711   0.1990        188     85.03456
 7.71    756.4966  22.4730     170.1439   1342.5267  47.36     0.504     0.495   0.2492        189     39.03668
 4.11    744.2446  20.2791     1283.391    556.2840 -43.37     1.635     1.517   0.0533        190     63.03962
 3.66    739.4138  21.5784     387.8448   1157.9685  25.22     1.297     1.181   0.1205        191     43.04113
 5.24    737.5421  21.0499     631.0015    649.6644  80.76     1.432     1.312   0.1194        192     69.35867
 3.50    727.9818  15.9998     66078.47    848.3533  27.94     2.439     2.389   0.0014        193     82.35703
 3.56    728.8088  20.7047     867.1677   1178.1919  49.30     1.448     1.410   0.0616        194     49.19606
 5.63    722.7590  21.7558     329.3751   1395.0338  -6.53     1.256     0.933   0.1949        195      59.1263
 4.08    717.3167  20.3013     1257.457    808.4107  61.40     1.710     1.557   0.0557        196     64.44588
 3.78    710.4251  20.4628     1083.603   1163.6281   5.38     1.532     1.420   0.0534        197     53.27821
 3.78    706.0970  20.4639      1082.58   1339.0608  -8.24     1.875     1.504   0.0673        198     67.11869
 3.50    704.2918  19.7064      2174.92    952.3771  34.75     1.750     1.664   0.0290        199     58.10681
 5.81    700.5426  21.0309     642.1578    582.6079 -11.30     1.762     1.130   0.1346        200     79.58949
 4.79    692.9648  19.6949     2198.129   1213.7378  25.14     1.489     1.239   0.0430        201      87.0955
 5.19    688.7861  21.3459     480.4568   1213.9966  36.08     1.381     1.095   0.1287        202     56.91909
 6.63    693.1641  20.6362     923.7062    316.0519  11.70     0.956     0.699   0.0499        203     42.47503
 3.86    686.8881  19.8051     1985.935    644.1539  11.80     1.785     1.628   0.0351        204     64.21365
 4.72    688.8412  22.1968     219.4116    130.9188  89.98     0.907     0.746   0.1874        205     37.87114
 7.17    674.4924  22.5521     158.1846    230.4652 -55.24     0.501     0.498   0.2489        206     36.25886
 4.37    656.2733  21.3954     459.0288    870.9708 -80.68     1.445     1.068   0.1234        207      52.1445
 3.50    649.7219  16.0119     65347.18   1464.2932   7.81     2.369     2.331   0.0013        208     79.40156
 7.72    647.1572  21.7842     320.8654    653.2191 -18.86     0.953     0.671   0.2027        209     59.87953
 4.84    631.8602  21.3979     457.9873    806.0596  -7.26     1.448     1.352   0.1555        210     65.59474
 4.45    624.8701  20.6126      943.957   1581.7686  -0.44     1.487     1.293   0.0683        211     59.37844
 6.88    619.7174  21.6631     358.7286   1151.3589  34.33     1.228     0.597   0.1736        212     57.33029
 7.52    610.6086  23.6630     56.86047    946.1575 -18.98     0.761     0.445   0.8154        213     42.69261
 3.70   1543.1177  19.3027     3154.545    134.8626  13.62     1.861     1.807   0.0226        214     65.59474
 5.31    593.5084  22.5934     152.2736    882.5082  70.91     0.982     0.405   0.2403        215     33.69609
 5.07   1562.5160  20.6540     908.6727    861.0878 -75.69     1.564     1.347   0.0852        216      71.2709
 3.50   1564.8943  16.1472     57693.84    303.8436  -8.00     2.493     2.394   0.0016        217     82.89946
 3.74   1553.8457  17.1153     23652.99    681.9242 -32.53     4.766     4.085   0.0073        218      159.554
 4.26   1571.7207  20.2485     1320.133     92.3905  85.35     1.728     1.660   0.0578        219     70.21497
 7.15   1564.3650  24.3546       30.073   1565.6927  47.41     0.579     0.331   1.0630        220     29.43654
 4.36   1546.9213  21.0487     631.6976    863.0593  41.04     2.299     1.275   0.1240        221     72.10451
 7.63   1576.4641  22.6437     145.3859   1491.3174  89.38     1.251     0.465   0.4164        222     55.74481
 3.50   1559.3071  16.1504     57521.76    487.3318  -7.88     2.552     2.462   0.0016        223     84.85869
 6.09   1552.6818  21.9251     281.8175   1221.4905 -81.11     1.347     1.127   0.2802        224     72.72344
 4.39   1543.8602  19.6405     2310.976    654.2137  83.24     1.807     1.722   0.0352        225     74.94915
 7.54   1536.9376  21.5731     389.7285   1429.6595 -25.77     1.278     0.620   0.1789        226     64.21365
 5.26   1491.4724  25.9835      6.70813   1494.5192 -44.31     0.508     0.491   4.3353        227     26.77894
 7.04   1534.2606  21.4947     418.9187    414.5703  -1.92     1.290     0.650   0.1622        228     62.56385
 6.03   1521.3392  22.6549     143.8954   1100.1757 -40.25     1.603     0.651   0.4519        229     59.87953
 7.47   1524.0001  24.3326      30.6886     12.4902 -58.10     0.803     0.311   1.2831        230     36.25886
 7.92   1505.0269  23.7876     50.69299   1096.0140 -88.76     0.627     0.613   0.9727        231      45.4059
 3.50   1516.1572  18.3951     7277.053    392.2966   2.53     2.134     1.955   0.0103        232     68.92652
 4.57   1515.6066  21.7285     337.7462    483.5974 -43.91     1.128     0.919   0.1471        233     45.73375
 4.04   1505.4595  21.0819     612.6696    723.2294 -27.09     1.566     1.307   0.0974        234     54.93492
 5.59   1499.6895  22.7178     135.7948    844.0128   4.94     0.731     0.666   0.3029        235     37.87114
 3.71    887.1884  21.0752     616.4891   1499.8871 -10.50     1.355     1.271   0.0823        236     46.70348
 7.15    886.6302  21.6021     379.4688    339.9196   1.88     1.415     0.774   0.2069        237     72.31141
 5.64    898.9808  23.8900      46.1333    987.0000  90.00     0.857     0.289   0.6171        238     26.21511
 5.26    897.4250  20.1811     1404.675    538.4157  29.99     1.893     1.749   0.0715        239     92.44231
 7.61    890.4911  22.6342      146.666    680.9788  32.19     0.795     0.314   0.2804        240     37.87114
 3.52    901.8569  18.6569      5718.13    302.6142 -40.12     2.039     1.990   0.0130        241     68.69556
 6.65    890.1083  20.9790      673.569    326.2471  22.80     2.090     1.302   0.1716        242     106.4161
 8.32   1482.7103  21.5624     393.5913    575.0491 -58.96     1.286     0.867   0.2370        243     85.90852
 5.89   1489.2261  22.2731     204.5299     77.9050 -85.23     1.275     0.721   0.2931        244      55.2062
 4.61    913.9817  20.9572     687.2744    838.4760  19.87     1.454     1.365   0.1000        245     63.27617
 5.31    913.9099  22.1864     221.5394   1001.2720 -17.83     1.204     1.096   0.2898        246      59.1263
 3.50    881.6281  15.4346     111211.7   1592.4189  77.84     2.525     2.456   0.0008        247     84.68245
 5.33    895.1293  22.6384     146.0966   1425.6117  22.24     1.332     0.901   0.4203        248     56.54311
 0.00   1438.3938  99.0000    -8.917358   1495.2007  19.65     0.765     0.441  99.0000        249     42.69261
 6.70    940.1116  20.6618      902.177    516.0169  52.85     1.572     1.142   0.1045        250     86.77369
 0.00    923.3138  99.0000    -128.5754    806.9643  65.58     1.705     1.570  99.0000        251     56.01217
 3.50   1409.5125  19.7235     2140.899    308.0300  26.47     1.859     1.658   0.0302        252     59.62951
 7.50   1476.4878  21.8004     316.1007    999.4863   0.19     1.041     0.500   0.1840        253     53.55788
 5.00    966.7556  21.7434     333.1558    416.5706 -75.97     1.190     0.957   0.1700        254      52.1445
 3.75    929.8041  20.7885      802.756   1322.3405  46.82     1.571     1.384   0.0721        255     53.27821
 7.31    948.8851  21.9802     267.8622    444.5893  49.04     1.336     1.036   0.3346        256     82.53824
 6.94   1439.7006  23.0366     101.2372    647.3334  43.21     0.562     0.341   0.3047        257     28.40336
 5.30   1438.3149  23.1074     94.84961   1346.6786  44.67     0.564     0.340   0.2655        258     23.19124
 6.83    951.8928  20.8798     738.0135    654.4578 -83.83     1.279     1.030   0.1115        259     75.74229
 4.16    940.5596  19.9074     1807.409   1067.0040  57.78     1.746     1.480   0.0397        260     66.04869
 4.09   1441.0920  19.6143     2367.486    618.8486 -20.90     1.823     1.680   0.0319        261     69.57373
 3.50   1436.7382  15.9514     69090.93   1089.2109  43.69     2.526     1.821   0.0015        262     93.61633
 3.50   1411.7726  21.1470     577.0295    349.3116  62.13     1.880     1.195   0.0960        263     50.98558
 5.92   1439.8511  22.2740     204.3597   1270.9764 -20.06     1.330     0.943   0.3412        264     64.21365
 7.54   1089.9775  22.1630     226.3533    396.6888  78.15     0.741     0.678   0.2502        265      52.1445
 6.17    979.4700  21.5472     399.1478    452.2737  72.96     1.245     0.901   0.1442        266      52.9821
 3.73   1436.6449  19.3008     3160.026    224.4045  25.06     1.856     1.774   0.0225        267     65.36658
 3.50   1083.0808  18.1685     8965.915   1148.0122   4.62     2.075     1.992   0.0083        268     68.27317
 5.26   1401.7551  20.7473     833.8545   1031.5714 -10.37     1.665     1.429   0.1024        269     78.64533
 5.07   1067.0283  21.8429     303.9626   1596.9507 -16.17     0.796     0.782   0.1339        270     37.47458
 4.66   1416.6246  20.1788     1407.565   1386.4370 -19.31     1.742     1.548   0.0574        271     74.34875
 7.31   1434.0306  22.0969     240.5599    340.5226  88.05     0.823     0.499   0.2065        272     45.73375
 6.25   1413.2245  21.3656     471.7844      1.4409  87.35     1.953     0.489   0.1132        273     49.19606
 7.84   1087.7867  22.0755     245.3494    639.7502 -48.22     1.627     0.425   0.1264        274      28.5591
 3.50   1081.2955  16.7765     32313.74    512.0266   1.75     2.424     2.363   0.0027        275     81.44497
 6.20   1087.1072  23.2942      79.8551   1452.9968 -58.43     1.198     0.771   0.7832        276     57.59029
 6.44   1404.9912  23.2445     83.60107   1362.1821 -52.53     0.940     0.467   0.5546        277     42.69261
 3.50   1390.1338  18.4699     6792.889   1428.3429  24.43     2.015     1.981   0.0109        278     68.05399
 5.60   1407.5088  21.4315     444.0295    329.5723  42.39     1.107     0.930   0.1357        279     55.47616
 3.50   1394.7197  15.8085     78811.06    114.2365  -2.25     2.612     2.495   0.0012        280     86.77369
 6.59   1353.0374  21.5475     399.0236    152.1204 -59.00     1.536     1.084   0.2256        281     82.89946
 5.68   1130.1277  21.1786     560.5026    547.3596 -12.52     1.402     1.218   0.1401        282     72.31141
 3.60   1108.7540  18.5000     6607.127    427.8485 -17.02     2.143     1.992   0.0118        283     71.68891
 4.43   1393.6559  20.0409     1598.242   1038.5725  30.72     1.746     1.516   0.0474        284     69.78813
 6.07   1390.4139  21.7344     335.9375    806.3391  14.97     1.517     0.893   0.2235        285     69.14293
 3.94   1391.7336  19.6205     2353.966    713.0140 -18.73     1.876     1.718   0.0316        286     68.49165
 3.50   1095.9811  16.8931     29022.97    778.1253  40.92     2.339     2.123   0.0031        287     82.79868
 3.56   1279.3623  19.0825      3863.57   1331.1583  75.39     1.973     1.870   0.0186        288     66.04869
 8.30   1094.3149  22.3078     198.1064    429.3361 -44.00     0.570     0.337   0.1942        289     35.42521
 3.52   1274.1741  17.7630     13025.99    609.6711 -59.24     4.450     2.803   0.0100        290     120.5052
 3.50   1321.3029  16.8456     30320.99    659.7650  30.09     2.403     2.317   0.0032        291     90.46587
 3.50   1211.9462  17.6494     14462.77   1278.7762  81.35     5.912     3.550   0.0117        292     155.4755
 6.39   1386.5453  21.8574     299.9321   1274.2920 -88.27     0.941     0.454   0.1035        293     28.57596
 3.57   1373.8639  18.2517     8304.496   1018.7498 -12.52     2.298     2.062   0.0099        294     75.74229
 3.50   1220.2120  18.1744     8917.726   1194.6749  79.24     2.221     2.136   0.0090        295     73.54058
 3.50   1333.7377  21.0593     625.5724    107.1235 -13.21     1.515     1.391   0.0865        296     49.79971
 4.11   1331.4196  22.0583     249.2738    386.3806  44.83     1.014     0.857   0.1633        297     37.47458
 6.03   1347.4882  21.9735     269.5304    604.6951 -37.74     1.121     0.830   0.2278        298     56.54311
 3.70   1331.1071  19.3311     3073.054    655.6794  30.01     2.005     1.880   0.0225        299     63.56541
 3.91   1308.8210  19.5497     2512.681    669.3890 -39.46     2.205     1.678   0.0290        300     67.02097
 3.50   1320.5798  21.6209     372.9303    263.9218  87.87     1.356     1.157   0.1223        301      41.9869
 3.50   1292.6479  18.5163     6508.591    762.0434 -19.19     2.457     2.002   0.0126        302     75.54478
 4.62   1306.1183  21.0560     627.4844    892.7058  10.67     1.547     1.115   0.1032        303     59.62951
 5.78   1229.8682  21.9699      270.431   1153.2817  39.15     1.141     0.988   0.2395        304     59.62951
 3.50   1299.5809  14.8606     188693.6    724.7350 -13.82     2.986     2.612   0.0005        305     95.15007
 8.41   1300.4139  22.2465     209.6031     53.7503 -19.42     0.759     0.449   0.2453        306     47.33893
 7.12   1263.6656  21.8541      300.848    855.2507  59.95     1.107     0.924   0.2488        307     68.92652
 7.20   1292.7781  22.8829     116.6418    545.4184 -70.33     0.753     0.449   0.3670        308     39.41753
 4.29   1293.8401  20.7891     802.3594    412.4756  -9.04     1.530     1.267   0.0783        309     57.84912
 3.83   1266.6023  19.3710     2962.179    807.7180  21.32     1.922     1.788   0.0250        310     68.27317
 4.85   1201.8480  20.7632     821.6985   1441.9393  52.88     1.812     1.625   0.1074        311     81.26133
 8.04   1262.5000  22.5282     161.7107    216.5174  45.65     0.507     0.493   0.2647        312     39.41753
 6.54   1275.1787  22.9241     112.2959    697.8320 -44.81     0.757     0.569   0.4129        313     42.69261
 6.30   1239.4313  22.5838     153.6351    857.8013 -19.51     0.723     0.459   0.2504        314     35.42521
 6.43   1239.1719  21.6366     367.5906     47.7610 -21.29     0.957     0.857   0.1663        315     56.27827
 4.07   1260.6809  20.3415     1211.744    432.3235  39.19     2.006     1.652   0.0642        316     71.68891
 3.92   1235.6237  19.5367      2542.91    304.5523  17.18     1.862     1.665   0.0283        317      66.2745
 6.02   1231.2905  20.8806     737.5237    599.4324   2.38     1.529     1.374   0.1239        318     84.15152
 5.46   1131.3656  21.2457     526.9127    219.2833   5.73     1.407     1.133   0.1366        319      66.2745
 4.41   1238.3259  20.2088     1369.207   1553.3666 -27.74     1.624     1.543   0.0540        320     68.05399
 6.76   1205.4940  22.7657     129.9277   1216.5016 -44.36     0.501     0.499   0.2585        321     30.92166
 5.50   1213.8219  20.1417      1456.59   1429.0648  62.25     2.314     1.913   0.0833        322     111.7573
 3.50   1215.8936  17.6768     14102.54    512.8163  15.77     2.201     2.128   0.0057        323     73.74345
 4.51   1152.6636  20.3324      1221.88     99.1995   1.42     1.734     1.670   0.0661        324     74.34875
 3.50   1203.1788  20.2568     1310.078    338.7114 -30.18     1.595     1.555   0.0444        325     53.55788
 4.68   1209.0653  20.0446     1592.778    838.6197 -85.46     1.629     1.532   0.0490        326     71.89701
 4.65   1196.0720  19.9266     1775.706    124.1343 -62.98     2.122     1.792   0.0536        327     87.63031
 5.11   1183.4504  22.5081     164.7183    176.4444  43.16     1.018     0.596   0.2523        328      38.2636
 4.83   1154.7657  20.7891     802.3326   1352.9104 -16.12     1.614     1.496   0.0984        329     72.72344
 4.15   1182.1749  21.2858     507.8071    549.4448  52.55     1.339     1.137   0.1065        330     49.79971
 3.50   1139.7526  16.8485     30241.13    147.8719   8.47     2.418     2.290   0.0029        331     80.33682
 3.50   1131.2678  17.5669     15603.49    183.3222 -32.95     2.262     2.226   0.0053        332     76.72218
 3.50   1166.4521  16.3190     49248.39   1299.5201 -18.21     2.442     2.420   0.0018        333     81.81102
 6.03   1177.4873  24.2685     32.55371     18.4826 -45.28     0.507     0.492   1.0316        334     30.92166
 5.64   1162.4760  21.1151     594.2391    887.9290  -3.08     1.214     0.999   0.1103        335     60.37647
 3.67   1159.0970  18.7376      5308.51    236.1458  28.14     2.115     1.861   0.0144        336     70.21497
 7.09   1168.7396  22.6307     147.1323   1599.5944  70.66     0.747     0.449   0.2353        337     31.87332
 7.44   1159.0020  22.3745     186.2983    566.4996 -87.38     0.808     0.499   0.2666        338     45.73375
 7.78   1067.8488  21.9693     270.5745    569.1644 -43.13     0.772     0.568   0.2035        339     50.69172
 7.25   1132.3717  22.3176     196.3179    357.5125 -36.20     1.445     0.399   0.2947        340     53.27821
 4.51   1121.3683  19.6520     2286.677    329.5204  59.09     2.915     1.938   0.0493        341     103.8583
 6.88   1112.3186  19.8973     1824.209    478.9656  26.14     2.244     1.894   0.0816        342     137.0923
 4.88   1096.9320  20.8305     772.3579   1526.4592  39.67     1.378     1.340   0.0906        343     64.44588
 5.70   1091.7946  20.7617     822.8326    468.3736 -46.23     2.025     1.407   0.1235        344     93.56676
 4.76   1080.5232  21.5634     393.2119    329.8643 -14.82     1.275     0.874   0.1342        345      48.5849
 3.62   1096.0430  22.7363     133.4969   1136.1641  -2.82     0.929     0.750   0.2395        346     29.43654
 3.62   1039.9791  18.2671     8187.698    525.2814  39.16     2.099     2.006   0.0095        347     71.89701
 4.48   1073.2251  19.7508      2087.73   1218.8110 -45.87     2.074     1.941   0.0456        348     87.63031
 6.06   1066.8558  20.5468     1002.967   1563.1591  75.22     1.791     1.399   0.1006        349     92.92589
 8.91   1022.3207  22.5486     158.6893   1268.9786  27.92     0.914     0.210   0.2592        350     37.87114
 3.50   1011.1424  17.5606     15695.21    813.5724  16.49     2.242     2.159   0.0052        351     75.54478
 3.50   1041.5156  16.5091     41340.84    632.9080  15.36     2.404     2.380   0.0021        352     81.26133
 4.50    982.2241  20.7987     795.3109    798.0075   3.67     1.606     1.483   0.0917        353     67.17014
 7.17   1041.9910  22.5329     161.0027    467.0000  90.00     0.854     0.289   0.2361        354     35.00094
 6.13    987.8519  19.9758     1697.004    454.2320  47.59     1.987     1.789   0.0718        355     112.1576
 4.40   1031.5873  19.8691     1872.316    302.4051  70.40     2.789     1.769   0.0549        356     94.67786
 3.50   1027.0433  17.3805     18526.89   1379.8351  39.67     2.265     2.217   0.0044        357     75.74229
 6.70   1015.7997  21.8725     295.7908    452.9904 -57.19     0.813     0.506   0.1542        358      41.9869
 7.16    999.1955  22.4099     180.3124    232.9355 -30.82     1.047     0.668   0.3469        359     57.59029
 3.50    986.2090  16.9196     28324.38    558.3832  37.50     2.341     2.296   0.0030        360     78.45514
 4.10   1012.5897  19.6174     2360.603    344.5637  27.05     1.809     1.763   0.0324        361     70.42743
 6.84   1011.5046  22.8096     124.7847    266.9890 -31.78     0.807     0.310   0.2691        362     30.92166
 4.05   1001.1897  20.7660     819.6277   1273.6108  -3.61     1.429     1.188   0.0679        363     51.27777
 3.64   1002.5687  20.6223     935.5797   1555.2332  79.83     1.624     1.448   0.0631        364     54.38829
