#   1 NUMBER                 Running object number                                     
#   2 FLUX_BEST              Best of FLUX_AUTO and FLUX_ISOCOR                          [count]
#   3 FLUXERR_BEST           RMS error for BEST flux                                    [count]
#   4 MAG_BEST               Best of MAG_AUTO and MAG_ISOCOR                            [mag]
#   5 MAGERR_BEST            RMS error for MAG_BEST                                     [mag]
#   6 KRON_RADIUS            Kron apertures in units of A or B                         
#   7 X_IMAGE                Object position along x                                    [pixel]
#   8 Y_IMAGE                Object position along y                                    [pixel]
#   9 A_IMAGE                Profile RMS along major axis                               [pixel]
#  10 B_IMAGE                Profile RMS along minor axis                               [pixel]
#  11 THETA_IMAGE            Position angle (CCW/x)                                     [deg]
         1      1844156     151.9619  12.3903   0.0001  3.50   1107.8212    182.2387     4.912     4.532 -39.89
         2     47652.46     97.72361  16.3596   0.0022  3.50   1078.7438     59.9974     3.045     3.014 -71.19
         3     41652.48     178.1911  16.5057   0.0046  3.80     63.9191     53.4462     5.337     4.876   1.33
         4     5869.765     122.5816  18.6332   0.0227  4.08    985.4625     16.9279     4.427     2.434 -87.34
         5     3455.482     68.11803  19.2085   0.0214  3.50     91.5117     18.2198     2.184     2.115 -89.07
         6     10183.53     82.28766  18.0350   0.0088  3.54   1446.0903     14.9005     2.591     2.467 -42.62
         7     179.5975     32.84943  22.4190   0.1986  8.06   1466.3320      7.3019     0.563     0.340 -43.42
         8     220.1687      43.1442  22.1979   0.2128  6.31    144.8630      5.0664     0.803     0.681 -83.56
         9     215.5485      39.8955  22.2209   0.2010  8.49   1580.0042      4.0000     0.836     0.289   0.00
        10     1227.091     99.09428  20.3326   0.0877  6.11    367.6416     25.1080     1.770     1.749  25.91
        11     532.5973     68.51292  21.2388   0.1397  8.10    385.0856     17.1741     1.396     0.608 -33.22
        12     443.3542     61.01511  21.4379   0.1495  6.87   1109.8557     34.8687     1.403     0.661  64.00
        13     46314.64     95.34827  16.3905   0.0022  3.50    537.8431     80.3081     2.976     2.935 -75.15
        14     346.5166     59.44749  21.7055   0.1863  7.99   1521.1277     37.7023     0.976     0.690  69.14
        15     183.6979     41.22571  22.3945   0.2437  7.59   1170.7451     38.6061     0.754     0.451  18.03
        16     248.1896     41.22571  22.0678   0.1804  6.75    915.0546     42.1870     0.940     0.466  36.06
        17     105.8363     29.38142  22.9932   0.3015  5.41    564.4238     44.2103     0.750     0.451  70.29
        18     1670.721     79.28223  19.9975   0.0515  4.53    128.0787     75.2320     2.038     1.769  -2.00
        19     68621.27     97.86154  15.9636   0.0015  3.50    789.4222    121.9990     3.091     2.991 -43.34
        20     550.7968     77.56223  21.2023   0.1529  8.19    422.8607     80.6871     1.831     0.583 -69.48
        21      1299.39     115.6748  20.2704   0.0967  6.63    377.0970     90.7526     2.137     1.682  89.82
        22     2335.494     82.28766  19.6338   0.0383  4.32     56.4106     96.7815     2.142     1.995 -47.91
        23     294149.2     110.3027  14.3834   0.0004  3.50    318.2503    193.6603     3.620     3.229 -65.56
        24     596.3466     81.62935  21.1160   0.1487  6.51    453.0418     97.9849     1.999     0.927 -10.20
        25     8841.938     94.06646  18.1884   0.0116  3.96    877.6066    170.5666     2.602     2.549 -15.84
        26     38533.64     93.63528  16.5902   0.0026  3.50   1468.6017    162.5963     2.946     2.848 -50.03
        27     47577.57     229.7113  16.3613   0.0052  4.04    403.9568    234.9475     6.716     5.681 -44.17
        28     101.2267     23.22806  23.0415   0.2492  4.54   1511.9980    131.7585     0.691     0.428  -0.09
        29      161.285     32.01767  22.5358   0.2156  7.85    417.6746    131.3489     0.580     0.331  45.96
        30      699.614     82.45142  20.9426   0.1280  6.89   1446.0771    165.6580     1.415     1.198 -42.49
        31     606.0981     60.79364  21.0984   0.1089  4.73    104.9961    166.8963     1.508     1.309 -74.33
        32     78.79614     23.80167  23.3135   0.3280  5.90    537.6866    159.3234     0.564     0.340  45.51
        33     1434.742     118.4403  20.1628   0.0897  6.19   1350.5507    192.8279     2.995     1.451 -34.85
        34     5253.574     154.8634  18.7536   0.0320  5.02    827.9761    211.0280     4.227     2.650  -4.84
        35     1939.602     82.77796  19.8355   0.0463  4.53    549.4034    206.7372     2.105     1.879 -48.39
        36     1710.501     83.91085  19.9720   0.0533  4.65   1306.4326    212.5210     2.091     1.821 -68.03
        37     5197.177      179.323  18.7654   0.0375  5.40    562.5081    230.1652     3.810     3.408 -38.49
        38     1212.988     104.6552  20.3451   0.0937  6.08    349.5309    209.1250     2.423     1.452  12.30
        39       105054     101.2487  15.5012   0.0010  3.50    997.7167    260.0322     3.194     3.098 -32.12
        40     240.8987     57.60371  22.1002   0.2597  7.81    250.2823    202.8634     0.953     0.674  19.02
        41     486.4434     80.12838  21.3372   0.1789  6.93    684.3036    210.9014     1.540     1.020 -59.48
        42     1907.911     76.86346  19.8534   0.0438  4.16   1226.2937    224.0377     2.086     1.923 -23.73
        43     1099.639     119.0084  20.4517   0.1175  7.03    346.7842    221.8811     2.225     1.519   7.61
        44      736.385     79.62177  20.8870   0.1174  5.37    775.3899    222.7527     1.809     1.449 -54.77
        45     87272.13     98.68507  15.7026   0.0012  3.50     67.7354    266.0527     3.128     3.024 -43.78
        46     1991.209     123.3495  19.8070   0.0673  5.84    113.0364    243.7053     2.694     1.956 -77.12
        47     360379.8     107.3277  14.1629   0.0003  3.50    439.6373    312.5910     3.406     3.276 -48.13
        48     636.3308     83.74995  21.0456   0.1429  7.24    838.7144    239.4138     1.844     0.858 -80.72
        49     4211.916      121.254  18.9936   0.0313  4.74    613.4468    255.5604     3.019     2.554 -39.07
        50     92.26514     32.84943  23.1422   0.3867  7.87    538.6587    229.6942     0.568     0.338 -43.29
        51     20779.57     93.63528  17.2607   0.0049  3.50   1486.5533    287.9363     3.094     2.740 -28.72
        52     532.3313     64.45524  21.2393   0.1315  8.46   1374.1746    252.1395     0.995     0.700   9.83
        53     178.6279     32.01767  22.4249   0.1947  7.81   1353.6771    253.6793     0.567     0.339 -44.89
        54      4357.13     76.15827  18.9568   0.0190  3.50   1522.4907    282.1217     2.404     2.334 -38.99
        55     319900.1     109.5665  14.2922   0.0004  3.50    891.0381    351.6739     3.498     3.322 -50.77
        56     59736.08     97.03101  16.1142   0.0018  3.50    905.7338    318.9506     3.057     2.975 -52.66
        57     14820.82     87.22128  17.6276   0.0064  3.50    201.9461    303.2986     2.728     2.688  81.04
        58     1966.665     99.63726  19.8205   0.0550  4.90    515.3391    289.9463     2.317     2.098  73.50
        59     307662.5      107.076  14.3346   0.0004  3.50   1346.0488    351.7511     3.424     3.249 -34.10
        60      1837.63     79.62177  19.8941   0.0471  4.32   1327.9517    294.1810     2.116     1.894 -78.21
        61     1037.802     98.54829  20.5145   0.1031  5.65   1413.6317    298.0721     2.558     1.413 -45.20
        62     9720.434     81.95917  18.0856   0.0092  3.50    697.5565    322.3132     2.545     2.527  78.95
        63     879.2203     89.51093  20.6945   0.1106  6.17    563.7846    302.6077     1.690     1.453  -2.74
        64      7263.25     90.25874  18.4020   0.0135  4.52    867.2843    346.6619     2.916     2.612  27.15
        65     704.9058     83.10322  20.9345   0.1280  8.03     86.2233    308.3838     1.279     0.996  87.87
        66     2329.455     119.0084  19.6366   0.0555  5.75    595.7621    327.8482     2.316     2.180 -36.78
        67     658.0234     80.63181  21.0092   0.1331  7.13    640.0057    323.0114     1.493     1.018  69.43
        68     779.7505     90.26125  20.8249   0.1257  7.88    643.4767    321.4943     1.843     0.825  50.10
        69     5580.223     95.48963  18.6882   0.0186  4.04    432.0928    355.9810     2.694     2.476  80.61
        70     470.9088     66.91938  21.3724   0.1543  7.19     93.1126    331.8545     1.157     0.864  72.97
        71     10808.84     97.58548  17.9703   0.0098  3.66    760.9850    368.6590     3.229     2.592 -48.40
        72     204.0485     51.67916  22.2804   0.2751  7.55   1546.5171    329.5132     1.090     0.500  -0.14
        73       347.59     55.21246  21.7021   0.1725  6.66   1440.3259    335.8877     1.151     0.720   8.40
        74     984.6124     76.33518  20.5716   0.0842  5.33     54.7275    349.9268     1.707     1.422 -33.05
        75     4066.953     92.18349  19.0316   0.0246  4.08    442.9427    367.4095     2.468     2.457  73.16
        76     50887.91     96.47336  16.2882   0.0021  3.50    231.5978    395.3917     3.045     2.976 -62.86
        77     1753.718     82.94075  19.9449   0.0514  4.55   1500.6577    361.4847     2.057     1.898 -19.24
        78     406.0155     61.01511  21.5334   0.1632  5.79   1034.1516    361.1364     1.358     0.944  63.30
        79      402.137     61.67476  21.5438   0.1666  7.96    533.7626    359.5301     1.324     0.535 -62.94
        80      227.066     44.68006  22.1644   0.2137  7.34   1415.3390    362.5314     0.920     0.473 -89.56
        81     1061.165     61.67476  20.4903   0.0631  5.59      1.9302    381.1294     2.381     0.903  89.15
        82     516.6102     65.90385  21.2719   0.1385  5.49    992.5557    372.8766     1.555     1.090 -78.52
        83     508.5281     65.90385  21.2890   0.1407  6.97     70.7653    372.0318     1.399     0.754 -55.38
        84     8338.778     90.55963  18.2520   0.0118  3.83    354.7326    398.3482     2.574     2.564  46.69
        85     6770.827     82.45142  18.4782   0.0132  3.62   1461.3718    397.4170     2.577     2.377 -31.94
        86     166.9764     35.22709  22.4981   0.2291  6.50    209.0098    370.0134     0.615     0.606  -0.68
        87     439.9702     61.67476  21.4462   0.1522  8.08   1084.1632    372.8884     1.030     0.665 -12.05
        88     45956.42     93.34673  16.3989   0.0022  3.50    433.5670    419.8457     2.911     2.899 -54.32
        89     1614.883     67.72084  20.0344   0.0455  3.73   1088.8979    393.9712     1.987     1.909 -52.36
        90     2070.049     82.28766  19.7648   0.0432  5.12      2.3713    412.5887     3.544     1.277  89.00
        91     21936.01      88.4498  17.2019   0.0044  3.50    837.5073    415.8865     2.795     2.687 -42.69
        92      271.745     54.72167  21.9694   0.2187  7.66     67.4952    382.1581     0.910     0.678 -36.04
        93     206.1029     36.39113  22.2696   0.1918  7.63      9.8583    383.7711     1.358     0.557  11.59
        94     644.5524     76.68777  21.0316   0.1292  7.90    626.1052    397.2685     1.385     0.808 -77.88
        95      3788.23     74.36607  19.1087   0.0213  3.50    926.5994    424.4074     2.411     2.207 -74.38
        96     16191.31     88.90612  17.5316   0.0060  3.50    252.3252    438.1793     2.790     2.705  -7.72
        97     144204.8     101.2487  15.1573   0.0008  3.50    807.6804    461.3314     3.178     3.081 -41.34
        98     1295.124     113.1995  20.2740   0.0949  6.42    159.3079    420.9558     2.158     1.705  43.28
        99     1225.857     84.86987  20.3337   0.0752  5.20   1422.1897    433.1000     1.816     1.716  69.53
       100     5672.178      102.309  18.6704   0.0196  4.50     21.4207    450.5894     2.486     2.460  29.10
       101     361.6232     57.60371  21.6591   0.1730  5.81   1180.0172    426.7534     1.461     0.792  34.23
       102     7781.688     186.1146  18.3271   0.0260  4.72    851.1541    468.1039     7.117     2.572  23.76
       103     689.1921     87.83768  20.9589   0.1384  6.89    150.7365    434.3987     1.835     1.044   5.03
       104     348.9613     50.89012  21.6978   0.1584  8.49    720.1688    431.0077     0.930     0.469  54.18
       105     1092.901     97.58548  20.4583   0.0970  6.20    122.5157    444.9543     1.881     1.549  59.24
       106     6294.542     94.92292  18.5574   0.0164  4.06     34.5368    457.9190     2.654     2.427 -17.68
       107     504.1871     58.76285  21.2983   0.1266  5.31    305.9941    440.3495     1.300     1.115   4.53
       108     666.3308     76.33518  20.9956   0.1244  5.33    885.2292    447.8613     1.961     1.221   1.04
       109      1763.74     79.28223  19.9387   0.0488  4.20    468.8448    463.9481     2.214     1.898  47.85
       110     527.6787     67.52136  21.2489   0.1390  5.99   1096.9908    461.4201     1.411     1.077  70.01
       111     199.9425     33.66065  22.3025   0.1828  8.24   1534.3280    452.3464     0.581     0.331 -45.75
       112     2734.067     69.68417  19.4628   0.0277  3.50    923.1714    478.1534     2.291     2.063 -42.86
       113     2036.418     67.52136  19.7826   0.0360  3.63    735.0540    472.2752     2.058     1.947  13.65
       114     1711.731     91.15347  19.9712   0.0578  5.14    254.7253    471.5919     1.980     1.869   9.05
       115     89.04712     22.63991  23.1807   0.2761  5.65   1227.3334    455.3133     0.568     0.338 -44.02
       116     5771.424     128.9105  18.6516   0.0243  3.98    782.9262    596.9890     3.615     3.453 -87.82
       117     1027.505     74.90823  20.5253   0.0792  4.31   1277.1139    478.5005     2.064     1.726 -65.71
       118     285.0431     46.74556  21.9175   0.1781  7.45    722.7952    462.3968     1.120     0.417 -12.80
       119     12910.09     95.63078  17.7775   0.0080  3.50   1303.0808    512.7224     3.397     2.606   1.00
       120     22038.28      184.367  17.1968   0.0091  4.37    519.0990    533.1533     4.785     4.361  25.24
       121     2887.437     146.9989  19.4035   0.0553  6.02     82.7940    495.6913     2.777     2.530 -76.01
       122     1031.808     63.40025  20.5208   0.0667  3.92   1070.6866    483.9861     1.908     1.620 -32.20
       123     2293.628     114.3849  19.6535   0.0542  4.69   1186.4955    495.7628     3.121     2.244 -10.67
       124     601.0212     84.71078  21.1076   0.1531  6.94    839.3377    489.6826     1.545     1.140  48.25
       125     501.9082     67.72084  21.3032   0.1465  4.65    863.7810    502.2021     1.826     1.368 -39.11
       126     1181.629     94.35281  20.3736   0.0867  5.54    763.2783    504.4456     2.324     1.464 -18.82
       127     3209.982     113.3186  19.2885   0.0383  4.30   1461.0349    515.7267     4.019     2.030  21.85
       128     210.3738     33.66065  22.2473   0.1738  8.21    366.3373    499.3254     0.576     0.334 -44.48
       129       330659     106.0635  14.2563   0.0003  3.50   1315.9587    588.2134     3.351     3.219 -42.43
       130     742.8499     87.06649  20.8775   0.1273  8.43    163.0072    510.5000     1.377     0.905 -31.60
       131     569.9327     68.31577  21.1652   0.1302  7.83    166.5013    509.5540     1.072     0.826  60.62
       132     272.8888     51.41749  21.9648   0.2046  6.71    454.2385    509.5146     0.978     0.719 -89.84
       133     625.1858     73.63697  21.0648   0.1279  6.10   1179.5034    513.6796     1.539     1.119   5.85
       134     373.9127     57.13346  21.6229   0.1659  6.29    642.8600    518.5699     1.255     0.759 -29.67
       135     1489.718     63.40025  20.1220   0.0462  3.53   1000.0333    540.5427     2.151     1.744 -48.23
       136     212.2686     40.23217  22.2376   0.2058  8.69    402.4881    536.4771     0.500     0.499 -37.00
       137     2150.646     66.31193  19.7234   0.0335  3.52   1041.8425    559.1711     2.139     1.954 -30.51
       138     6939.859     81.13211  18.4514   0.0127  3.56   1242.7992    572.9426     2.522     2.450 -27.79
       139     589185.2     110.3027  13.6292   0.0002  3.50    483.3755    631.4161     3.483     3.337 -44.03
       140     9702.464     90.26125  18.0876   0.0101  3.83    145.0090    580.9929     2.633     2.498 -71.13
       141     9636.118     84.71078  18.0950   0.0095  3.54    319.3545    582.3829     2.643     2.519 -38.03
       142     1779.618     92.47567  19.9290   0.0564  4.74     45.8489    571.4081     2.361     1.903  54.95
       143     64.26135      20.7758  23.5349   0.3511  4.55    143.9820    550.7809     0.655     0.414  -0.87
       144      1468.81     91.00538  20.1374   0.0673  4.61   1447.7355    571.8535     2.426     1.906  40.13
       145     849.5422     92.47567  20.7318   0.1182  8.47    139.1938    565.4221     1.745     0.805 -84.40
       146     1415.312     75.70512  20.1777   0.0581  6.35   1336.4686    575.3669     2.361     1.801 -61.19
       147     330.1871     61.67476  21.7579   0.2029  5.78   1002.5832    577.0038     1.329     1.013  -1.68
       148     627.1913     59.89957  21.0613   0.1037  4.94     75.8023    584.7218     1.554     1.136  73.68
       149     991.9878     56.65932  20.5635   0.0620  3.50    586.3757    605.4258     1.953     1.583 -89.35
       150     29656.48     93.34673  16.8745   0.0034  3.50    558.6801    985.2014     2.937     2.856 -34.53
       151     404.4142     46.97068  21.5377   0.1261  5.26    655.0228   1598.7227     1.480     1.007 -33.96
       152     215.6456     30.30628  22.2204   0.1526  6.25    652.7838   1595.9941     1.121     0.683 -22.73
       153     261.7971     35.60794  22.0099   0.1477  4.43     20.3169   1599.4045     1.692     0.641 -17.39
       154     262.5247     47.60335  22.0069   0.1969  8.91   1387.1508   1594.3894     0.757     0.441  19.77
       155     1134.348     64.24563  20.4179   0.0615  4.10   1108.8921   1584.9974     1.845     1.581  -5.70
       156     115.1669     25.44506  22.9015   0.2399  5.03   1068.7311   1585.4873     1.360     0.225  53.74
       157      1904.89     66.51503  19.8551   0.0379  3.50     22.0706   1566.8105     2.151     1.984  39.44
       158     1176.873     64.24563  20.3780   0.0593  3.54    784.5983   1565.8353     2.207     1.782  73.81
       159      59040.2      95.2067  16.1269   0.0018  3.50    487.7611   1558.1235     2.956     2.930 -84.10
       160     23579.58     147.9137  17.1234   0.0068  3.50    682.2031   1552.8148     4.833     4.349 -28.16
       161     701.5554     72.15668  20.9396   0.1117  5.03   1157.2614    860.5712     1.678     1.440  64.74
       162      464.101     64.45524  21.3883   0.1508  5.33   1339.6710    858.9348     1.493     1.142 -55.93
       163     1015.392     100.5804  20.5382   0.1076  7.29    326.1275    888.8391     1.643     1.358 -21.70
       164      188.324     42.51432  22.3675   0.2452  7.89    144.3609    857.8146     0.763     0.442 -72.36
       165     602.2133     58.91926  21.1054   0.1063  7.36   1206.7559    845.2385     1.556     1.285  81.58
       166     836.8947     86.60047  20.7481   0.1124  6.71   1064.4720    845.2845     1.499     1.313 -12.05
       167     1153.067     91.74347  20.4001   0.0864  5.66   1106.4135    843.5905     1.834     1.672  36.83
       168     2197.781     115.0903  19.6998   0.0569  5.49   1247.0173    838.0015     2.417     2.125 -49.58
       169     1663.726     100.9819  20.0021   0.0659  5.67    299.0053    836.8416     2.103     1.772 -59.74
       170     140.5798     33.66065  22.6850   0.2600  8.05   1521.6752    837.6497     0.581     0.331 -46.05
       171     230.4766     44.98094  22.1482   0.2119  6.16    819.3091    836.1196     0.916     0.679 -20.89
       172     6422.133     79.28223  18.5356   0.0134  3.50    654.5388    823.2621     2.488     2.416 -44.83
       173     5681.902     76.51168  18.6685   0.0146  3.50   1378.7488    803.3778     2.436     2.303 -35.95
       174     17433.33     94.06646  17.4513   0.0059  3.50    695.8089    798.7994     3.169     2.692 -82.98
       175      2872.11     86.60047  19.4093   0.0327  4.14     41.2440    800.9179     2.371     2.164 -35.56
       176     118.1619     27.97028  22.8736   0.2571  5.85   1544.2725    797.7188     0.853     0.355 -69.71
       177     2283.893     83.91085  19.6581   0.0399  3.50   1427.5811    774.7056     2.780     2.435  88.74
       178     1550.325     94.20974  20.0787   0.0660  5.34    392.1560    766.9963     2.053     1.800  23.59
       179     262.4838     54.72167  22.0070   0.2264  7.04    142.2719    767.9082     1.058     0.677  -7.29
       180      137.579     32.43621  22.7084   0.2560  8.00   1342.3060    757.6758     0.561     0.341  45.97
       181     1300.807      75.2675  20.2692   0.0628  4.38    556.4475    742.8175     1.969     1.806  36.94
       182     405499.6      110.547  14.0348   0.0003  3.50    405.0844    724.3953     3.523     3.346 -45.56
       183     527.5037     77.56223  21.2492   0.1597  6.27   1158.6467    737.9290     1.599     1.111 -60.22
       184     1060.211     66.10821  20.4913   0.0677  3.98   1178.3289    727.8657     1.896     1.746  -4.90
       185     386.2649     61.89307  21.5876   0.1740  7.37   1395.6741    723.0043     1.218     0.677 -15.87
       186     68725.45     98.27417  15.9620   0.0016  3.50    848.5637    726.8715     3.084     2.997 -46.77
       187     1206.467     58.30196  20.3510   0.0525  3.50    808.4232    715.9310     1.831     1.767   3.82
       188     1202.115     62.97331  20.3549   0.0569  3.84   1164.1351    709.0284     1.890     1.633 -18.22
       189     560.8682     57.36906  21.1826   0.1111  4.75    649.9886    736.2467     1.406     1.214 -54.96
       190     1611.376     87.53002  20.0368   0.0590  4.73   1339.0583    704.5935     2.128     1.899 -47.86
       191     2444.547     80.46435  19.5843   0.0357  4.10    952.6016    703.0588     2.164     2.110 -17.93
       192     707.6036     92.18349  20.9303   0.1415  6.69    583.5120    698.3197     1.702     1.316  20.28
       193     501.6038     54.86637  21.3039   0.1188  6.73   1214.0000    691.0156     1.666     1.096 -37.90
       194     639.5773     82.77796  21.0400   0.1406  5.93   1214.3245    687.3190     1.880     1.215 -15.60
       195     1977.599     123.1306  19.8144   0.0676  5.26    472.1355    683.3900     2.724     2.361 -82.59
       196      270.892     47.60335  21.9728   0.1908  8.76    132.1882    687.4053     0.759     0.446  19.49
       197     2349.238     115.2074  19.6275   0.0533  5.14    543.5062    681.3306     2.544     2.318 -79.88
       198     2078.909     76.86346  19.7602   0.0402  3.90    644.3531    685.7884     2.205     2.099 -76.82
       199      67946.8     95.91247  15.9744   0.0015  3.50   1464.4425    648.6778     3.032     2.936 -41.77
       200     524.8239     53.97712  21.2547   0.1117  4.48    871.6137    654.8028     1.473     1.161  16.84
       201     3263.622     72.52958  19.2705   0.0241  3.50    134.9627   1541.9684     2.309     2.183 -88.98
       202      10208.4     81.95917  18.0324   0.0087  3.50    537.0042    639.9554     2.603     2.508 -77.65
       203     270.5966     47.88586  21.9740   0.1922  7.45    653.9762    644.9847     0.903     0.526  45.87
       204     466.0081     47.03323  21.3838   0.1096  3.92    806.2889    630.8015     1.543     1.099  -7.28
       205     966.1921     57.60371  20.5921   0.0647  3.66   1581.1152    623.5600     1.716     1.666   6.84
       206     345.7257     42.83042  21.7080   0.1345  9.28   1151.5134    618.5421     0.509     0.489 -42.69
       207     330.4918     50.62437  21.7569   0.1664  7.59    374.4944   1594.4321     1.109     0.499 -88.56
       208     279.0192     47.03323  21.9407   0.1831  5.57    960.6149    878.4634     1.300     0.644  41.36
       209     666.4752     50.62437  20.9953   0.0825  3.50    838.5448    913.3269     1.717     1.401 -74.58
       210     413.7198     60.79364  21.5130   0.1596  9.33   1428.7147   1536.9894     0.740     0.689 -86.80
       211     635.5974     79.95986  21.0468   0.1366  6.47   1547.8488   1516.2203     1.542     1.161  86.81
       212     1352.948     59.44749  20.2266   0.0477  3.50     92.6435   1570.5266     1.908     1.798 -55.10
       213     113893.7     94.20974  15.4135   0.0009  3.50   1592.4357    880.6585     3.100     2.929 -70.60
       214     59665.49     97.30865  16.1155   0.0018  3.50    304.2059   1563.8154     3.028     2.968 -48.02
       215     332.4744     54.72167  21.7504   0.1787  7.91   1221.9041   1550.8585     0.840     0.673 -43.50
       216      32031.6     92.76694  16.7908   0.0031  3.50    269.3668   1507.2974     2.892     2.852 -83.66
       217     167.0195     32.01767  22.4979   0.2082  7.93    642.6816    869.6841     0.563     0.341 -44.87
       218     920.1746     74.54723  20.6451   0.0880  4.82    861.5500   1561.5085     1.943     1.459  13.31
       219     650.9824     58.76285  21.0209   0.0980  3.74    863.2228   1546.2635     2.004     1.434  11.30
       220     111.2964     27.97028  22.9386   0.2729  7.07    882.6633    595.3417     0.582     0.330  45.20
       221     823.0625     76.68777  20.7662   0.1012  4.65    939.5784    868.4896     2.196     1.445  10.68
       222      396.561     60.12433  21.5590   0.1647  6.36    415.7062   1532.8143     1.225     0.867  51.44
       223     128.6796     27.97028  22.7810   0.2361  7.13      1.5281    901.4646     0.507     0.490  44.22
       224     112.9648     28.44844  22.9224   0.2735  7.25   1312.3025   1504.3042     0.551     0.345 -45.11
       225      1579.63     113.4376  20.0584   0.0780  5.43    538.6276    896.1943     2.337     2.200 -19.70
       226     2320.222     70.07024  19.6410   0.0328  3.50    654.7966   1542.7661     2.277     2.084 -57.64
       227     315.9125     57.60371  21.8059   0.1980  7.79    483.5810   1515.3047     1.280     0.506 -40.07
       228     124.5742     33.25751  22.8162   0.2899  4.90    542.0864    876.1676     0.851     0.656 -47.54
       229     297191.6     106.8238  14.3722   0.0004  3.50   1224.5459    859.6343     3.396     3.237 -40.66
       230     2873.091     107.9542  19.4089   0.0408  4.79   1104.0787    869.7753     2.597     2.296 -26.09
       231      6648.01     93.20213  18.4981   0.0152  3.99    303.0515    900.7181     2.680     2.385 -32.65
       232     170.9736     37.81253  22.4725   0.2402  7.19    844.6091   1496.8009     0.764     0.441  70.45
       233     7699.468     80.29654  18.3386   0.0113  3.50    392.6765   1514.9398     2.545     2.449 -49.10
       234      8816.23     224.7247  18.1916   0.0277  5.72    224.6334    879.2748     6.994     2.595  89.97
       235     693.3885     51.67916  20.9523   0.0809  3.50   1500.2448    886.1868     1.734     1.507 -41.32
       236     709.2906     76.86346  20.9277   0.1177  5.71    723.5041   1504.2100     1.558     1.364 -13.85
       237     1136.397     93.49112  20.4160   0.0893  5.66   1177.6235    877.8342     2.037     1.581 -22.53
       238     601.7825     69.10103  21.1062   0.1247  4.83   1304.5952    885.9565     1.837     1.309  74.75
       239     1871.522     78.25477  19.8743   0.0454  4.16   1067.3606    939.6153     2.125     1.952 -62.21
       240     243.5807     37.09223  22.0882   0.1654  4.22   1000.8740    912.7669     1.258     0.702  -5.73
       241     193.2689     37.45411  22.3394   0.2105  8.46   1347.4993   1437.4961     0.505     0.495  44.96
       242      827.887     100.0426  20.7599   0.1312  6.71    516.4686    938.1220     1.776     1.478 -38.73
       243     15179.06     87.22128  17.6017   0.0062  3.50   1178.4865    930.0122     2.779     2.627 -34.70
       244     947.0912     76.15827  20.6138   0.0873  4.71   1031.8337   1400.8264     1.910     1.590   3.40
       245     146122.6      102.045  15.1430   0.0008  3.50   1090.4143   1434.5859     3.213     3.117 -59.11
       246     257.4187     34.05902  22.0282   0.1437  3.50    445.8221    947.4985     1.299     0.861  20.30
       247     7134.483     77.56223  18.4214   0.0118  3.50   1428.3959   1388.9996     2.420     2.373 -75.23
       248     1428.712     61.01511  20.1674   0.0464  3.50   1386.5270   1415.5215     1.947     1.825 -14.68
       249      1067849     117.1809  12.9835   0.0001  3.50    184.0812    882.3248     3.744     3.550 -36.94
       250     866.5571     58.53286  20.7103   0.0734  3.76   1322.1692    929.0295     1.747     1.621 -23.98
       251     153.1299     43.76501  22.5921   0.3104  6.82    133.6909    947.4278     1.035     0.473   9.02
       252      2443.92     72.71532  19.5846   0.0323  3.69    713.4028   1390.5596     2.299     1.973 -44.33
       253     3327.724     77.38813  19.2494   0.0253  3.80    224.9037   1435.3816     2.253     2.167  54.77
       254     80898.59     96.89191  15.7849   0.0013  3.50    114.3857   1393.5499     3.046     2.986 -47.92
       255      2361.98     68.51292  19.6216   0.0315  3.50    619.3231   1439.8134     2.161     2.065 -57.22
       256     153.4084     28.44844  22.5902   0.2014  7.28    341.6860   1434.3214     0.564     0.340  45.38
       257     18246.36     89.96188  17.4018   0.0054  3.50   1126.3322   1419.4348     2.854     2.716 -54.97
       258     684.4403     57.36906  20.9664   0.0910  3.67    349.9223   1411.3929     1.809     1.631  61.00
       259     449.2639     71.59367  21.4235   0.1731  6.18    329.1994   1406.2505     1.346     1.177  37.89
       260     312.8201     50.35722  21.8165   0.1748  6.47   1596.7365   1065.9886     1.278     0.626  52.89
       261      507.084     46.16485  21.2921   0.0989  5.15      1.6512   1412.4729     1.958     0.672 -88.48
       262     814284.4     129.6409  13.2778   0.0002  3.50   1159.1398   1366.4746     4.503     3.574  14.36
       263      2302.36     68.31577  19.6493   0.0322  3.50    308.3497   1408.4286     2.203     2.012  -2.59
       264     581.4465     72.71532  21.1435   0.1358  6.18      7.1723   1063.2089     1.389     1.243 -28.41
       265     182.7397     34.84208  22.4002   0.2071  7.43    769.9743   1145.0000     0.852     0.289   0.00
       266     657.0356      73.2697  21.0108   0.1211  7.15    467.2915   1093.4473     1.313     0.949 -45.65
       267     10497.56     84.86987  18.0021   0.0088  3.50    751.9335   1104.7153     2.653     2.610 -62.11
       268     1685.275      75.4465  19.9881   0.0486  4.18   1038.9935   1392.6360     2.029     1.869 -16.29
       269     1275.602     95.77173  20.2905   0.0815  5.49    726.6678   1060.0006     2.114     1.688 -18.82
       270     727.6632     96.75259  20.9000   0.1444  7.57    678.9073   1105.2676     2.062     0.931  58.21
       271     99.50879     26.98856  23.0601   0.2945  6.46     63.3045    952.3282     0.562     0.341 -46.25
       272     721.7341     83.10322  20.9088   0.1250  5.72    654.0697    951.7155     1.785     1.414 -86.18
       273     2701.683     69.00674  19.4757   0.0277  4.27    669.7330   1307.7802     2.409     1.993 -45.13
       274     30396.93     92.62141  16.8477   0.0033  3.50    778.2391   1095.2030     2.921     2.818 -50.94
       275     8703.166     84.86987  18.2056   0.0106  3.50   1019.0164   1372.7700     2.655     2.592 -69.59
       276      2938.97     79.62177  19.3843   0.0294  3.96    642.4955   1089.7832     2.262     2.125 -72.57
       277     4047.006     74.18446  19.0369   0.0199  3.50   1331.2640   1278.2843     2.367     2.229  19.82
       278     1165.646     105.6813  20.3884   0.0985  6.07   1139.6675   1331.0336     2.240     1.595 -68.68
       279     14913.16     88.29717  17.6209   0.0064  3.50    513.1483   1214.8149     2.788     2.685 -46.75
       280     775.2477     75.80322  20.8312   0.1062  5.37    892.9384   1304.6041     1.731     1.354 -82.96
       281     744204.5     112.6022  13.3756   0.0002  3.50    693.9587   1151.9622     3.590     3.400 -41.89
       282      204.856     38.16759  22.2762   0.2023  8.48    154.5137   1353.4644     0.507     0.491 -43.11
       283     6993.914     89.96188  18.4430   0.0140  3.84    428.1783   1107.6848     2.603     2.456 -77.45
       284     563.0081     67.91972  21.1785   0.1310  5.86    547.0287   1129.9962     1.421     1.108  44.68
       285      9425.98     82.77796  18.1190   0.0095  3.50   1148.2699   1082.0327     2.625     2.539 -18.58
       286     1690.102     129.4326  19.9850   0.0832  6.37    479.3345   1111.0759     2.765     1.746  60.00
       287     820.1072     58.30196  20.7701   0.0772  3.50    412.8123   1293.0548     1.963     1.671 -59.79
       288     326.0283     61.01511  21.7716   0.2032  7.26    386.4968   1330.6422     1.074     0.780  36.27
       289     34338.13     112.2422  16.7153   0.0035  3.50    659.6407   1321.1383     4.262     2.830 -66.15
       290     2365.867     83.58874  19.6198   0.0384  3.69   1036.3203   1307.7596     2.628     2.304 -33.92
       291     747.9606     84.71078  20.8701   0.1230  6.37    598.6448   1230.7162     1.728     1.211 -26.31
       292      715.038     72.90058  20.9190   0.1107  5.36    107.4513   1333.0924     1.654     1.308 -49.95
       293     6927.603     94.06646  18.4533   0.0147  3.99    762.0699   1291.5995     2.694     2.415 -21.64
       294     192723.3      107.076  14.8424   0.0006  3.50    725.0037   1298.6001     3.488     3.178 -23.15
       295     399.2014     40.56606  21.5518   0.1104  3.67    264.3346   1319.2821     1.342     1.081 -41.09
       296     2996.024     73.63697  19.3634   0.0267  3.66    807.8504   1265.7429     2.311     2.070 -46.62
       297     7333.899     138.7864  18.3914   0.0206  3.93    757.9006   1172.7997     3.921     3.759  69.25
       298     155.0292     37.45411  22.5787   0.2624  8.03     52.5046   1299.5083     0.509     0.491  44.92
       299     87.64526     17.99237  23.1980   0.2229  3.50   1089.4442   1299.5024     0.506     0.491 -50.96
       300     13317.25     121.0313  17.7437   0.0099  3.50    609.9014   1273.0546     4.604     3.054 -55.37
       301     31476.01     92.62141  16.8098   0.0032  3.50    148.0432   1138.7234     2.911     2.836 -43.14
       302     1245.361     92.03705  20.3165   0.0803  4.94    432.2961   1259.4498     2.210     1.862 -26.24
       303     288.5403     47.88586  21.9043   0.1802  7.30    855.0084   1263.2916     0.729     0.687  21.82
       304     9357.077     85.50323  18.1269   0.0099  3.50   1194.9154   1219.2106     2.677     2.604  53.53
       305     1425.727     90.70846  20.1697   0.0691  4.24   1429.4354   1213.2943     2.704     1.979  61.87
       306     1466.549     67.72084  20.1390   0.0501  3.80    339.3524   1202.2263     2.012     1.869 -60.99
       307     197.6171     40.23217  22.3152   0.2211  9.02    915.5093   1228.0006     0.805     0.311 -58.15
       308     795.4474     73.45356  20.8033   0.1003  5.18   1352.9554   1153.7366     1.817     1.304  -1.42
       309     775.0355     65.28696  20.8315   0.0915  4.67    672.7222   1242.6703     1.739     1.326 -48.82
       310     273.3628     48.72358  21.9629   0.1936  6.44   1154.1084   1229.3447     0.957     0.688 -69.05
       311     117.9557     28.44844  22.8755   0.2619  7.33   1217.3334   1204.6571     0.581     0.331  45.38
       312      1967710     164.0828  12.3199   0.0001  3.50    995.2126   1221.6608     5.342     4.878 -34.12
       313     1450.471     62.32742  20.1510   0.0467  3.50   1553.3928   1237.2053     1.978     1.901   3.72
       314     2056.207     117.1809  19.7721   0.0619  5.72    124.0835   1195.3733     2.308     2.127  88.88
       315     264.6919     48.72358  21.9979   0.1999  6.76     48.1804   1238.1827     1.219     0.500  45.52
       316     180.0491     43.45572  22.4163   0.2621  7.10    176.6743   1181.8228     1.082     0.412 -77.08
       317     16229.73     87.06649  17.5290   0.0058  3.50    813.8272   1010.0671     2.712     2.670 -65.10
       318     33532.55     94.35281  16.7411   0.0031  3.50    512.3001   1080.1943     2.968     2.850 -68.55
       319     553.6831     58.99195  21.1966   0.1157  4.85    549.5241   1181.3903     1.735     1.003 -82.69
       320     228.5194     43.76501  22.1575   0.2080  6.61    856.7182   1238.0029     1.213     0.436 -33.31
       321     2630.398     70.45419  19.5047   0.0291  3.61    304.9624   1234.5607     2.220     2.046 -43.58
       322     50879.68     94.20974  16.2884   0.0020  3.50   1299.7545   1165.4764     2.966     2.894 -45.06
       323     853.0687     52.96812  20.7273   0.0674  3.50   1442.0564   1201.2911     1.754     1.557  25.89
       324     2286.926      103.879  19.6567   0.0493  4.59    330.1281   1120.3330     2.861     2.131  55.50
       325     5565.019     81.62935  18.6911   0.0159  3.63    236.4265   1158.1257     2.466     2.432 -45.13
       326     584.4962     44.98094  21.1378   0.0836  3.50    887.8843   1161.9113     1.514     1.255 -23.64
       327     1341.774     88.60217  20.2356   0.0717  5.02     99.6127   1151.3293     2.056     1.777 -33.82
       328     791.1321     98.54829  20.8092   0.1353  7.50    674.3723   1114.2611     1.836     1.109  66.49
       329     14538.91     153.4635  17.6485   0.0115  3.50   1279.0059   1210.8455     5.932     3.812  83.04
       330     1724.576     83.10322  19.9631   0.0523  4.50    839.1183   1207.9048     2.099     1.911 -34.12
       331     1592.347     85.34533  20.0497   0.0582  4.67   1075.3441   1203.7594     2.146     1.846  56.71
       332     1834.276     76.15827  19.8961   0.0451  3.60   1218.9911   1072.5201     2.506     2.159 -73.34
       333     16212.14     87.99111  17.5302   0.0059  3.50    183.5249   1130.2111     2.812     2.666 -48.58
       334     546.9391     71.02621  21.2099   0.1410  5.64    219.9609   1130.5193     1.933     0.961  17.17
       335     304.0514     48.44595  21.8474   0.1730  7.09     43.8700   1084.3237     1.095     0.511  68.05
       336     758.8861     50.08865  20.8543   0.0717  3.50   1527.0216   1096.0061     1.634     1.463  17.14
       337     485.6558     61.67476  21.3390   0.1379  6.71      7.1439   1073.1526     1.238     0.855  -1.00
       338     1876.613     93.20213  19.8713   0.0539  4.11    302.9785   1030.0464     2.898     2.087  66.56
       339     597.9414     80.46435  21.1131   0.1461  7.21    329.8013   1079.8993     1.332     1.111  -2.51
       340     1009.817     90.41056  20.5442   0.0972  5.49   1562.7944   1065.5956     2.215     1.456 -48.94
       341     300.8027     52.71285  21.8591   0.1903  7.02    454.1198   1016.7502     1.034     0.653 -29.65
       342     2471.659     82.61485  19.5723   0.0363  4.16    345.0462   1011.6916     2.238     2.085 -65.00
       343     479368.6     111.1554  13.8531   0.0003  3.50     50.3203   1023.8149     3.555     3.375 -48.41
       344      8668.29      84.5514  18.2099   0.0106  3.50    525.6714   1038.8405     2.697     2.528 -60.67
       345     151.9674     34.45277  22.6004   0.2462  7.37    468.0018   1042.4810     0.790     0.316  32.34
       346     42902.18      95.2067  16.4736   0.0024  3.50    633.2490   1040.5178     3.017     2.912 -61.50
       347     705.5701     76.15827  20.9334   0.1172  7.47    121.5983   1037.5570     1.211     0.997  22.61
       348     19262.29     88.14427  17.3430   0.0050  3.50   1380.0198   1026.0680     2.794     2.683 -55.76
       349     2192.878     132.6239  19.7022   0.0657  6.85    454.2726    986.9518     2.267     1.946  73.36
       350     2916.338     93.49112  19.3927   0.0348  4.48    542.7504   1001.9201     2.291     2.244  -3.58
       351     979.0956     54.72167  20.5777   0.0607  3.50   1555.5012   1001.7543     1.812     1.612 -25.15
       352     916.2988     88.29717  20.6497   0.1047  5.78    798.1845    980.8538     1.865     1.469 -58.31
       353     769.0919     51.41749  20.8398   0.0726  3.50   1273.7240   1000.4612     1.795     1.409 -11.68
       354     521.1384     82.61485  21.2624   0.1722  7.58    415.9614    964.9525     1.450     0.971 -36.70
