#   1 KRON_RADIUS            Kron apertures in units of A or B                         
#   2 MAGERR_APER            RMS error vector for fixed aperture mag.                   [mag]
#   3 Y_IMAGE                Object position along y                                    [pixel]
#   4 X_IMAGE                Object position along x                                    [pixel]
#   5 THETA_IMAGE            Position angle (CCW/x)                                     [deg]
#   6 FLUX_APER              Flux vector within fixed circular aperture(s)              [count]
#   7 A_IMAGE                Profile RMS along major axis                               [pixel]
#   8 B_IMAGE                Profile RMS along minor axis                               [pixel]
#   9 FLUX_RADIUS            Fraction-of-light radii                                    [pixel]
#  10 FLUXERR_APER           RMS error vector for aperture flux(es)                     [count]
#  11 MAG_APER               Fixed aperture magnitude vector                            [mag]
#  12 NUMBER                 Running object number                                     
 5.69   0.0355     16.5823    984.9381 -86.94     4207.967     2.491     1.473      8.553     137.5153  18.9898          1
 4.65   0.0423     17.7012     91.2437  62.60     3530.796     1.522     1.468      5.050     137.3752  19.1803          2
 3.89   0.0162     14.6993   1445.5360 -50.08     9222.574     1.774     1.715      4.744      137.453  18.1379          3
 4.92   0.0057     53.0452     63.6400   7.51     26293.96     3.684     3.374     13.089     137.5308  17.0004          4
 3.50   0.0035     59.8229   1078.2557  68.73     42340.94     2.259     2.194      5.156     137.5619  16.4831          5
 3.50   0.0037     80.1066    537.4939  13.25     40646.69     2.197     2.153      5.020     137.3596  16.5274          6
 3.50   0.0002    182.1367   1107.2065 -19.35     932039.2     4.434     4.162      8.465      137.593  13.1264          7
 7.03   0.0970     74.8750    127.7219  14.01     1539.108     1.032     0.750      4.222     137.4686  20.0818          8
 6.00   0.0700     96.3360     55.9325 -15.25     2133.409     1.233     1.071      5.742     137.4219  19.7273          9
 3.50   0.0025    121.7236    788.9908 -22.68     60794.63     2.307     2.266      5.195     137.5775  16.0903         10
 3.50   0.0044    162.3457   1468.0594 -22.19     34030.89     2.184     2.099      4.987     137.4841  16.7203         11
 3.50   0.0006    193.4410    317.9619 -18.77     259012.7     2.614     2.557      5.458     137.5619  14.5167         12
 3.73   0.0192    170.3082    877.2081 -16.24     7776.644     1.853     1.720      4.871     137.4841  18.3230         13
 8.43   0.1125    170.5123    325.5009 -43.32     1325.564     0.501     0.499      3.007     137.3752  20.2440         14
 5.39   0.0062    234.7470    403.5798 -33.70     23932.99     4.602     3.412     16.350     137.5464  17.1025         15
 8.52   0.1831    192.3390   1350.3169 -46.02     815.3688     0.573     0.336      3.255     137.4374  20.7716         16
 7.62   0.0449    210.6147    827.2098 -11.67     3323.579     1.692     1.270      9.699      137.453  19.2460         17
 6.46   0.0922    206.3976    548.9096 -11.00     1619.689     1.162     0.913      5.236      137.453  20.0264         18
 5.54   0.1005    212.3253   1305.9001  15.99     1484.079     1.207     0.956      4.061      137.344  20.1214         19
 5.45   0.0907    223.7165   1225.4967 -32.80     1645.231     1.133     1.061      3.763     137.3596  20.0094         20
 3.50   0.0013    259.5990    997.2290 -20.35     114272.3     2.457     2.395      5.292      137.453  15.4051         21
 9.37   0.0554    230.0000    561.9872   0.00     2694.794     0.857     0.289      4.117     137.5153  19.4737         22
 3.50   0.0019    265.5631     67.4617  12.68     77597.14     2.379     2.335      5.260     137.5153  15.8254         23
 6.10   0.0461    255.1530    612.7513 -35.09     3239.405     1.715     1.351      6.953     137.5619  19.2738         24
 8.83   0.1155    243.3442    112.6688  45.53     1291.993     0.581     0.331      3.486      137.453  20.2718         25
 3.50   0.0005    312.1686    439.1684 -15.50     316357.4     2.705     2.607      5.544     137.5464  14.2996         26
 3.72   0.0084    287.4911   1486.1422  -1.82     17812.99     2.021     1.975      4.890     137.4219  17.4232         27
 4.40   0.0403    281.8382   1522.0143  18.69     3709.309     1.568     1.414      4.826     137.5619  19.1268         28
 3.89   0.0111    302.8144    201.5877   6.89     13452.12     1.944     1.891      5.004     137.4997  17.7280         29
 7.93   0.0906    289.3437    514.9204  66.35     1647.128     0.928     0.695      5.188     137.4686  20.0082         30
 3.50   0.0028    318.4723    905.2948  -7.79     53591.03     2.338     2.258      5.244     137.4374  16.2273         31
 6.59   0.1014    293.7296   1327.4131  -1.64     1473.995     1.004     0.960      5.052     137.6086  20.1288         32
 3.50   0.0006    351.3069   1345.6638 -23.56     269592.4     2.628     2.568      5.456     137.4686  14.4732         33
 3.50   0.0005    351.2153    890.6124 -13.41     279648.6     2.631     2.571      5.467     137.5153  14.4335         34
 3.64   0.0172    321.6846    697.1141   7.04     8664.548     1.839     1.740      4.718     137.4063  18.2056         35
 7.01   0.0932    327.0966    595.3744  14.64     1600.991     1.033     0.756      5.350     137.4686  20.0390         36
 5.03   0.0241    346.1313    866.8199 -21.13      6199.72     1.691     1.617      6.294     137.5775  18.5691         37
 4.77   0.0309    355.4344    431.5809 -85.32     4829.172     1.780     1.651      5.584     137.5153  18.8403         38
 4.03   0.0163    367.8295    760.9108  22.87     9153.742     1.848     1.800      4.954     137.4686  18.1460         39
 4.82   0.0980    360.8949   1500.1207  43.64     1522.227     1.236     1.057      3.958     137.4063  20.0938         40
 4.73   0.0456    367.0470    442.7178  -9.05     3274.807     1.464     1.361      4.606      137.453  19.2620         41
 3.50   0.0033    394.8083    231.3112  36.26     44777.94     2.265     2.204      5.150     137.5153  16.4223         42
 4.01   0.0212    397.8153    354.4453  68.60     7040.324     1.774     1.704      4.843     137.5308  18.4310         43
 4.29   0.0249    396.8724   1460.8997   9.72     5997.513     1.724     1.620      4.596     137.3752  18.6051         44
 6.23   0.1130    393.5096   1088.5342  83.01     1320.647     0.922     0.916      4.381     137.4686  20.2480         45
 3.50   0.0036    419.1950    433.1605  66.64      41130.5     2.241     2.225      5.204     137.5308  16.5146         46
 3.56   0.0075    415.3754    837.2552  12.49     19819.69     2.101     2.022      5.091     137.5775  17.3073         47
 4.37   0.0454    423.9159    926.2800 -40.75     3289.222     1.480     1.433      4.444     137.4374  19.2573         48
 3.76   0.0101    437.5066    251.9277   5.83     14821.19     1.969     1.898      5.006     137.4374  17.6228         49
 3.50   0.0012    460.6513    807.4163  -5.38     127271.4     2.479     2.390      5.290     137.5619  15.2882         50
 7.11   0.1243    432.4907   1421.9971  62.54     1200.921     1.090     0.655      4.983      137.453  20.3512         51
 4.52   0.0322    449.7924     21.2016  74.12     4628.656     1.591     1.556      5.140      137.453  18.8864         52
 4.41   0.0293    457.2684     34.4971  28.39     5096.611     1.675     1.566      5.003     137.4686  18.7818         53
 7.34   0.0379    467.6591    850.6986  25.02     3936.851     2.717     1.299     13.649     137.4063  19.0621         54
 6.62   0.0799    463.3746    468.4101 -50.36      1868.96     1.083     0.971      5.825     137.5153  19.8710         55
 5.30   0.0723    471.7219    734.9535 -62.67      2065.74     1.226     1.147      4.377      137.453  19.7623         56
 6.46   0.1111    470.8155    254.0362  83.60     1345.132     0.927     0.757      3.762     137.5619  20.2281         57
 5.12   0.0531    477.5528    922.7881 -46.17     2815.333     1.395     1.305      4.803     137.5619  19.4262         58
 8.91   0.1960    477.5064   1276.5192 -45.77     761.4136     0.506     0.494      3.035     137.4374  20.8459         59
 6.13   0.1321    483.9977   1070.2220   1.14     1130.637     0.938     0.759      3.681     137.5153  20.4167         60
 4.00   0.0135    512.1588   1302.5399   5.76     11063.17     2.391     1.756      6.153     137.5153  17.9403         61
 5.48   0.0112    532.4893    518.7509  45.20     13353.14     2.976     2.462     11.684     137.4219  17.7360         62
 8.18   0.0661    514.7327   1460.2910  10.70     2256.899     1.419     0.674      8.511      137.453  19.6662         63
 5.59   0.1116    539.9737    999.6816  68.50     1338.472     1.108     1.077      4.546     137.4997  20.2335         64
 3.50   0.0005    587.6174   1315.8351  21.37     291247.7     2.605     2.544      5.420     137.5308  14.3893         65
 5.62   0.0698    558.6874   1041.5004 -74.66     2135.773     1.346     1.004      4.658      137.344  19.7261         66
 4.12   0.0235    572.2595   1242.7538  12.07     6345.181     1.696     1.636      4.674     137.4997  18.5439         67
 4.34   0.0172    581.6237    319.2104  76.10     8674.314     1.866     1.784      5.239     137.5153  18.2044         68
 4.12   0.0170    580.1006    144.8694  38.08     8770.645     1.834     1.754      5.003     137.4374  18.1924         69
 3.50   0.0003    630.7087    483.2369  17.07     517829.7     2.771     2.712      5.573     137.4374  13.7645         70
 9.63   0.0992    570.3286     45.6708  44.97     1504.792     0.574     0.335      3.441     137.4063  20.1063         71
 7.40   0.1332    574.0139   1337.2577  89.43     1121.744     0.735     0.690      4.412     137.5464  20.4253         72
 6.99   0.0352    596.4741    782.5552  81.14     4243.507     1.934     1.485      8.871      137.453  18.9807         73
 6.01   0.0568   1000.9565    542.7247  -3.06     2629.206     1.286     1.204      5.596     137.4686  19.5004         74
 3.50   0.0015    880.0087   1592.4181  51.21     102043.2     2.445     2.380      5.318     137.4841  15.5280         75
 7.60   0.0370    880.1438    224.1437  84.07     4038.085     2.800     1.309     13.142      137.453  19.0346         76
 6.12   0.0601    868.9868   1103.1886  31.65         2483     1.395     1.174      5.965     137.4841  19.5626         77
 3.50   0.0006    858.9574   1224.4263  25.75     255028.3     2.639     2.588      5.496      137.593  14.5335         78
 7.62   0.0797    837.2239   1247.4917  -0.45     1873.105     1.009     0.732      5.598     137.4686  19.8686         79
 6.58   0.0970    836.4489    298.4424  15.66     1539.918     0.922     0.915      5.055     137.5464  20.0813         80
 4.06   0.0254    822.4698    654.3860  51.50     5889.909     1.749     1.649      4.823     137.6086  18.6247         81
 4.47   0.0279    802.7502   1378.4924 -50.56     5344.935     1.668     1.607      5.128     137.4374  18.7301         82
 3.88   0.0097    798.0847    695.6307 -88.77     15403.18     2.469     1.952      5.817     137.5153  17.5810         83
 5.71   0.0593    800.0585     41.0773  48.00     2518.053     1.263     1.136      4.599     137.4686  19.5473         84
 8.62   0.0644    774.6725   1427.0803 -73.05     2318.451     1.065     0.754      6.388     137.4374  19.6370         85
 7.26   0.1210    766.2867    391.8763  68.87     1233.463     0.957     0.687      4.529     137.3907  20.3222         86
 6.14   0.1104    742.5024    556.5078  87.83     1351.768     0.941     0.916      3.945     137.3907  20.2227         87
 3.50   0.0004    723.6040    404.8631   9.84     355346.7     2.661     2.628      5.462     137.6086  14.1734         88
 3.50   0.0024    726.1969    848.3800  15.37     60963.04     2.324     2.280      5.212     137.4997  16.0873         89
 7.85   0.1647    726.8041   1178.4011 -70.63     906.6694     0.758     0.446      3.356     137.4841  20.6564         90
 6.61   0.1365    715.1652    808.1205 -42.84     1094.003     0.834     0.679      3.887     137.4841  20.4525         91
 6.22   0.1373    708.2938   1163.8535  70.11     1087.124     0.949     0.690      3.399      137.453  20.4593         92
 5.04   0.0660    702.1606    952.2911 -58.08     2262.081     1.311     1.266      4.515     137.4219  19.6637         93
 9.71   0.0976    703.5060   1338.5083  45.05     1528.211     0.509     0.491      3.052     137.3907  20.0895         94
 6.78   0.0746    685.1113    644.0930 -46.87     2000.256     1.109     1.105      5.905     137.4063  19.7973         95
 3.50   0.0025    648.0393   1464.2296  50.66     60037.18     2.308     2.287      5.217     137.5619  16.1039         96
 3.50   0.0028   1557.4830    487.5880  30.43     53069.52     2.223     2.198      5.027     137.5308  16.2379         97
 4.37   0.0155    639.2827    536.8463   4.93     9623.755     1.863     1.760      5.575      137.453  18.0916         98
 8.56   0.1686    623.2075   1581.5868 -70.23     884.9853     0.750     0.448      3.714     137.4219  20.6827         99
 7.45   0.1619    605.1619    586.1762  46.13     922.3806     0.751     0.570      4.308     137.5464  20.6377        100
 5.56   0.1678   1584.3810   1108.8988  67.78     889.6644     0.932     0.696      2.873      137.453  20.6769        101
 4.42   0.0490   1541.2722    134.9443  13.66     3045.633     1.483     1.348      4.440     137.4374  19.3408        102
 5.96   0.1021   1569.8834     92.4813 -14.03     1461.538     1.030     0.877      4.273     137.4219  20.1380        103
 3.50   0.0028   1563.1888    304.0692  33.60     53647.19     2.231     2.169      4.963     137.5775  16.2261        104
 5.24   0.0793   1566.0160     21.8608  69.12     1883.496     1.193     1.113      4.345     137.5153  19.8626        105
 3.50   0.0002    881.5714    183.9562  -7.91     930380.6     2.889     2.836      5.656      137.593  13.1283        106
 8.28   0.2047   1560.5081    861.5000 -44.77     728.5141     0.504     0.496      3.024      137.344  20.8939        107
 4.93   0.0094   1552.1603    682.0789 -14.57      15802.4     3.248     2.869     11.225     137.4686  17.5532        108
 5.65   0.0720   1542.0186    654.5374 -87.78     2075.331     1.286     1.050      4.964     137.5464  19.7573        109
 3.58   0.0052   1506.6364    269.2758  19.22     28546.65     2.078     2.048      4.899     137.4841  16.9111        110
 4.27   0.0210   1514.3198    392.6094 -65.38     7126.038     1.724     1.661      5.030     137.5308  18.4179        111
 4.40   0.0256    899.8454    302.7468  21.09     5841.191     1.705     1.644      5.056     137.5153  18.6337        112
 3.78   0.0109    929.3561   1178.3571  40.94     13752.78     1.998     1.955      5.030     137.5464  17.7040        113
 3.73   0.0056    984.3853    558.4161  48.22      26578.9     2.164     2.121      5.310     137.5153  16.9887        114
 6.45   0.0907    938.8971   1066.5717  -7.20     1645.285     1.046     0.888      4.382     137.4219  20.0094        115
 3.61   0.0050   1079.4897    512.1982  35.25     30049.28     2.200     2.174      5.264      137.453  16.8554        116
 3.76   0.0086   1025.4875   1379.8679  70.20     17372.99     2.063     2.006      5.202     137.4063  17.4503        117
 7.59   0.0416   1365.9508   1134.3726  67.81     3593.355     1.646     1.268      9.877     137.5775  19.1612        118
 5.04   0.0726   1407.5771    308.1961 -68.88     2056.665     1.305     1.160      4.131     137.5153  19.7671        119
 4.24   0.0172   1081.4326   1148.1920  76.16     8685.616     1.879     1.827      5.280     137.5308  18.2030        120
 4.67   0.0695   1439.1356    619.1685  17.78     2149.239     1.290     1.159      4.088     137.5308  19.7193        121
 3.50   0.0012   1433.9310   1090.2480  32.64     128437.6     2.438     2.410      5.282     137.4686  15.2783        122
 3.88   0.0092   1418.8557   1126.1411 -87.77     16224.19     2.033     1.977      5.180      137.453  17.5246        123
 4.44   0.0490   1434.6732    224.7623  43.14     3048.513     1.488     1.365      4.460     137.4997  19.3398        124
 5.82   0.0995   1415.0815   1386.3472  77.71     1499.233     1.153     0.910      4.129     137.4219  20.1103        125
 5.70   0.0962   1391.8909   1038.5494  87.37     1552.363     1.129     0.956      4.347     137.4686  20.0725        126
 3.50   0.0002   1365.8345   1159.0762   2.19     703750.1     2.779     2.730      5.518     137.4841  13.4315        127
 5.52   0.0640   1389.9965    713.2199  26.49     2332.339     1.441     1.139      4.642     137.4997  19.6305        128
 3.99   0.0194   1372.0872   1018.9006  73.62     7691.337     1.776     1.726      4.635     137.3596  18.3350        129
 4.18   0.0221   1388.3904   1428.3644  63.57     6770.338     1.780     1.678      4.963     137.5308  18.4735        130
 3.50   0.0021   1392.8549    114.4669  45.89     71919.38     2.350     2.328      5.268     137.4686  15.9079        131
 7.45   0.0256   1356.7125   1135.8651  34.68     5828.696     2.488     2.319     14.928      137.453  18.6361        132
 4.06   0.0154   1104.0939    751.8116  10.97     9692.552     1.947     1.818      5.182     137.4686  18.0839        133
 4.39   0.0241   1107.1418    428.0562  49.52     6199.284     1.759     1.625      5.148      137.453  18.5691        134
 7.11   0.0542   1307.2703   1035.9486  -5.67     2755.682     1.406     1.189      7.678      137.453  19.4494        135
 5.37   0.0565   1307.1144    669.5201   1.91     2643.114     1.465     1.247      5.106     137.4219  19.4947        136
 7.79   0.0684   1119.6740    329.5378  76.50     2182.584     1.116     0.912      6.469      137.453  19.7026        137
 3.76   0.0055   1319.6647    659.9721 -64.79     27067.62     2.234     2.113      5.234     137.5153  16.9689        138
 5.54   0.0449   1329.3555    656.0067 -89.98     3327.503     1.566     1.299      6.041     137.5619  19.2447        139
 3.50   0.0009   1298.0471    724.8810  10.30     168693.9     2.550     2.510      5.420      137.453  14.9823        140
 7.82   0.0843   1293.1099    742.1282 -46.15      1771.37     0.848     0.674      5.004     137.4374  19.9292        141
 4.56   0.0514   1265.0479    807.7001  72.72     2898.518     1.509     1.370      4.363     137.3128  19.3946        142
 5.14   0.0152   1272.2990    610.1044 -50.32     9791.067     3.036     2.119     10.005     137.4063  18.0729        143
 3.82   0.0103   1129.5450    183.6320  22.84     14503.15     2.020     1.949      5.129     137.5464  17.6463        144
 4.49   0.0282   1157.4498    236.5468  12.32     5300.493     1.723     1.649      5.286     137.4997  18.7392        145
 4.62   0.0242   1291.0820    761.7897  88.46     6176.074     1.723     1.681      5.283     137.5153  18.5732        146
 4.52   0.0401   1277.5862   1331.1212   2.89     3725.612     1.602     1.428      4.334     137.5619  19.1220        147
 4.89   0.0701   1233.9238    304.7859  23.66     2130.943     1.288     1.172      4.086     137.6086  19.7286        148
 5.06   0.0178   1209.5433   1278.6290 -84.00     8405.121     3.687     2.463     11.191     137.5619  18.2386        149
 3.50   0.0001   1221.1451    995.1828 -15.36      1093748     4.846     4.455      9.129     137.5619  12.9527        150
 7.34   0.1105   1193.8496    124.3472  27.47     1351.657     0.760     0.654      3.688     137.5153  20.2228        151
 3.50   0.0033   1164.8112   1299.7474  53.33     44806.14     2.294     2.228      5.217      137.593  16.4217        152
 6.25   0.1081   1236.6519   1553.3611 -39.11     1381.666     1.017     0.891      4.504     137.5308  20.1990        153
 4.58   0.0176   1218.5134   1194.7633 -41.25     8484.794     1.842     1.815      5.869     137.4997  18.2284        154
 3.68   0.0114   1214.2277    513.0873 -14.40     13105.56     1.992     1.907      4.985     137.4997  17.7564        155
 6.58   0.1020   1206.8467    838.7767 -10.08     1464.614     1.080     0.946      5.100     137.5619  20.1357        156
 8.08   0.0920   1203.1272   1075.8750  44.11      1621.71     0.850     0.676      5.103     137.4219  20.0251        157
 7.57   0.0842   1071.5475   1219.0000  79.56     1774.723     1.262     0.627      4.723     137.6086  19.9272        158
 7.86   0.1163   1150.9735     99.3088  84.90     1283.149     0.742     0.680      4.347     137.4686  20.2793        159
 6.38   0.1090   1201.2463    339.3479  21.75      1370.09     0.988     0.879      4.145     137.5464  20.2081        160
 3.50   0.0002   1151.3188    693.8892 -30.42     649604.8     2.827     2.778      5.628     137.4219  13.5184        161
 6.27   0.0298   1172.6172    758.2498 -83.05     5016.848     2.325     2.091     10.046     137.5464  18.7989        162
 3.63   0.0053   1138.0608    148.1607  53.01     28322.29     2.241     2.192      5.402     137.5308  16.9197        163
 3.70   0.0055   1094.6279    778.1694  56.19     26953.08     2.188     2.100      5.254     137.5464  16.9735        164
 4.96   0.0584   1088.9498    642.6968  15.79     2555.581     1.412     1.265      4.601      137.344  19.5313        165
 3.50   0.0039   1039.8876    633.0624  38.89     38301.34     2.281     2.203      5.226     137.4374  16.5920        166
 4.64   0.0190   1038.2603    525.3976  43.80     7856.503     1.796     1.748      5.556     137.6086  18.3119        167
 3.50   0.0004   1022.9846     50.2039  -5.55     421441.1     2.736     2.690      5.560     137.4686  13.9882        168
 7.00   0.1510   1001.1524   1555.1804  43.91     989.1153     0.762     0.572      3.945     137.5464  20.5619        169
 3.91   0.0100   1009.4083    813.7189  68.05     14965.37     1.966     1.965      5.200     137.4997  17.6123        170
 5.94   0.0636   1010.7754    344.7836   5.43     2348.668     1.216     1.162      5.175     137.4997  19.6229        171
