#   1 KRON_RADIUS            Kron apertures in units of A or B                         
#   2 MAGERR_APER            RMS error vector for fixed aperture mag.                   [mag]
#   3 Y_IMAGE                Object position along y                                    [pixel]
#   4 X_IMAGE                Object position along x                                    [pixel]
#   5 THETA_IMAGE            Position angle (CCW/x)                                     [deg]
#   6 FLUX_APER              Flux vector within fixed circular aperture(s)              [count]
#   7 A_IMAGE                Profile RMS along major axis                               [pixel]
#   8 B_IMAGE                Profile RMS along minor axis                               [pixel]
#   9 FLUX_RADIUS            Fraction-of-light radii                                    [pixel]
#  10 FLUXERR_APER           RMS error vector for aperture flux(es)                     [count]
#  11 MAG_APER               Fixed aperture magnitude vector                            [mag]
#  12 NUMBER                 Running object number                                     
 4.76   0.0027     53.0736     63.6999   5.51     27748.09     3.988     3.644     13.867     69.36077  16.9419          1
 4.66   0.0167     16.6918    984.9968 -88.02     4510.487     2.956     1.596      8.740     69.40009  18.9144          2
 4.55   0.0185     17.7495     91.2424 -79.59     4081.478     1.576     1.521      5.655     69.43937  19.0230          3
 3.71   0.0078     14.6941   1445.5286 -33.38     9689.141     1.861     1.820      5.321     69.39223  18.0843          4
 6.47   0.0687     24.7442    367.1736  67.11     1097.275     1.088     0.513      3.838     69.44723  20.4492          5
 3.50   0.0017     59.7851   1078.2341  63.34     44586.07     2.315     2.253      5.955     69.43937  16.4270          6
 3.50   0.0017     80.1138    537.5025  22.52     43609.44     2.275     2.216      5.769     69.35291  16.4510          7
 3.50   0.0000    182.1499   1107.1932 -21.30      1567238     4.588     4.274      8.533     69.46293  12.5622          8
 5.82   0.0426     74.8997    127.8917  41.44     1769.832     1.288     1.149      5.892     69.34505  19.9302          9
 3.50   0.0012    121.7268    788.9882 -20.11     64331.39     2.363     2.344      5.967     69.47079  16.0289         10
 5.06   0.0300     96.3947     55.8320 -19.57     2515.266     1.350     1.259      5.371     69.44723  19.5485         11
 3.50   0.0003    193.4290    317.9678 -41.29       274060     2.705     2.621      6.210     69.44723  14.4554         12
 3.50   0.0021    162.3457   1468.0752 -45.67     36323.49     2.232     2.175      5.768     69.40009  16.6495         13
 3.57   0.0091    170.2823    877.1946 -21.20     8292.186     1.992     1.867      5.430     69.43152  18.2533         14
 6.54   0.0457    170.8250    325.2957 -40.33     1649.538     0.965     0.838      5.260     69.40794  20.0066         15
 5.02   0.0030    234.6016    403.6657 -33.42     25565.27     5.167     4.116     17.913     69.47079  17.0309         16
 6.84   0.0733    192.4389   1350.2408 -25.96     1028.587     0.910     0.766      5.275     69.45508  20.5194         17
 6.98   0.0217    210.5078    826.8778  -8.98       3472.5     2.130     1.475     10.554     69.38436  19.1984         18
 5.91   0.0422    206.2398    548.8522 -12.23     1787.709     1.229     1.170      5.332     69.43937  19.9193         19
 5.27   0.0462    212.1731   1305.9985  33.21      1631.96     1.288     1.084      5.068     69.42366  20.0182         20
 8.84   0.0612    209.5003    348.5010  45.08     1229.995     0.500     0.500      3.001     69.34505  20.3252         21
 4.19   0.0399    223.6748   1225.5409  21.43     1887.689     1.361     1.283      4.557     69.40794  19.8602         22
 3.50   0.0008    259.5799    997.2325 -12.04     97879.07     2.518     2.449      6.177     69.43937  15.5733         23
 7.91   0.0256    229.2366    561.4113  -5.39     2946.368     1.962     1.282     10.342     69.44723  19.3768         24
 7.59   0.0921    222.3091    774.6770  44.27     817.9014     0.562     0.341      3.095     69.38436  20.7682         25
 3.50   0.0009    265.5647     67.4432  10.39      82001.6     2.437     2.395      5.970     69.46293  15.7654         26
 7.60   0.0478    243.6204    112.7716  16.62      1578.09     0.964     0.645      5.113     69.43937  20.0547         27
 5.19   0.0225    255.0401    612.7058 -17.92      3346.16     2.021     1.620      7.616     69.36077  19.2386         28
 3.50   0.0002    312.1774    439.1657 -13.83     335313.1     2.766     2.661      6.341     69.43937  14.2364         29
 3.63   0.0039    287.4764   1486.1249 -43.80      19487.3     2.048     2.043      5.678     69.39223  17.3256         30
 4.46   0.0178    281.9365   1522.0271  12.37     4227.659     1.606     1.534      5.414     69.43937  18.9847         31
 3.50   0.0013    318.4750    905.3110 -23.49     56165.68     2.384     2.325      5.947     69.36864  16.1763         32
 3.72   0.0053    302.8204    201.5913 -11.79     14154.48     2.036     1.963      5.670     69.40794  17.6728         33
 6.43   0.0455    289.4337    514.9032  21.77     1656.731     1.280     1.109      6.032      69.3765  20.0019         34
 4.69   0.0419    293.8911   1327.2559  -8.13     1798.115     1.331     1.133      4.664     69.39223  19.9130         35
 3.50   0.0003    351.2150    890.6105 -20.64     296337.8     2.679     2.619      6.292      69.4158  14.3705         36
 3.50   0.0003    351.3136   1345.6615 -16.35     285782.6     2.678     2.609      6.261     69.39223  14.4099         37
 3.50   0.0080    321.7043    697.1205  -1.34     9394.043     1.980     1.792      5.198     69.36864  18.1179         38
 6.73   0.0421    327.1209    595.3190  77.27     1790.599     1.190     1.017      6.366     69.39223  19.9175         39
 4.94   0.0117    346.1332    866.8626  -2.58     6455.603     1.804     1.786      6.687     69.40009  18.5252         40
 4.66   0.0146    355.4992    431.5913 -85.48     5177.338     1.980     1.746      6.603     69.40009  18.7647         41
 3.92   0.0076    367.8107    760.9424 -23.24     9871.581     1.949     1.894      5.726     69.46293  18.0640         42
 7.95   0.0797    349.6844     54.8306 -29.57     945.6324     0.861     0.613      4.890     69.43152  20.6107         43
 4.89   0.0440    360.8478   1500.0731  49.68     1714.755     1.286     1.166      5.018     69.40009  19.9645         44
 3.99   0.0195    367.0157    442.6554  -4.74     3861.308     1.629     1.481      5.241     69.45508  19.0832         45
 3.50   0.0016    394.8368    231.2965  41.81        47751     2.343     2.277      5.980     69.36864  16.3525         46
 3.90   0.0116    396.8571   1460.8850  14.04     6491.087     1.841     1.731      5.463     69.38436  18.5192         47
 3.60   0.0096    397.8311    354.3651  44.80     7831.128     1.883     1.750      5.275     69.43937  18.3154         48
 3.50   0.0017    419.2020    433.1641  22.31     43432.74     2.328     2.295      5.919     69.42366  16.4555         49
 5.36   0.0468    393.6920   1088.5493  89.56     1609.342     1.201     1.013      4.767     69.40009  20.0334         50
 3.50   0.0036    415.3564    837.2811   8.63     21026.07     2.140     2.089      5.640     69.40009  17.2431         51
 4.35   0.0200    424.0066    926.2327 -43.07     3765.694     1.595     1.518      5.491     69.43937  19.1104         52
 3.57   0.0049    437.5113    251.9212  10.66     15369.22     2.048     2.002      5.614     69.38436  17.5834         53
 3.50   0.0006    460.6612    807.4064  -9.60     134967.4     2.537     2.441      6.130     69.47864  15.2244         54
 7.43   0.0760    420.7388    160.2448 -19.02     991.8991     0.875     0.354      3.491     69.43152  20.5588         55
 5.16   0.0634    432.4912   1422.0449  46.46     1188.643     1.374     1.035      5.188     69.38436  20.3624         56
 4.26   0.0151    449.7295     21.2905 -30.46     5005.104     1.732     1.698      5.717     69.38436  18.8015         57
 7.75   0.1414    440.0000    306.0034   0.00     533.1353     0.851     0.289      3.025     69.43152  21.2329         58
 4.30   0.0131    457.3224     34.5136  41.77     5750.996     1.728     1.708      5.694     69.36864  18.6506         59
 6.50   0.0809    444.0941    122.7514 -35.96       930.91     1.097     0.521      4.127      69.3765  20.6277         60
 6.49   0.0190    467.3463    850.1621  24.15     3964.583     4.170     1.534     16.099     69.43152  19.0545         61
 6.06   0.0421    463.3726    468.1671  79.66     1790.285     1.361     1.210      6.198     69.43937  19.9177         62
 5.00   0.0348    471.6059    735.0529 -58.33     2169.304     1.408     1.302      5.322     69.49433  19.7092         63
 5.16   0.0471    470.9095    254.1994  49.02     1599.732     1.312     1.019      4.911     69.40794  20.0399         64
 5.12   0.0270    477.5139    922.9161  -6.91     2792.651     1.588     1.406      5.669     69.38436  19.4350         65
 6.22   0.0741    477.5089   1276.5143 -73.41      1016.91     1.022     0.733      4.739     69.36864  20.5318         66
 6.30   0.0686    483.7006   1070.2640  14.36     1098.629     1.125     0.992      4.917     69.40009  20.4479         67
 7.68   0.0402    495.1989     82.1739  72.36     1876.893     1.283     0.950      7.374     69.42366  19.8664         68
 8.53   0.0467    494.4341   1189.1519  78.86     1615.221     0.889     0.613      5.333     69.44723  20.0294         69
 3.77   0.0065    512.1891   1302.6895   2.77     11597.16     2.605     1.838      6.450     69.42366  17.8891         70
 5.35   0.0054    532.4780    518.7072  42.64     13947.97     3.332     2.704     12.544     69.39223  17.6887         71
 6.37   0.1162    501.2008    863.6277 -73.06      648.689     0.729     0.454      3.454      69.4158  21.0199         72
 6.88   0.0320    514.8291   1460.6050  23.71     2357.933     2.174     1.173     10.345     69.43937  19.6187         73
 9.16   0.1187    513.5114   1178.5463 -51.67     635.0296     0.503     0.494      3.019     69.39223  21.0430         74
 4.72   0.0480    539.8799    999.7950  63.00     1571.303     1.209     1.168      4.583     69.42366  20.0593         75
 3.50   0.0002    587.6208   1315.8385  12.88     308428.6     2.657     2.602      6.216     69.44723  14.3271         76
 5.39   0.0347    558.6192   1041.6226 -49.65     2171.775     1.473     1.301      5.559     69.44723  19.7080         77
 4.09   0.0112    572.2031   1242.7196  38.49     6734.423     1.751     1.723      5.570     69.43937  18.4792         78
 3.96   0.0082    580.0729    144.9288  70.17     9231.168     1.890     1.825      5.652     69.36864  18.1369         79
 3.50   0.0001    630.7131    483.2363  13.54     545945.4     2.827     2.779      6.437     69.42366  13.7071         80
 4.16   0.0081    581.5784    319.2341  61.20     9322.858     1.927     1.876      5.912     69.44723  18.1261         81
 6.89   0.0462    570.7512     45.9504  48.62     1632.183     1.416     1.002      6.891     69.46293  20.0181         82
 6.29   0.0562    573.8788   1337.0791 -66.01     1341.515     1.088     0.942      5.313     69.40009  20.2310         83
 9.08   0.0583    570.5884   1447.2085 -20.04     1293.788     0.773     0.441      4.356     69.40009  20.2703         84
 6.23   0.0171    596.4893    782.4854  81.04     4394.005     2.181     1.973     10.100     69.38436  18.9428         85
 6.19   0.0779   1001.0735   1555.3445  15.77      967.358     1.037     0.745      4.314     69.39223  20.5860         86
 8.06   0.0875    928.0015   1322.3193 -89.58     861.9034     0.751     0.672      4.505     69.43937  20.7114         87
 7.50   0.1205    912.4890    838.6716 -89.47     625.3248     0.940     0.470      3.985     69.39223  21.0597         88
 4.02   0.0122    899.8826    302.7993  34.45     6156.441     1.810     1.755      5.593     69.43152  18.5767         89
 3.50   0.0001    881.5768    183.9508 -13.91     981649.6     2.956     2.893      6.595     69.46293  13.0701         90
 6.18   0.0522    896.3508    538.8231 -43.55     1445.404     1.212     0.849      5.649     69.46293  20.1500         91
 3.50   0.0007    880.0118   1592.4092  59.51     107703.6     2.485     2.419      6.037     69.40009  15.4694         92
 6.68   0.0196    879.3483    224.1944  85.96     3843.356     4.026     1.518     14.469     69.47864  19.0882         93
 5.78   0.0323    869.0080   1103.1798 -34.02     2335.498     1.486     1.474      6.850      69.4158  19.6291         94
 3.50   0.0003    858.9609   1224.4232  23.63       276068     2.690     2.654      6.295     69.44723  14.4475         95
 8.57   0.0792    877.2705   1176.7744 -72.54     952.0555     0.835     0.351      3.960     69.43937  20.6033         96
 7.91   0.1203    859.0000   1156.5350   0.00     627.1835     1.161     0.289      3.279     69.47864  21.0565         97
 7.26   0.0833    843.1048   1106.8746 -75.24     904.3705     0.978     0.710      4.996     69.38436  20.6591         98
 7.07   0.0419    837.5580   1247.4752   2.17     1799.063     1.388     1.075      6.696      69.4158  19.9124         99
 6.16   0.0528    836.2336    298.4433 -87.05     1428.671     1.215     1.019      5.619     69.46293  20.1627        100
 3.78   0.0120    822.4514    654.3923  62.24     6303.042     1.906     1.701      5.414     69.47079  18.5511        101
 4.40   0.0136    802.7780   1378.5226 -60.86     5562.267     1.725     1.703      5.445     69.43937  18.6869        102
 3.81   0.0046    798.0674    695.6057  88.39     16254.18     2.555     2.010      6.379     69.47079  17.5226        103
 4.84   0.0274    799.9536     41.0705  76.53     2749.603     1.478     1.354      5.772      69.4158  19.4518        104
 6.63   0.0358    774.1362   1427.0630 -85.17     2105.503     1.892     1.255      8.713     69.40794  19.7416        105
 5.64   0.0512    766.1399    391.8227  50.41     1473.023     1.264     1.061      5.425     69.45508  20.1295        106
 5.48   0.0556    742.3915    556.7040  78.10     1356.019     1.277     1.149      5.014      69.4158  20.2193        107
 3.50   0.0002    723.6109    404.8487  -7.98     374650.2     2.737     2.702      6.404     69.46293  14.1159        108
 3.50   0.0012    726.2004    848.3845   5.24     64339.81     2.389     2.348      5.994      69.4158  16.0288        109
 5.99   0.0777    726.7936   1178.3159  -8.79     970.0133     0.905     0.765      4.461     69.42366  20.5831        110
 5.37   0.0605    715.3687    808.1308 -14.17     1247.334     1.204     0.957      4.341     69.43152  20.3100        111
 5.12   0.0624    708.2617   1163.7617  76.32     1207.698     1.319     1.038      5.046     69.43152  20.3451        112
 7.48   0.0505    703.4436   1338.5859  50.36     1494.147     1.193     0.802      6.214     69.43937  20.1140        113
 4.41   0.0348    702.1777    952.2957 -57.06     2167.162     1.516     1.368      5.019      69.4158  19.7103        114
 5.73   0.0358    685.3104    644.2101 -60.68      2107.47     1.360     1.290      5.756     69.42366  19.7406        115
 7.44   0.0398    680.8766    543.4276 -43.60     1892.356     1.427     0.901      6.697     69.42366  19.8575        116
 3.50   0.0012    648.0181   1464.2283  13.82     64044.33     2.374     2.349      5.964     69.43152  16.0338        117
 5.22   0.0548   1569.9100     92.4346 -54.30     1375.511     1.158     1.035      4.637     69.40009  20.2038        118
 4.14   0.0075    639.2830    536.7927  -3.16     10027.56     1.966     1.893      5.841     69.42366  18.0470        119
 5.14   0.0787    623.0889   1581.3657 -33.27     957.5458     1.048     0.838      3.945      69.4158  20.5971        120
 6.30   0.0675    604.9369    586.3323 -13.78     1115.795     1.013     0.756      4.661     69.40009  20.4310        121
 4.60   0.0682   1584.5095   1108.9586   4.37     1105.338     1.145     0.966      4.260     69.40009  20.4413        122
 5.20   0.0318   1542.0271    654.5812 -83.10     2370.195     1.471     1.249      5.450     69.43937  19.6130        123
 3.50   0.0013   1563.1943    304.0779  33.95     56096.12     2.267     2.215      5.814     69.43152  16.1777        124
 4.98   0.0397   1565.9387     21.8800  79.20     1899.128     1.343     1.153      5.111     69.38436  19.8536        125
 5.93   0.0781   1560.3761    861.1697 -67.44     965.0444     0.918     0.685      4.026      69.4158  20.5886        126
 3.50   0.0014   1557.4879    487.5964 -65.71     55805.65     2.294     2.287      5.920      69.4158  16.1833        127
 7.68   0.0622   1565.7225    784.5153 -18.36     1210.814     1.194     0.861      5.524     69.38436  20.3423        128
 3.59   0.0053    929.3309   1178.3392  65.57     14350.02     2.089     2.039      5.620     69.40009  17.6579        129
 4.54   0.0047   1552.2527    682.1414 -13.12     16165.41     3.556     3.280     11.417      69.4158  17.5285        130
 4.19   0.0235   1541.2693    135.0337  18.48     3213.131     1.541     1.467      4.950     69.43937  19.2827        131
 6.05   0.0996   1503.8435    723.1686 -42.66     757.4917     0.761     0.566      3.505     69.46293  20.8516        132
 3.50   0.0025   1506.6525    269.2638   7.18     30204.31     2.182     2.111      5.679     69.40794  16.8498        133
 8.47   0.0532    986.5678    453.7992  -8.77     1417.785     1.032     0.475      4.943     69.43152  20.1710        134
 4.00   0.0101   1514.2882    392.6559 -58.37     7441.262     1.812     1.777      5.510     69.39223  18.3709        135
 5.03   0.0437    938.8495   1066.8735 -33.34     1724.769     1.334     1.209      5.104     69.38436  19.9582        136
 7.70   0.1169    999.8006   1273.5909  70.88     644.9311     0.762     0.448      3.464     69.40009  21.0262        137
 3.61   0.0027    984.3760    558.4080  38.30     27845.47     2.251     2.207      5.976     69.43152  16.9381        138
 7.90   0.0434   1029.7847    302.2120  10.78     1737.844     1.134     1.000      6.806     69.42366  19.9500        139
 3.58   0.0026   1094.6384    778.1648  69.19     28668.36     2.275     2.184      5.882     69.44723  16.9065        140
 3.53   0.0024   1079.4926    512.2214  54.14     31500.33     2.274     2.244      5.902     69.40794  16.8042        141
 4.19   0.0114   1107.0248    428.0919  60.25     6641.046     1.941     1.743      5.768     69.40794  18.4944        142
 3.80   0.0075   1104.1162    751.8383  -5.00       9998.8     2.060     1.964      5.753     69.42366  18.0501        143
 6.96   0.0380   1119.7220    329.5727  63.96     1983.763     1.765     1.199      7.865     69.42366  19.8063        144
 5.06   0.0324   1407.5315    308.2361 -44.22     2325.163     1.439     1.279      5.436     69.43937  19.6339        145
 8.97   0.0664   1109.7917    478.5934  71.14     1134.729     0.771     0.447      4.623      69.4158  20.4128        146
 4.15   0.0230   1434.7892    224.7439  46.04     3276.769     1.583     1.494      5.129     69.46293  19.2614        147
 3.50   0.0006   1433.9342   1090.2458  30.52     136662.6     2.488     2.469      6.091     69.42366  15.2109        148
 6.44   0.0125   1356.6797   1135.6938  36.20     6008.339     3.580     2.833     16.608      69.3765  18.6031        149
 3.71   0.0044   1418.8335   1126.1434  84.99     17250.38     2.156     2.041      5.826     69.44723  17.4580        150
 4.17   0.0316   1439.2010    619.2320   9.88      2382.53     1.402     1.321      4.737     69.42366  19.6074        151
 3.92   0.0091   1372.0837   1018.8958  -9.03     8235.561     1.852     1.822      5.547     69.34505  18.2608        152
 5.32   0.0532   1414.9160   1386.2550  60.07     1415.877     1.344     1.047      4.712     69.39223  20.1724        153
 4.03   0.0502   1391.7971   1038.7439  67.47     1503.485     1.304     1.098      4.195     69.48649  20.1073        154
 3.50   0.0010   1392.8529    114.4571  71.21     76093.17     2.415     2.367      6.023      69.4158  15.8466        155
 8.52   0.0788   1399.6058   1031.2242 -17.40     957.2691     0.766     0.452      4.510     69.43937  20.5974        156
 7.13   0.0197   1365.9126   1134.3555  45.43     3828.584     1.911     1.722     11.466     69.40009  19.0924        157
 5.01   0.0312   1389.8397    713.2199  22.47     2415.919     1.507     1.263      5.438     69.45508  19.5923        158
 3.50   0.0001   1365.8357   1159.0712   2.32     748391.1     2.848     2.781      6.409     69.43937  13.3647        159
 4.01   0.0109   1388.3790   1428.3553  73.36     6942.375     1.895     1.769      5.460     69.44723  18.4462        160
 6.78   0.1024   1332.1637    107.1231 -44.81     736.1026     0.822     0.689      4.267      69.4158  20.8827        161
 7.61   0.0899   1292.9835    412.4896 -88.70     839.2993     0.796     0.500      4.105     69.43937  20.7402        162
 6.76   0.0424   1293.0438    742.0370 -32.95     1777.705     1.201     1.102      7.207     69.46293  19.9254        163
 6.59   0.0331   1307.5371   1035.8656 -22.46     2279.163     1.860     1.418      7.442     69.39223  19.6556        164
 8.86   0.1059   1304.5039    892.5345  49.53     711.8412     0.503     0.496      3.019     69.40794  20.9190        165
 3.61   0.0026   1319.6693    659.9656 -32.93      28645.1     2.227     2.193      5.821     69.43937  16.9074        166
 3.50   0.0004   1298.0555    724.8812   8.01     179442.8     2.619     2.570      6.197     69.39223  14.9152        167
 4.75   0.0168   1329.2986    656.0548 -75.48     4476.378     1.896     1.538      6.629     69.36864  18.9227        168
 8.95   0.1766   1318.5270    264.4885  41.74     426.7175     0.502     0.497      3.013      69.3765  21.4746        169
 4.80   0.0073   1272.3201    610.1558 -47.01     10262.88     3.322     2.306      9.990     69.40009  18.0218        170
 5.32   0.0270   1307.1979    669.4045 -23.51     2790.776     1.607     1.459      6.685      69.4158  19.4357        171
 9.25   0.0616   1259.4890    431.9816  32.19     1224.185     0.794     0.314      3.852     69.42366  20.3304        172
 6.29   0.0590   1150.6633     99.5792  44.92     1278.881     1.036     0.885      4.707     69.45508  20.2829        173
 4.38   0.0117   1291.0667    761.9180 -41.16     6453.115     1.919     1.769      5.894     69.38436  18.5256        174
 4.25   0.0254   1264.9709    807.7477  59.90     2968.089     1.599     1.494      5.185     69.45508  19.3688        175
 3.53   0.0025   1138.0643    148.1477  46.91     29669.29     2.327     2.282      5.925     69.40794  16.8692        176
 4.22   0.0194   1277.7104   1331.2352  22.97     3887.111     1.680     1.563      5.209     69.40009  19.0759        177
 4.36   0.0283   1233.8513    304.6225  36.17     2663.102     1.449     1.298      4.858     69.46293  19.4865        178
 4.43   0.0086   1209.7117   1278.6561 -85.99     8729.776     4.261     2.740     11.696     69.39223  18.1975        179
 3.50   0.0001   1151.3195    693.8876 -36.88     688959.6     2.880     2.833      6.465     69.38436  13.4545        180
 8.61   0.0914   1242.6707    672.6620 -44.63     824.5619     0.578     0.333      3.272     69.40009  20.7594        181
 3.50   0.0000   1221.1533    995.1743 -17.12      1603795     4.964     4.589      9.172     69.46293  12.5371        182
 3.54   0.0053   1214.2229    513.0850 -16.99     14130.29     2.066     1.985      5.627     69.42366  17.6746        183
 4.34   0.0085   1218.5485   1194.7737  -3.77     8833.039     1.975     1.919      6.048     69.45508  18.1847        184
 5.37   0.0140   1172.4696    758.3431 -47.89     5369.433     2.674     2.414      9.655     69.40009  18.7252        185
 5.51   0.0513   1201.3074    339.3050  -1.91      1469.19     1.244     1.068      5.302     69.36077  20.1323        186
 6.13   0.0468   1206.9932    838.8481   0.27     1612.588     1.198     1.079      5.173     69.46293  20.0312        187
 5.88   0.0509   1236.7904   1553.1959  35.68     1480.952     1.209     1.061      5.324     69.40794  20.1236        188
 6.70   0.0451   1071.7524   1219.0967  83.74     1670.202     1.523     1.196      6.583     69.34505  19.9931        189
 7.04   0.0509   1203.0830   1076.0216 -22.86     1482.821     1.241     1.145      6.624     69.43937  20.1223        190
 3.60   0.0049   1129.5677    183.6499  83.13     15418.73     2.121     2.085      5.734     69.45508  17.5799        191
 7.03   0.0448   1193.9590    124.2465  -9.73     1685.021     1.215     1.051      6.617     69.45508  19.9835        192
 4.46   0.0139   1157.3230    236.5551  70.05     5412.669     1.814     1.725      5.853     69.40794  18.7165        193
 3.50   0.0016   1164.8165   1299.7317  53.73      47872.4     2.368     2.291      5.896     69.45508  16.3498        194
 8.19   0.1331   1129.4969    219.9676  32.24      565.913     0.794     0.314      3.515      69.3765  21.1681        195
 4.99   0.0265   1088.8848    642.5204  47.95     2839.939     1.595     1.454      5.897     69.38436  19.4167        196
 4.10   0.0083   1081.3861   1148.1320  76.39     9095.455     1.998     1.870      5.852     69.47079  18.1529        197
 3.50   0.0019   1039.8916    633.0511  39.10     40287.95     2.365     2.271      5.924     69.40794  16.5371        198
 4.43   0.0092   1038.2446    525.3903  64.29     8226.516     1.943     1.864      5.969     69.44723  18.2620        199
 3.50   0.0002   1022.9890     50.2034 -11.81     442680.8     2.772     2.735      6.459     69.40794  13.9348        200
 3.76   0.0048   1009.4022    813.7109 -80.04      15598.1     2.081     2.026      5.786      69.4158  17.5673        201
 3.72   0.0041   1025.4417   1379.8547  69.55     18354.29     2.148     2.070      5.841     69.42366  17.3907        202
 5.41   0.0308   1010.7049    344.8102  -2.32     2445.761     1.423     1.369      5.576     69.40794  19.5790        203
 5.80   0.0276   1000.9542    542.7289 -56.96     2728.549     1.450     1.365      6.313      69.4158  19.4602        204
