#   1 KRON_RADIUS            Kron apertures in units of A or B                         
#   2 Y_IMAGE                Object position along y                                    [pixel]
#   3 MAG_BEST               Best of MAG_AUTO and MAG_ISOCOR                            [mag]
#   4 FLUX_BEST              Best of FLUX_AUTO and FLUX_ISOCOR                          [count]
#   5 X_IMAGE                Object position along x                                    [pixel]
#   6 THETA_IMAGE            Position angle (CCW/x)                                     [deg]
#   7 A_IMAGE                Profile RMS along major axis                               [pixel]
#   8 B_IMAGE                Profile RMS along minor axis                               [pixel]
#   9 MAGERR_BEST            RMS error for MAG_BEST                                     [mag]
#  10 NUMBER                 Running object number                                     
#  11 FLUXERR_BEST           RMS error for BEST flux                                    [count]
 3.50     30.1164  17.8923     11614.35    657.0477  73.64     1.724     1.669   0.0068          1     72.71211
 4.18     14.7657  18.1513      9149.43    661.1644 -73.80     3.278     2.949   0.0188          2     158.3234
 3.50     20.6302  15.6920      88125.7    837.4538 -18.43     1.968     1.874   0.0010          3     82.44778
 4.45     12.4910  19.8926     1840.284   1653.3259  10.54     1.509     1.350   0.0455          4     77.12284
 5.10     10.4390  20.6069      953.089   1721.7688  61.26     1.464     1.410   0.1009          5     88.52211
 5.32      6.1348  21.3727     470.7905   1801.2411   6.15     1.098     0.917   0.1520          6     65.90095
 6.82      3.4211  21.8971     290.4613    478.2751  57.56     0.955     0.547   0.2006          7     53.66148
 3.96      2.5429  21.4229      449.536   1942.3970  36.00     1.063     0.900   0.1050          8      43.4538
 6.27      3.2975  21.9759     270.1156   1695.1222 -27.07     0.858     0.605   0.2104          9      52.3253
 6.86      3.5096  22.0191     259.5739    567.0191  -3.13     0.776     0.499   0.2112         10     50.48875
 6.57     22.1657  21.3331     488.2999   1171.0249  18.75     1.287     0.869   0.1884         11     84.70705
 3.50     26.7447  21.6117     377.7833    780.9230  29.09     1.187     0.857   0.1233         12     42.90718
 3.50     36.8438  21.4764     427.9142    596.0016 -40.07     1.318     0.958   0.1208         13     47.60125
 3.50     39.2936  20.6919      881.395    404.6731  20.12     1.265     1.121   0.0634         14     51.41523
 5.80     33.9998  21.6664     359.2115   1584.7249 -13.29     1.468     0.557   0.1926         15     63.71577
 3.50     85.8547  16.1361     58541.63   1269.9762 -32.46     1.911     1.891   0.0015         16     81.58443
 7.32     51.6162  22.7753     129.3541    845.2280 -17.91     0.768     0.447   0.4393         17      52.3253
 4.10     58.2227  22.4616     172.6917   1402.5680 -69.38     0.750     0.448   0.1833         18     29.14969
 5.63     60.9814  21.5890     385.7476    649.4369   5.00     1.024     0.777   0.1730         19     61.45295
 3.50     74.4120  20.6602     907.4559     71.5008  58.09     1.279     1.234   0.0632         20     52.77445
 6.50     70.1390  21.8074     315.4662     64.1719 -45.43     0.831     0.660   0.2007         21     58.29939
 4.39     77.2234  21.1418     582.3693   1290.6321 -78.63     1.244     1.003   0.1110         22     59.50156
 5.26     76.9517  21.2797     512.8978   1001.5175  64.15     1.291     0.939   0.1476         23     69.72947
 6.68     71.8037  22.1075     239.2755    652.4154 -70.53     0.763     0.448   0.2183         24     48.09454
 3.77     82.6870  20.6746     895.5339    133.9682  31.72     1.507     1.137   0.0736         25     60.67992
 3.50     79.9842  21.2385     532.7295   1473.5616  31.92     1.548     1.032   0.1112         26     54.53408
 4.78     96.4296  19.3333     3080.418    772.3903 -80.16     2.120     1.936   0.0414         27     117.4057
 3.50     94.5454  19.7029     2191.624    251.7277 -26.42     1.899     1.702   0.0379         28      76.5083
 4.61     92.5731  20.9931     667.8483    948.5580  51.62     1.430     1.148   0.1177         29     72.38677
 3.50     96.4131  19.7360     2125.722    271.4473  33.63     1.493     1.361   0.0312         30     61.06766
 8.98     87.4975  22.2066     218.4159   2037.4921 -45.40     0.502     0.498   0.2646         31     53.21981
 4.05    108.9810  19.6192      2367.08   1127.0879   6.96     1.441     1.405   0.0320         32     69.72947
 3.50    116.6449  20.0662     1568.241    242.1315  69.61     2.145     1.787   0.0581         33     83.86695
 4.59    105.4231  21.1189     594.7469   1288.2830 -11.92     1.213     0.972   0.1108         34     60.67992
 5.82    103.0334  22.5291     162.2878    657.9792  84.03     0.615     0.610   0.2834         35     42.35352
 6.67    102.9928  21.6414     367.5714    570.9848  49.96     0.804     0.762   0.1915         36     64.81757
 5.82    108.8997  21.5963     383.1583   1649.9435  81.22     1.146     0.730   0.1878         37     66.25813
 4.67    110.5352  20.8533     759.6328    311.4669   3.46     1.650     1.055   0.1080         38     75.57713
 4.01    105.2929  22.9976     105.4048    441.3784 -41.39     0.577     0.331   0.2452         39     23.80062
 7.31    109.1258  21.6282     372.0851    972.8634  45.65     0.824     0.668   0.1955         40      66.9668
 4.86    119.3548  21.4654     432.2726    838.3733 -79.67     1.267     0.899   0.1573         41     62.59459
 4.94    120.3068  20.7454     838.9603   2000.0966  -2.21     1.831     1.086   0.1086         42     83.86695
 4.97    124.2795  20.8908     733.8123   1180.5775  39.60     1.506     1.117   0.1159         43     78.33745
 3.50    130.7124  19.8246     1959.259   1288.7102  20.00     1.481     1.379   0.0334         44      60.2897
 6.83    119.4008  22.2316     213.4421   1215.8219 -18.46     0.732     0.455   0.2397         45     47.10279
 3.50    158.3168  16.1944      55481.7   1976.2317   9.85     2.401     1.944   0.0018         46     92.69012
 7.63    129.5671  21.2406     531.7189   1916.5909 -49.59     1.153     0.668   0.1666         47     81.58443
 6.66    127.8242  22.4173     179.8805     63.7818  49.04     0.758     0.564   0.3240         48     53.66148
 3.50    165.6276  16.2877     50911.91   1461.8472 -22.42     1.929     1.892   0.0017         49     81.00375
 4.25    139.7430  20.1214     1490.615   1304.9430 -29.87     1.343     1.290   0.0498         50     68.36209
 5.92    137.6151  20.8571     756.9406   1966.9725 -54.24     1.321     1.288   0.1359         51     94.70535
 4.65    134.1930  22.3668     188.4401     20.3309 -77.12     1.106     0.411   0.2169         52     37.63209
 6.90    146.3166  21.3877     464.3478    986.2656 -82.02     1.187     0.719   0.1832         53     78.33745
 7.55    141.8608  21.0769     618.2355   1535.4261  18.99     1.258     0.713   0.1531         54     87.17876
 5.41    150.0241  21.0609     627.4093    360.2078 -89.79     1.370     1.172   0.1447         55     83.58504
 5.88    151.2527  21.1340     586.5728     67.5159  35.17     1.396     0.915   0.1494         56     80.71185
 4.52    154.2880  20.0767      1553.25    580.5296   0.53     1.459     1.214   0.0513         57     73.35845
 7.50    149.7461  22.2396     211.8652   1893.7662  72.00     0.846     0.350   0.2540         58     49.54495
 6.21    150.7870  22.5128     164.7325   1522.4130 -70.51     0.772     0.445   0.2900         59     43.99361
 8.84    152.7524  21.6747     356.4833     17.5781  70.54     0.752     0.451   0.1895         60     62.21637
 4.32    172.4573  19.9041     1820.816   1337.5020  30.61     3.121     1.353   0.0647         61      108.417
 5.47    160.9331  21.3556     478.2567    661.2181   8.43     1.295     0.938   0.1666         62     73.35845
 5.96    157.5224  22.6840     140.7004   1246.4838  44.85     0.522     0.476   0.2806         63     36.35606
 5.85    169.0938  21.0227     649.8591    659.8331 -69.07     1.132     1.036   0.1289         64     77.12284
 5.39    169.9537  21.2123     545.7574    958.2466 -25.39     1.165     0.952   0.1394         65     70.06714
 4.61    173.3420  21.4121     454.0267    715.0145 -73.92     1.580     0.956   0.1643         66     68.70648
 3.50    173.1398  20.8839     738.4915    431.3717  57.67     1.338     1.270   0.0827         67     56.23868
 3.91    183.0281  19.5117     2613.468   1134.8331 -81.50     1.584     1.535   0.0310         68     74.63435
 3.50    176.3581  21.2132     545.2834    260.0934 -89.79     1.318     1.135   0.1033         69     51.87226
 4.40    185.9651  19.7099     2177.524   1444.7770 -80.31     1.870     1.499   0.0448         70     89.84539
 3.50    225.8214  14.6576       228501   1391.9797 -31.00     2.076     2.018   0.0004         71     87.44908
 7.05    178.4478  21.7166     342.9865   1544.3652  84.63     0.992     0.633   0.2154         72     68.01595
 5.32    186.6141  20.5595     995.6309   1046.6633 -46.16     1.310     1.246   0.0902         73     82.73357
 4.15    184.2463  21.3033     501.8872     55.9127 -16.26     1.283     1.081   0.1305         74      60.2897
 5.48    180.2119  21.9510     276.3827   1694.4958   0.98     0.981     0.723   0.2210         75     56.23868
 7.97    180.2352  21.9703     271.5088    794.7919 -18.02     0.867     0.345   0.2146         76     53.66148
 6.81    189.5328  22.5280     162.4462    773.5096 -43.97     0.513     0.486   0.2598         77     38.86626
 7.29    197.7422  21.1220      593.088   1160.1317 -47.53     1.550     0.646   0.1636         78     89.31843
 5.63    203.5404  20.8685     749.0242   1409.7397 -85.04     1.412     1.227   0.1314         79     90.63008
 5.67    226.7756  19.8081     1989.107   1651.0963 -57.42     3.330     1.323   0.0791         80     144.9365
 3.63    213.3405  19.7339     2129.923   1742.2407 -62.89     1.417     1.367   0.0315         81     61.83583
 6.81    205.9597  21.0978     606.4199   1978.4481 -85.80     1.165     0.922   0.1527         82      85.2625
 3.64    206.2904  21.2552     524.5907    280.5000 -20.73     1.303     1.142   0.1129         83     54.53408
 8.76    199.4880  22.2068     218.3608   1333.4835  46.14     0.501     0.498   0.2647         84     53.21981
 4.05    203.1218  22.5901     153.4121   1355.4971 -88.97     0.717     0.500   0.2063         85     29.14969
 7.59    202.8714  21.6401     368.0233    944.3311  29.64     0.773     0.657   0.1945         86     65.90095
 5.67    206.5332  21.2764     514.4814   1764.7341 -30.08     1.147     0.975   0.1548         87     73.35845
 6.66    204.0677  21.9652     272.7856   2043.0558  45.76     0.923     0.530   0.2188         88     54.96519
 5.43    210.1978  21.3081     499.6415    162.1348 -68.72     1.176     0.803   0.1401         89     64.45239
 3.50    238.9135  16.7964     31868.02   1916.0420  54.74     1.829     1.783   0.0026         90     77.42828
 6.39    220.1382  21.5741     391.0715    451.0806 -81.82     1.505     0.634   0.2150         91     77.42828
 6.37    222.4314  21.3793      467.963    970.7880 -59.15     1.005     0.806   0.1642         92     70.73766
 4.87    234.9033  21.0587     628.6964    697.9222 -75.19     1.420     0.989   0.1199         93     69.39015
 6.88    225.7760  22.3838     185.5125   1615.3931 -72.57     0.754     0.454   0.2844         94     48.58282
 7.30    226.0213  21.1926     555.7388    961.8195   7.19     0.935     0.763   0.1465         95     74.94993
 6.47    226.7995  22.4698     171.3867    676.6063  71.03     0.766     0.445   0.2855         96     45.05386
 5.51    236.5676  20.7209      858.125   1333.7733 -30.66     1.270     1.197   0.1054         97     83.30219
 4.62    231.4575  21.9862     267.5698    472.3334  85.61     1.051     0.640   0.1912         98     47.10279
 3.50    272.8190  15.7555     83122.86   1791.5062  12.69     1.998     1.950   0.0011         99     84.42794
 5.23    238.4249  20.6875     884.9061   1786.9636  22.56     1.618     1.137   0.1060        100     86.36271
 7.26    238.6721  20.4357     1115.893   1185.5620  -3.63     1.873     1.089   0.1229        101     126.3153
 5.57    238.9028  21.3698     472.0753    724.0305   5.14     1.110     0.931   0.1596        102     69.39015
 8.21    243.8862  21.1500     577.9773   1318.6328 -19.82     0.964     0.673   0.1506        103     80.12484
 3.66    234.9470  22.6230     148.8391     67.2316  87.31     0.663     0.421   0.1808        104     24.77248
 4.62    248.1083  20.9433     699.2047     66.0397  29.50     2.154     1.118   0.1350        105     86.90759
 7.03    243.7088  21.2834     511.1317   1173.2386 -68.59     1.006     0.875   0.1702        106     80.12484
 5.89    246.8216  21.8475     304.0388   1517.1223  43.61     0.816     0.680   0.1917        107     53.66148
 8.14    244.3388  22.3162     197.4423   1597.3138 -46.17     0.571     0.337   0.2449        108     44.52689
 5.99    244.6735  22.9219     113.0145      4.3211  45.26     0.569     0.338   0.3026        109     31.48527
 7.04    255.3616  20.5992     959.8967    241.5711 -89.87     1.360     1.102   0.1197        110     105.7723
 4.75    261.0949  20.0955     1526.526   1766.4785  79.82     1.375     1.281   0.0549        111     77.12284
 7.61    251.0366  22.1096     238.8284    852.0000  90.00     0.849     0.289   0.2096        112     46.08971
 7.86    253.8339  21.8108     314.4896    947.3411  20.92     0.739     0.641   0.2276        113     65.90095
 5.83    254.1414  22.0624     249.4375    506.9341  41.18     0.857     0.666   0.2374        114     54.53408
 6.93    259.5561  21.5681     393.2681   1742.8967 -80.43     1.197     0.721   0.2172        115     78.63817
 5.93    273.9989  22.0834     244.6506    459.0115 -46.04     0.877     0.539   0.2262        116     50.95409
 3.50    293.8185  18.3766     7434.942   1943.3281  23.91     1.687     1.577   0.0102        117     70.06714
 3.50    290.8177  20.8581     756.2297    709.2502 -45.90     1.405     1.243   0.0814        118     56.65682
 3.59    298.8077  18.7874     5092.832   1460.3346 -80.84     1.606     1.559   0.0146        119     68.36209
 3.50    298.8064  20.1639       1433.4   1756.3074 -13.53     1.458     1.391   0.0460        120     60.67992
 5.00    294.7017  20.7981     799.2576   1995.5612 -16.66     1.478     1.374   0.1177        121     86.63558
 5.13    286.8722  22.2492     210.0007   1505.1132  49.53     0.833     0.653   0.2357        122     45.57473
 3.77    300.8787  19.9876     1686.099   1625.9421   6.11     1.507     1.357   0.0422        123     65.54181
 3.50    331.0763  16.0899     61088.95    288.5573  26.13     1.949     1.904   0.0015        124     81.58443
 5.22    313.1156  20.7030     872.3916   1962.8390  89.33     2.152     0.923   0.1109        125     89.05378
 5.07    318.4441  20.4393     1112.215   1282.1536 -58.44     1.484     1.235   0.0816        126     83.58504
 5.45    316.7584  21.2608     521.8929   1911.7090 -87.82     1.168     1.106   0.1573        127     75.57713
 5.57    315.9109  21.8930     291.5514    528.1438 -77.66     0.942     0.719   0.2095        128     56.23868
 9.44    313.0070  21.6741     356.6844   1145.5018 -57.91     0.798     0.313   0.1775        129     58.29939
 6.08    341.3083  19.9532     1740.411   1109.8745 -80.64     1.953     1.493   0.0792        130     126.8747
 5.75    329.5369  21.4036     457.5658   1205.6371 -53.21     1.181     0.768   0.1581        131     66.61341
 4.97    349.5454  19.2234     3408.457    165.0791 -29.32     2.390     1.893   0.0411        132     128.9048
 4.28    341.1891  21.8718     297.2987   1312.0833  80.55     1.135     0.729   0.1739        133     47.60125
 5.60    348.7218  20.6302      932.915   1995.2061 -11.00     1.366     1.291   0.1055        134     90.63008
 6.42    345.6767  20.7366     845.7898   1440.8413 -23.12     1.360     1.180   0.1272        135      99.0899
 5.80    341.1177  22.0059     262.7476   1267.7454 -36.23     1.105     0.521   0.2254        136     54.53408
 7.46    343.0191  22.1817     223.4772    719.7139 -39.29     1.013     0.298   0.2384        137     49.06625
 8.53    340.6752  22.0076     262.3458    246.9862 -28.01     0.916     0.210   0.1843        138     44.52689
 3.50    376.8674  16.4617     43373.35    500.7349   2.82     1.881     1.828   0.0020        139     78.93774
 3.68    360.7376  19.6571     2285.988   1438.6000  31.16     1.570     1.483   0.0323        140     68.01595
 4.13    369.3422  19.3158     3130.307   1583.4813  29.53     3.161     1.535   0.0384        141     110.7859
 4.96    354.5836  21.9936     265.7419    592.6671  26.93     1.064     0.711   0.2193        142     53.66148
 5.59    355.7302  21.4462     439.9862   1705.4504 -24.63     1.031     0.986   0.1687        143     68.36209
 5.82    367.5784  19.9836     1692.324   1942.5688 -27.20     2.363     1.439   0.0840        144     130.9034
 4.66    359.7424  21.1030      603.549    919.4589 -20.04     1.336     1.091   0.1230        145     68.36209
 4.31    424.1392  17.6612     14369.31   1606.8030  89.18     5.085     2.774   0.0149        146     197.2247
 3.50    372.3214  18.8405     4849.471   1989.5961  26.74     1.705     1.599   0.0158        147      70.4032
 3.79    360.3186  21.7663     327.6301   1031.4125  26.79     1.028     0.799   0.1404        148     42.35352
 8.46    357.4748  22.0191     259.5742     89.5146 -42.96     0.503     0.497   0.2073        149     49.54495
 5.04    373.1256  19.9555     1736.623   1928.3552  25.72     1.814     1.633   0.0666        150     106.4396
 5.34    365.7494  21.2057      549.061   1721.2968  45.13     1.186     0.936   0.1338        151     67.66804
 5.87    364.6712  21.7632     328.5846    529.9297  75.44     1.040     0.749   0.2118        152     64.08514
 8.74    359.5166  22.2353     212.7144    691.5233  45.48     0.507     0.492   0.2648        153     51.87226
 8.09    369.0598  21.2263     538.7694    521.9629 -14.24     0.979     0.695   0.1615        154     80.12484
 4.95    375.3856  21.0753     619.1504   1303.9401  30.35     1.196     1.004   0.1150        155     65.54181
 3.63    405.4355  18.0472     10069.77   1470.3716  58.82     3.156     2.824   0.0142        156     131.9809
 4.00    390.2851  20.0976     1523.539   1866.7634  41.25     2.486     1.550   0.0684        157     95.94338
 7.72    373.2453  22.1900     221.7695    699.2410  72.18     0.865     0.353   0.2628        158     53.66148
 6.15    370.4958  22.7155     136.6802    789.5173  45.29     0.514     0.486   0.3088        159     38.86626
 5.37    379.8829  22.1811     223.5945   1899.3389  23.98     0.943     0.676   0.2497        160     51.41523
 6.82    378.6522  22.7508     132.3081    643.6630 -45.41     0.585     0.329   0.2930        161     35.70094
 7.21    384.1840  22.0073     262.4111   1935.1663  42.44     0.770     0.566   0.2379        162     57.48397
 6.93    388.1184  21.7760      324.735    873.4873  41.71     0.873     0.662   0.2131        163     63.71577
 9.10    392.7554  21.9650     272.8423   1670.0043   0.20     0.698     0.430   0.2446        164     61.45295
 8.58    399.4329  21.8368     307.0452   1330.2388  19.79     0.742     0.454   0.2132        165      60.2897
 6.94    408.1239  21.7299     338.8032   1432.3708 -20.83     0.921     0.688   0.2147        166      66.9668
 6.14    409.2238  22.3764     186.7838   1727.4209  70.19     0.755     0.449   0.2558        167     43.99361
 5.05    412.3467  21.4479     439.3058    705.1246 -11.00     1.267     0.780   0.1529        168     61.83583
 4.04    435.7943  18.8595     4765.559   1856.6848 -24.67     2.169     2.092   0.0241        169     105.5489
 3.50    429.3987  18.7260     5389.082   1700.6196  63.78     1.621     1.611   0.0139        170     69.04916
 4.77    418.3457  21.3976     460.1073   1422.8912  82.67     1.114     0.846   0.1307        171     55.39294
 5.25    418.9967  21.5723     391.7443   1623.0413 -66.21     0.990     0.834   0.1638        172     59.10355
 5.93    420.2853  21.0256     648.1328     62.5122   4.40     1.329     1.052   0.1429        173      85.2625
 7.19    418.8747  21.7062     346.2775    854.8422  68.12     1.118     0.595   0.2229        174     71.07054
 4.67    428.5244  20.7525     833.4852   1011.1845  54.05     1.693     1.122   0.1032        175     79.23618
 4.71    424.4333  21.8208     311.5858    701.4626  50.99     1.361     0.719   0.1960        176     56.23868
 3.50    433.1103  19.4527     2759.579   1557.9625  -1.75     1.500     1.469   0.0252        177     64.08514
 3.50    436.2614  19.4532     2758.359    937.3679  18.86     1.513     1.441   0.0248        178     62.97054
 6.15    422.4938  22.6465      145.657   1941.9811 -33.90     0.752     0.328   0.2711        179     36.35606
 7.89    423.3264  22.4832     169.2919    222.6564  44.28     0.579     0.332   0.2752        180     42.90718
 5.79    432.0177  21.1258     591.0027    560.9773  45.34     1.199     0.895   0.1342        181       73.036
 3.50    454.1831  16.8708     29756.37    463.2641 -15.01     1.845     1.812   0.0029        182     78.33745
 5.81    431.4838  21.7461     333.7914   1762.6920  53.05     1.098     0.642   0.1962        183      60.2897
 3.50    467.4877  16.9636     27319.41   1477.9938  26.43     1.871     1.788   0.0031        184     78.03557
 4.01    440.1067  22.2725     205.5438    951.9218 -44.77     0.883     0.533   0.1623        185     30.72647
 3.50    468.1483  17.7058     13790.69   1465.0348   8.11     1.849     1.735   0.0064        186     81.32178
 3.52    458.2050  20.0292     1622.618   1742.4468  40.28     2.217     1.789   0.0574        187     85.81437
 4.36    447.2857  21.3241      492.368   1949.6693 -10.69     1.082     0.938   0.1174        188     53.21981
 3.50    459.7993  20.2799     1288.049   1830.6917  12.52     1.373     1.294   0.0488        189     57.89311
 5.72    459.9945  22.4129     180.6167    397.9411  -0.47     0.630     0.597   0.2513        190     41.79252
 6.31    461.3093  22.7751      129.384    782.6672  43.83     0.566     0.339   0.2941        191     35.03357
 4.97    495.6961  18.5107     6570.759    210.0894 -45.46     3.073     2.568   0.0280        192     169.6925
 3.50    465.3430  23.2803     81.24768    217.6788  45.95     0.576     0.334   0.2250        193     16.82958
 3.50    514.7799  18.6448     5807.792    443.7485 -77.70     4.196     2.027   0.0233        194     124.4327
 5.54    477.0916  21.9196     284.4962    652.2589 -84.28     1.258     0.696   0.2418        195     63.34425
 7.12    472.7780  22.0916     242.8188   1414.0051 -58.24     0.810     0.499   0.2477        196     55.39294
 3.50    483.9638  19.9132     1805.634    727.0894  56.92     1.474     1.416   0.0374        197     62.21637
 6.89    476.5950  20.8574     756.7202    357.0614  14.36     1.739     0.898   0.1499        198     104.4248
 3.50    976.6807  20.5158     1036.518   1305.7965  35.10     2.143     1.672   0.0839        199     80.12484
 6.61   1488.3065  22.9769     107.4384   1874.3319 -43.71     0.565     0.340   0.3106        200     30.72647
 6.19   1488.3466  23.0004     105.1348   1552.6958  47.01     0.570     0.337   0.3011        201     29.14969
 3.50   1480.4878  17.7439     13315.62   1247.0494  72.29     1.786     1.771   0.0062        202     75.88879
 3.50    857.6118  14.4755     270215.5    121.2621 -27.89     2.124     2.073   0.0004        203      89.5823
 7.70    859.9935  21.4034     457.6873   1741.4495  89.18     0.786     0.497   0.1393        204     58.70285
 4.88    856.6960  20.2059     1378.981     85.4805  42.66     1.546     1.278   0.0660        205     83.86695
 3.57    855.4093  19.5524     2517.378    637.3966 -13.05     1.666     1.391   0.0290        206     67.31833
 5.34    857.5827  19.7458     2106.654    527.7172  58.27     2.560     1.403   0.0634        207     122.9059
 5.77    848.8823  20.6929     880.5485   1544.1006 -13.19     1.512     1.404   0.1260        208     102.1395
 5.82    849.0048  21.6878     352.2142    523.0676 -37.04     0.942     0.871   0.2010        209     65.18069
 3.64    847.5123  20.4125     1139.984    227.4001  72.37     1.363     1.272   0.0563        210     59.10355
 3.50    840.9406  17.5165     16418.08    611.0890  36.72     1.937     1.823   0.0053        211     80.71185
 6.45    844.4649  21.3458     482.6035   1725.1685  27.56     1.174     0.806   0.1729        212     76.81618
 3.50    836.5092  17.4162     18006.62   1088.9332 -27.95     1.867     1.778   0.0047        213     77.42828
 6.91    841.4241  21.8002      317.578   1980.7881   9.02     0.984     0.475   0.1937        214     56.65682
 6.10    836.2301  21.2295     537.1947    553.1557 -89.56     1.700     0.724   0.1673        215     82.73357
 3.50    830.1402  15.8220     78183.59   1834.8438  16.42     1.977     1.947   0.0011        216     82.73357
 3.50    824.9916  15.4998     105193.7   1612.9946  84.55     2.036     2.025   0.0009        217     87.17876
 3.50    832.1414  19.2132      3440.69   1535.7393   2.62     1.604     1.446   0.0202        218     64.08514
 7.46    828.8594  20.3653     1190.632    619.7073  87.70     1.878     1.129   0.1202        219     131.8019
 7.94    831.1649  21.3906     463.0966   1684.2382  18.33     1.093     0.678   0.1940        220     82.73357
 8.39    829.3472  22.2821     203.7382      3.6771  46.03     0.579     0.332   0.2316        221      43.4538
 3.50    827.0352  22.8181     124.3562    774.7745  88.40     0.678     0.418   0.2163        222     24.77248
 7.84    832.1427  21.6356     369.5483    972.9039  47.09     0.843     0.660   0.2089        223     71.07054
 7.27    825.0306  21.7632     328.5665    592.6786 -76.91     0.737     0.670   0.2081        224     62.97054
 6.54    822.7625  21.8189     312.1493   1718.1299  88.71     1.220     0.577   0.2293        225     65.90095
 6.66    814.1165  20.0131     1646.994   1277.7004 -42.18     2.026     1.453   0.0918        226     139.2896
 3.87    807.3359  22.9549     109.6315   1021.3134 -46.08     0.570     0.337   0.2358        227     23.80062
 4.76    805.4943  20.7988     798.7351    319.7578  84.57     1.321     1.285   0.1023        228     75.26418
 6.71    803.2313  20.7745     816.7988    868.5899 -84.11     1.600     1.027   0.1397        229     105.1007
 6.66    804.0374  21.9585     274.4878   1667.2573  26.34     0.977     0.604   0.2477        230     62.59459
 6.56    802.7488  20.9790     676.5571   1407.1467  -9.78     1.455     1.025   0.1567        231     97.65026
 4.84    800.4988  21.6440     366.6992    341.9875  74.47     1.576     0.646   0.1774        232     59.89692
 3.50    780.7782  14.0510     399511.9    430.0692 -24.31     2.200     2.124   0.0003        233     92.17942
 5.49    798.5186  22.0117     261.3536     47.1915  84.63     0.948     0.721   0.2266        234     54.53408
 6.31    795.9099  20.7746     816.7388    563.9799  73.94     1.247     1.223   0.1253        235     94.20559
 3.50    782.3035  15.0167     164153.2   1585.0125 -29.55     2.044     2.007   0.0006        236     87.17876
 7.08    782.6259  20.9631     686.5602   1608.8694 -46.50     1.277     0.896   0.1470        237     92.94441
 4.86    781.7327  21.1376     584.6089    347.5333  89.53     1.239     1.025   0.1244        238      66.9668
 7.44    782.5356  21.9914     266.2848    577.9418  -0.12     0.788     0.499   0.2344        239     57.48397
 4.87    774.7914  18.7361     5339.188    595.3005  40.73     3.487     2.260   0.0339        240      166.746
 5.71    776.9598  21.6145     376.8068    756.2791  64.38     1.025     0.832   0.1858        241     64.45239
 3.50    771.4084  18.6132     5979.258   1619.0391  67.37     1.662     1.596   0.0127        242     70.06714
 3.69    772.5896  20.9754     678.8142    382.0158 -85.87     1.237     1.197   0.0872        243     54.53408
 3.74    771.2142  19.0515     3993.139    166.9351 -73.58     1.879     1.656   0.0202        244     74.42059
 4.38    762.0839  19.1944     3500.728    169.6867  55.84     1.762     1.623   0.0201        245     64.93493
 5.08    757.1794  20.5480     1006.295    167.1938 -23.98     1.301     1.088   0.0478        246     44.32336
 5.25    766.2906  21.4807     426.2225   1750.2328  31.06     1.420     0.923   0.1861        247       73.036
 3.50    760.7899  18.0449     10091.14   1593.8470 -59.34     1.718     1.715   0.0079        248       73.036
 7.92    762.7665  21.7573     330.3739   1930.2080 -45.60     0.946     0.460   0.2107        249     64.08514
 3.56    759.7953  22.1037     240.1167    474.8808 -20.20     1.113     0.652   0.1673        250     36.99957
 6.03    756.9724  20.4661     1085.094    180.2345 -19.94     1.522     1.246   0.1006        251     100.5089
 4.75    752.4793  20.8199     783.3783   1212.8365  87.07     1.403     1.299   0.1086        252     78.33745
 5.15    752.6030  20.9434     699.1259   1107.2268 -23.69     1.262     1.182   0.1198        253     77.12284
 4.83    752.4622  20.2418      1334.09    345.4479  12.96     1.826     1.307   0.0731        254     89.84539
 3.50    751.6101  22.4867      168.743    230.2787 -57.19     0.939     0.543   0.1927        255     29.94846
 3.50    747.9770  19.3385     3065.707    334.3738 -18.42     1.615     1.448   0.0232        256     65.54181
 3.50    743.9561  17.7088     13753.18   1893.4276  79.67     1.789     1.724   0.0060        257      76.5083
 3.77    745.5428  21.3563      477.968    273.6540  62.85     1.168     0.939   0.1093        258     48.09454
 3.50    738.8239  18.2730     8179.541    769.5753   4.74     1.709     1.609   0.0093        259      70.4032
 4.04    737.7332  22.7164     136.5742   1354.7622  71.70     0.842     0.352   0.2044        260     25.70761
 4.91    710.9867  16.2852     51032.56   1616.1727  33.81    10.186     8.212   0.0116        261     547.1125
 5.64    723.8606  21.7629     328.6691    469.3814  38.39     1.136     0.666   0.1953        262     59.10355
 6.31    717.3448  20.4487      1102.66   2019.6849  20.21     1.427     1.236   0.1006        263     102.1395
 3.50    719.4205  22.4443     175.4578   1153.3344  17.50     0.671     0.472   0.1533        264     24.77248
 3.50    713.1541  18.2081     8683.393    895.0796 -14.95     1.690     1.623   0.0088        265      70.4032
 5.07    715.6962  21.8964     290.6364    409.7729 -41.96     0.948     0.772   0.1955        266      52.3253
 4.52    731.7333  19.1664     3592.112   1653.2609  88.20     1.772     1.526   0.0273        267     90.36927
 7.63    714.6000  22.0347     255.8871    457.8059  19.02     0.743     0.451   0.2314        268     54.53408
 4.66    710.2457  21.7109     344.8013    853.5102  -0.11     0.948     0.718   0.1468        269     46.59901
 7.36    705.1041  21.4188     451.2131      8.7509 -66.97     1.175     0.563   0.1750        270     72.71211
 7.47    705.5820  22.2218     215.3702   1044.3846  21.37     1.088     0.315   0.2728        271     54.09954
 6.49    701.6838  21.6302     371.3997    155.1600 -29.20     0.905     0.792   0.1927        272     65.90095
 3.50    698.9149  20.0376     1610.206    831.3130  -7.38     1.505     1.368   0.0404        273     59.89692
 5.13    698.0894  21.1008      604.799   1448.5201  55.42     1.094     0.991   0.1170        274     65.18069
 4.12    696.2515  20.1971     1390.217   1263.9969 -31.55     1.335     1.314   0.0523        275      66.9668
 7.04    733.5869  21.0720     621.0018   1491.3716  -1.82     1.364     0.948   0.1699        276     97.16564
 4.12    732.6180  22.6686      142.712    415.8042  17.70     0.736     0.453   0.2218        277     29.14969
 8.17    694.8663  21.6525     363.8477    750.6205 -34.12     0.767     0.661   0.2131        278     71.40187
 3.71    690.7485  19.9542     1738.679   1328.0120  49.47     1.420     1.368   0.0393        279     62.97054
 5.42    690.6841  20.6432      921.782    119.4679 -23.58     1.774     1.029   0.1055        280      89.5823
 9.12    690.5224  22.0067     262.5708    969.4551  46.96     0.510     0.488   0.2291        281     55.39294
 6.41    687.9185  20.8137     787.8149   1589.0049  22.75     1.265     1.144   0.1295        282      93.9547
 7.85    687.6711  22.5300     162.1471   1926.6725 -45.06     0.573     0.336   0.2837        283     42.35352
 7.25    685.7142  21.1834      560.458   1890.3695  20.83     1.693     0.729   0.1902        284     98.13249
 5.23    685.1538  21.7515      332.125    590.6482  21.79     0.894     0.689   0.1604        285     49.06625
 6.22    722.0519  20.0604      1576.73   1023.7321  88.31     1.988     1.614   0.0936        286     135.8583
 3.50    682.8345  21.5074      415.858    294.6501 -52.17     1.394     1.133   0.1378        287     52.77445
 6.27    679.5836  22.2768     204.7368    335.7801  19.02     0.754     0.452   0.2334        288     43.99361
 6.15    677.3090  22.0341     256.0155   1805.0956 -31.14     0.889     0.597   0.2258        289     53.21981
 5.91    674.0822  21.0617     626.9517    462.0313 -44.55     1.263     1.000   0.1403        290     81.00375
 3.50    664.3974  14.9580     173262.8   1346.4088   3.65     2.057     2.025   0.0005        291     87.17876
 7.70    673.8781  21.4617     433.7399     37.2766  64.94     0.866     0.614   0.1703        292     68.01595
 7.63    671.5118  22.3472     191.8796    665.4983  44.83     0.512     0.488   0.2694        293     47.60125
 5.61    670.5412  21.3144     496.7721    358.0074 -25.73     1.314     0.876   0.1561        294     71.40187
 4.63    665.6383  21.6824     353.9629   1533.7321  66.84     1.119     0.856   0.1673        295     54.53408
 3.50    665.1097  20.5884     969.5155    964.0042  13.45     1.308     1.147   0.0581        296     51.87226
 4.49    663.5815  20.2777     1290.678   1419.3176  35.21     1.382     1.283   0.0617        297     73.35845
 3.75    659.8990  19.3671     2985.967    573.7516  50.38     2.116     1.772   0.0324        298     89.05378
 5.75    662.6627  21.5662     393.9508     41.6922 -89.74     1.158     0.812   0.1865        299     67.66804
 3.50    660.6784  22.2900     202.2588   1493.2593  46.38     0.971     0.755   0.1987        300     36.99957
 7.34    659.5892  21.2002     551.8517     36.1967  84.84     0.977     0.723   0.1487        301     75.57713
 3.50    650.7102  15.0795     154915.6    314.9764  -4.27     2.052     2.008   0.0006        302     87.44908
 3.50    652.7261  18.6065     6016.291   1657.1337 -51.76     1.634     1.580   0.0123        303     68.36209
 3.50    648.9091  16.9631     27331.49   1708.5229  88.30     1.852     1.807   0.0031        304     78.33745
 6.45    650.8981  22.3867     185.0247    114.3047  60.65     0.874     0.589   0.3301        305     56.23868
 5.14    650.2435  21.9656     272.6829   1241.6887   5.62     0.957     0.635   0.1954        306     49.06625
 5.43    644.2242  21.8690     298.0586    772.4747  -5.41     0.927     0.740   0.2003        307     54.96519
 7.01    643.6185  21.4866       423.89     54.3891  -7.32     1.029     0.633   0.1751        308     68.36209
 7.52    641.9957  22.2564      208.613   2045.5133 -58.43     0.813     0.307   0.2318        309     44.52689
 3.50    638.3727  18.4885     6706.709      9.1623 -68.77     1.641     1.594   0.0112        310     69.39015
 7.99    641.4296  22.1901     221.7626    457.2312  20.22     0.757     0.448   0.2815        311     57.48397
 8.00    640.5020  21.8642     299.3909   1832.5128 -48.72     0.501     0.499   0.1797        312     49.54495
 4.60    635.9004  21.9002     289.6337   1209.1537   0.26     0.919     0.749   0.1785        313     47.60125
 5.05    633.7849  21.6682     358.6309   1414.4031 -82.35     1.048     0.898   0.1790        314     59.10355
 4.64    631.6851  20.3874     1166.714    202.5469  16.27     1.355     1.243   0.0683        315     73.35845
 4.01    631.2309  21.0727     620.6201   1900.8058  41.74     1.166     1.033   0.0947        316     54.09954
 6.60    630.3370  22.0528     251.6506   1595.5081   0.81     0.875     0.473   0.2258        317      52.3253
 5.07    615.2980  21.0766     618.4243    322.5434  77.14     1.394     1.010   0.1283        318       73.036
 5.53    605.4709  21.5016     418.0752   1603.0981  35.57     1.005     0.889   0.1684        319     64.81757
 3.58    601.8800  19.4253     2829.965   1660.8282  29.09     1.502     1.441   0.0250        320     65.18069
 4.94    591.1534  20.2150     1367.495   1989.5983  23.20     2.200     1.507   0.0866        321     109.0682
 3.69    586.4175  20.1684     1427.382    572.4492  53.18     1.599     1.450   0.0523        322     68.70648
 4.38    581.7554  18.6591     5731.762    487.1105 -84.91     2.678     2.173   0.0243        323     128.3543
 3.73    578.7342  19.2282     3393.395   1052.5668  34.92     1.572     1.491   0.0221        324     69.04916
 8.99    577.5395  21.6846     353.2555   1148.4794 -42.46     0.505     0.493   0.1650        325     53.66148
 7.81    576.4519  21.8958     290.8076    446.4885 -29.54     0.501     0.497   0.1850        326     49.54495
 3.69    573.0876  20.3173     1244.522     61.8487 -63.61     1.905     1.553   0.0668        327      76.5083
 7.57    575.5107  22.3960     183.4412   1018.4665  58.01     0.501     0.498   0.2729        328     46.08971
 7.98    574.1637  21.6047     380.2004   1153.4840  30.86     1.067     0.471   0.1982        329     69.39015
 6.73    564.2357  22.4787      169.999    867.9647   1.70     0.678     0.424   0.2844        330     44.52689
 3.50    559.5173  17.6129     15022.66    244.5744  44.66     1.750     1.709   0.0053        331     73.99915
 5.02    560.7908  21.1679     568.5239   1148.0962 -39.69     1.159     0.971   0.1245        332     65.18069
 6.77    558.9682  21.0323      644.157    731.1918  40.82     1.413     0.955   0.1601        333     94.95425
 5.92    557.3320  20.8299     776.1595    441.3138  87.40     1.528     1.045   0.1272        334     90.89014
 3.50    552.0312  18.0715     9846.982    191.2848  14.88     1.754     1.689   0.0080        335     72.38677
 3.50    548.8745  17.6598     14387.63    552.8276  11.88     1.745     1.707   0.0055        336     73.35845
 4.06    548.3447  20.4034     1149.607   1782.7758  -7.20     1.416     1.293   0.0626        337     66.25813
 7.27    539.7291  22.3313     194.7108   1035.7212  20.57     0.847     0.352   0.2655        338     47.60125
 7.63    537.3396  22.2944     201.4459    513.6846  46.11     0.572     0.336   0.2222        339     41.22389
 3.50    534.4813  20.5548     999.9692    328.8484  -3.35     1.424     1.235   0.0606        340     55.81741
 7.94    530.7896  20.9282       708.99    924.7245  22.79     0.990     0.845   0.1352        341     88.25508
 6.09    529.4879  21.6242      373.444   1864.9928 -87.88     1.102     0.792   0.2018        342     69.39015
 6.15    527.3228  22.2908     202.1112    782.5144  -0.87     0.963     0.467   0.2738        343     50.95409
 3.94   1475.4752  19.2708     3262.762   1675.5068  17.68     2.652     1.652   0.0336        344     100.9775
 4.37    517.2322  20.0658     1568.918   1500.2378   8.57     1.437     1.345   0.0512        345     73.99915
 3.59    515.9642  19.1613     3609.117    354.2382  59.97     1.591     1.470   0.0200        346     66.61341
 3.50    516.7878  20.2784      1289.92    256.5854  -8.74     1.320     1.224   0.0455        347     54.09954
 4.07    509.8516  19.2815     3230.749    478.1413 -77.89     2.162     1.837   0.0333        348      99.0899
 6.74    512.3491  19.6575     2285.101    212.0165 -53.29     2.083     1.655   0.0727        349     153.0166
 3.50    498.8923  19.1459     3660.667   1807.1006 -46.43     1.527     1.508   0.0194        350     65.54181
 3.50   1443.7451  13.9735     429037.7    630.4145 -43.58     3.180     3.085   0.0003        351     133.9336
 5.61    500.0514  22.0113     261.4449    679.2037 -22.95     1.023     0.596   0.2192        352     52.77445
 6.94    488.3777  21.4217     450.0151    529.2865 -22.05     1.063     0.760   0.1824        353     75.57713
 7.01   1263.8542  20.5648     990.7928    342.4666  44.19     1.463     1.195   0.1240        354     113.1051
 5.14    484.7766  21.9921     266.1201    794.8756  29.98     1.046     0.624   0.2041        355     50.01908
 5.73    480.7498  21.5424     402.6606    803.1987  46.94     1.151     0.838   0.1862        356     69.04916
 3.50   1476.0890  18.7920     5071.156   1051.8718  24.68     1.646     1.597   0.0147        357     68.70648
 6.55    477.6581  22.8152     124.6853   1651.3291  45.54     0.579     0.332   0.3110        358     35.70094
 4.94    869.8578  21.3150     496.4833    435.5724  59.61     1.549     0.909   0.1547        359     70.73766
 8.37   1447.6866  22.1882     222.1436   1843.6776 -44.54     0.564     0.340   0.2177        360     44.52689
 6.75   1451.0000  22.5646     157.0587   1900.0337   0.00     0.842     0.289   0.2558        361     36.99957
 3.65   1475.3678  19.0635      3949.38    825.3566   2.24     1.721     1.559   0.0201        362       73.036
 3.50   1345.7749  11.9158      2854975    623.9698  -2.57    13.139    12.128   0.0002        363     537.7572
 4.62   1458.9760  21.6679     358.7275   1880.5961  62.23     1.281     0.776   0.1690        364     55.81741
 6.80   1382.7717  21.3185     494.9163   1163.4294  16.52     2.002     0.664   0.2111        365     96.18908
 4.89   1460.1033  19.3748     2964.836    907.1419  48.88     4.213     1.521   0.0553        366      150.998
 8.30   1466.3241  21.9733     270.7745   1958.3296 -44.75     0.572     0.336   0.1786        367     44.52689
 8.94   1382.1923  21.6319     370.8024   2031.6062 -71.16     0.740     0.450   0.1833        368     62.59459
 7.54   1445.2150  22.0519     251.8579    386.3843  72.78     0.742     0.454   0.2314        369     53.66148
 5.13   1333.9558  18.8089     4992.867   1526.3351  26.28     2.765     2.301   0.0344        370     158.0249
 4.54   1447.0071  22.1042     240.0026    530.0529 -47.97     0.795     0.791   0.1991        371     43.99361
 5.24   1429.5979  20.9198     714.4606    959.5200  86.03     1.449     1.305   0.1333        372     87.71857
 5.43   1336.5703  20.5452     1008.883   1156.0831   5.52     1.590     1.334   0.1035        373     96.18908
 7.60   1337.0121  22.2870     202.8286    453.4897 -58.46     0.814     0.307   0.2549        374     47.60125
 4.47   1328.6653  19.4530     2758.672   1944.3317   0.25     2.787     1.628   0.0455        375     115.5822
 6.54   1407.7438  21.6288      371.887    983.6313  14.22     0.895     0.740   0.1903        376     65.18069
 7.82   1405.1459  19.9670     1718.328    539.8561  19.88     1.535     1.366   0.0866        377      137.069
 7.34   1426.4702  22.2823     203.7073   1679.0463 -31.99     0.799     0.312   0.2430        378     45.57473
 5.67   1421.6385  19.1543     3632.542    526.0445 -66.60     2.389     1.918   0.0443        379     148.3169
 4.96   1423.0297  21.0545     631.1455    827.3137 -84.31     1.325     0.948   0.1176        380     68.36209
 3.50   1323.4425  20.9688     682.9724    222.8250 -39.39     1.605     1.326   0.1001        381     62.97054
 7.19   1322.5959  21.2047     549.5623   2027.8324 -21.25     1.176     0.759   0.1635        382     82.73357
 7.00   1402.7673  19.7874     2027.431    184.1190  38.66     2.352     1.547   0.0874        383     163.1689
 6.95   1459.6631  20.4806     1070.685    604.1602  12.22     1.675     1.104   0.1174        384     115.7862
 6.50   1423.4951  21.6476     365.4813   1737.3658 -80.52     1.038     0.650   0.1937        385     65.18069
 5.66   1373.1029  21.5507     399.6232    120.7027  -8.98     0.987     0.755   0.1617        386     59.50156
 3.50   1405.2700  14.2839     322380.7    327.4197 -15.17     2.214     2.119   0.0003        387     92.69012
 7.52   1310.9725  22.3723     187.5017   1962.2462  88.76     0.706     0.431   0.2870        388     49.54495
 4.87   1414.0135  20.4890     1062.432   1728.6670 -12.33     1.691     1.403   0.0921        389     90.10771
 4.54   1406.9541  20.5975     961.3817   1375.3168 -73.26     1.661     1.408   0.0957        390     84.70705
 6.59   1307.7671  22.3794     186.2793   1296.2416 -17.77     0.854     0.349   0.2533        391      43.4538
 7.85   1402.2258  21.8144     313.4475   1342.2688  17.30     0.840     0.351   0.1813        392      52.3253
 6.35   1392.5465  20.9399     701.4017   1561.2748 -64.77     1.341     0.862   0.1290        393     83.30219
 3.50   1300.4263  16.3159     49610.02   1041.4136  23.45     1.965     1.920   0.0018        394     83.86695
 9.04   1354.5856  21.4484     439.1002    811.1932 -18.80     0.775     0.448   0.1567        395     63.34425
 3.50   1436.1272  17.3057     19935.03   1979.1235  47.96     1.888     1.854   0.0044        396     81.00375
 3.50   1306.4175  18.4520      6936.26   1921.0703  14.22     1.664     1.641   0.0110        397     70.06714
 4.10   1368.3903  21.9588     274.4095   1500.6027 -48.96     0.924     0.788   0.1654        398     41.79252
 6.51   1401.1001  21.9817     268.6847    931.0923 -40.51     0.836     0.675   0.2373        399     58.70285
 7.43   1360.6915  21.1962     553.9103    759.2819  44.47     0.930     0.744   0.1463        400     74.63435
 3.50   1353.8638  18.6106     5993.537   1208.7743   2.21     1.693     1.594   0.0128        401     70.73766
 6.65   1352.3153  22.7557     131.7083    775.6901  45.30     0.559     0.342   0.2944        402     35.70094
 7.48   1284.9409  21.4936     421.1939    322.3339  34.29     1.504     0.760   0.1342        403     52.04162
 6.61   1280.5167  20.3548     1202.227    316.8012  52.11     1.699     1.153   0.1018        404      112.687
 4.67   1372.2094  20.1749     1418.948    450.1255  40.77     1.775     1.345   0.0669        405     87.44908
 4.65   1356.0747  21.9778     269.6544   1258.5924 -12.96     1.083     0.738   0.2052        406     50.95409
 4.19   1354.5916  20.9561     691.0088     10.6966  65.93     1.349     1.208   0.1036        407     65.90095
 5.64   1355.9780  22.5498     159.2179   1692.4755  58.10     0.802     0.311   0.2296        408     33.65916
 5.59   1364.4301  21.0120     656.3053   1527.5411 -62.05     1.315     1.155   0.1402        409     84.70705
 8.79   1360.9972  21.9451     277.8779   1541.4933  57.49     0.785     0.318   0.2009        410     51.41523
 6.70   1353.6970  22.4079     181.4471    771.3366  43.30     0.565     0.339   0.2137        411     35.70094
 8.38   1357.3757  21.8267     309.8933    371.8386 -19.12     0.758     0.440   0.2043        412     58.29939
 5.79   1358.5464  19.9918     1679.537   1759.8209 -51.92     2.103     1.466   0.0805        413     124.4327
 4.86   1406.2876  22.4387      176.376   1992.9348  -5.41     0.722     0.682   0.2573        414     41.79252
 5.30   1333.3351  19.3889     2926.476   1732.7307  54.15     2.541     2.380   0.0589        415     158.6212
 7.08   1349.4979  22.3373     193.6318     52.5230  46.09     0.507     0.493   0.2375        416     42.35352
 3.50   1342.3345  17.4251     17860.23   1446.9720  62.45     1.836     1.771   0.0047        417     77.73251
 6.25   1331.6342  21.2868     509.5638   1208.0920  35.16     1.149     0.929   0.1663        418     78.03557
 3.50   1346.6617  17.6482     14542.27   1078.1390  -3.82     1.810     1.769   0.0057        419      76.5083
 6.49   1340.0308  19.9921     1679.048    518.8781  14.44     2.738     1.001   0.0847        420     130.9034
 6.95   1346.5935  21.6108     378.0988   1343.7583 -71.41     1.017     0.570   0.1862        421     64.81757
 3.75   1349.0236  20.5019     1049.912    913.0439   0.93     1.349     1.237   0.0599        422     57.89311
 4.19   1296.6616  18.2081     8682.941   1769.2988  84.35     3.215     2.295   0.0173        423     138.2691
 3.50   1332.5922  19.0453     4015.877   1257.3917  35.17     1.614     1.494   0.0175        424     64.81757
 3.88   1272.5105  18.1759     8944.565   1733.7694  16.55     3.860     2.848   0.0190        425     156.2223
 5.66   1314.8275  19.8582     1899.431   1279.6735  68.25     2.398     1.933   0.0847        426     148.1577
 4.09   1265.0841  19.2887     3209.339   1720.4739  19.23     2.287     1.788   0.0283        427     83.65787
 6.70   1319.0564  20.6699     899.3975   1734.0930 -58.39     1.529     1.291   0.1383        428     114.5566
 5.45   1313.4874  21.3543     478.8583   1453.7574  73.40     0.979     0.937   0.1437        429     63.34425
 5.87   1440.1365  21.9264     282.7045    464.1783  18.58     1.261     0.534   0.2224        430     57.89311
 7.90   1280.2571  21.6017     381.2632    456.7399   8.38     0.916     0.640   0.2099        431      73.6795
 8.45   1291.8364  20.2762     1292.553    659.6785  26.40     1.318     0.703   0.0833        432      99.0899
 5.65   1285.8912  22.0341     256.0153    879.1799  47.67     0.831     0.658   0.2181        433     51.41523
 6.56   1293.3300  22.8230     123.8007   1276.3135 -45.82     0.567     0.339   0.3132        434     35.70094
 4.91   1290.1451  19.9303     1777.347   1746.3593 -46.95     3.273     1.387   0.0779        435     127.4315
 6.92   1291.2089  20.6850     886.9537    364.8494 -48.41     1.852     1.036   0.1430        436      116.801
 6.18   1238.2913  23.0669     98.88843    700.3270 -42.95     0.556     0.343   0.3696        437     33.65916
 4.64   1281.4771  21.7111     344.7308    917.7132 -41.79     0.962     0.959   0.1677        438     53.21981
 4.98    894.7275  18.4328     7059.587    499.7464  58.56     2.777     2.430   0.0242        439     157.5762
 3.54    875.2987  19.3734     2968.565    841.0269   4.12     1.571     1.446   0.0237        440     64.81757
 4.97   1255.2578  20.7095     867.2189    182.0255 -18.25     1.544     1.294   0.1075        441     85.81437
 5.08   1262.3413  22.7895     127.6792   1209.6863  46.27     0.572     0.336   0.2187        442     25.70761
 3.50    888.2872  21.7428     334.8125    466.0504 -18.86     1.001     0.976   0.1409        443      43.4538
 3.50    891.0225  19.3500     3033.145     17.1018  30.66     1.538     1.454   0.0233        444     65.18069
 4.50   1246.4012  20.3852     1169.052    234.9559  87.57     1.425     1.270   0.0675        445     72.71211
 7.43    908.1312  21.4873     423.6207    439.6964  18.48     0.934     0.678   0.1856        446     72.38677
 6.76    935.6120  22.3919      184.134   1958.8564  19.97     0.762     0.438   0.2837        447     48.09454
 5.89    903.8027  22.5786     155.0525   1862.7780 -45.35     0.977     0.349   0.3081        448     43.99361
 3.71    915.2711  17.5481     15946.11    757.4822 -28.20     4.656     3.282   0.0120        449     176.6438
 6.74    902.5012  22.7437     133.1837    645.5240 -47.87     0.503     0.497   0.3169        450     38.86626
 9.16   1225.6699  22.3707     187.7808     16.6831 -45.63     0.569     0.338   0.2753        451     47.60125
 3.50    910.0283  18.5652     6249.448   1818.0731  17.64     1.748     1.606   0.0124        452     71.07054
 3.50    931.7455  19.0712     3921.168    186.3064  -6.29     1.623     1.492   0.0183        453     65.90095
 5.24    931.6093  22.2875     202.7277   1643.1846  85.20     1.004     0.380   0.2082        454     38.86626
 7.13   1236.4060  22.3122      198.171   1629.7903 -18.43     0.746     0.454   0.2715        455     49.54495
 4.39   1178.5270  19.8252     1958.024    320.7361   6.13     2.400     1.733   0.0605        456     109.0682
 8.09   1233.3224  22.1534     229.3802     30.6486  43.81     0.580     0.331   0.2108        457     44.52689
 7.30    921.1747  21.2845     510.6292    826.1887  84.39     1.077     0.746   0.1710        458     80.41888
 5.94   1205.7863  21.3567     477.7968   1788.2089 -45.16     1.225     0.822   0.1623        459     71.40187
 4.09   1227.9127  19.7661     2067.625   1099.0498 -65.06     1.531     1.400   0.0384        460       73.036
 6.72   1229.8291  22.0300     256.9911   1219.8164  44.25     0.752     0.562   0.2268        461     53.66148
 5.23   1232.8790  21.0916     609.9347   1446.3246  53.84     1.250     1.107   0.1340        462     75.26418
 6.56   1389.4462  21.5637     394.8337    122.0529 -62.85     1.082     0.644   0.1783        463     64.81757
 7.01   1264.4694  21.7755      324.871   1692.5385  30.46     1.134     0.644   0.2431        464     72.71211
 5.96   1214.4385  21.4124     453.9094    323.0289 -89.58     1.144     0.759   0.1627        465     68.01595
 3.50   1206.4779  19.1007     3816.036     33.6419  -2.19     1.593     1.575   0.0188        466     65.90095
 4.02    934.2328  20.3276     1232.729   1412.6184  40.75     1.346     1.246   0.0558        467     63.34425
 6.66   1202.6782  21.9941     265.6307   1791.6644 -25.98     0.948     0.699   0.1915        468     46.85163
 6.64   1197.2815  22.1725      225.374     71.0051   2.03     0.731     0.671   0.2710        469     56.23868
 5.40   1206.4818  22.5940      152.873    513.4724  46.60     0.503     0.496   0.2391        470     33.65916
 7.03   1203.0009  21.9239     283.3676   1265.0192 -45.14     0.900     0.532   0.2280        471     59.50156
 3.50   1183.4153  16.9702     27152.95    370.0410  40.33     1.870     1.834   0.0032        472     78.93774
 5.52   1196.8881  20.9161     716.9375    770.2255  58.02     1.626     1.046   0.1337        473     88.25508
 3.50   1196.2190  21.3182     495.0212   1687.5990  75.00     1.171     1.058   0.1055        474     48.09454
 4.36   1209.6487  21.9033     288.8076    992.8710 -68.43     0.947     0.680   0.1593        475     42.35352
 3.50   1197.4594  18.6511     5774.005    108.1813  -4.71     1.772     1.624   0.0136        476     72.38677
 3.96   1172.3374  19.0090     4152.339   1869.9702 -53.79     3.200     2.932   0.0385        477      147.359
 3.60   1196.5828  19.3660     2988.979    482.4189  84.75     1.593     1.544   0.0247        478     68.01595
 3.50   1179.3778  17.8007     12636.43    152.2783 -39.77     1.804     1.777   0.0065        479     75.26418
 7.27    941.6089  21.2364     533.7488   1942.6174  44.59     1.020     0.882   0.1724        480     84.70705
 6.95    941.7828  22.1113     238.4387    880.3934 -71.34     0.771     0.445   0.2191        481     48.09454
 4.12    936.3296  19.7227      2151.91   1121.5709   1.86     1.621     1.395   0.0381        482     75.57713
 3.50   1189.9944  22.8735     118.1733   1025.7666 -89.74     0.682     0.423   0.2277        483     24.77248
 3.50   1177.5063  17.7802     12877.05    824.3876 -17.81     1.796     1.764   0.0063        484     75.26418
 8.69   1177.5011  22.0308     256.7976   1041.5256 -57.51     0.500     0.499   0.2251        485     53.21981
 3.50   1150.4998  22.8914     116.2365    512.5361  47.87     0.506     0.493   0.2224        486     23.80062
 4.50    956.1572  20.5197     1032.875     20.4219 -57.02     1.907     1.126   0.0839        487     79.82972
 5.45    942.2877  21.7540     331.3613   1043.2994  84.82     1.175     0.925   0.2229        488     68.01595
 6.05   1135.1583  19.7688     2062.441    388.9316 -14.17     1.864     1.643   0.0680        489     129.0878
 3.50   1163.8937  19.0569     3973.426    100.5457   3.41     1.644     1.615   0.0191        490     69.72947
 3.78   1167.3137  20.5932     965.2537    731.9751   7.23     1.597     1.337   0.0749        491     66.61341
 7.17   1133.5819  21.9672     272.2903   1697.2814   9.12     1.001     0.473   0.2357        492     59.10355
 3.50    952.0165  18.8646     4743.311    765.2091 -85.58     2.441     2.326   0.0232        493     101.4439
 3.50   1164.7450  18.6159     5964.431   1524.3571  26.84     1.713     1.569   0.0128        494      70.4032
 4.37   1149.4158  21.1159     596.4232   1431.2294 -74.90     1.526     1.226   0.1324        495     72.71211
 4.13   1157.8746  20.0821     1545.505   1870.7827  64.50     1.526     1.329   0.0499        496     71.07054
 3.50   1148.4818  19.1872     3524.078   1689.4849  37.92     1.608     1.506   0.0200        497     64.81757
 8.72   1151.9792  22.1598     228.0289   1403.4709  58.07     0.800     0.312   0.2513        498     52.77445
 4.18   1148.0117  19.6973     2202.881    590.5256 -48.18     1.545     1.502   0.0382        499     77.42828
 5.88   1152.3102  20.3421     1216.382    956.4805 -58.90     2.789     1.063   0.1101        500     123.2894
 4.17   1139.3488  19.3775     2957.521    771.4671  51.74     1.644     1.547   0.0299        501     81.29461
 3.50   1145.5283  18.1178     9436.468   1495.9723  16.87     1.788     1.735   0.0088        502     76.19918
 3.75   1123.9133  19.8536     1907.478   1318.8042   4.66     1.541     1.436   0.0387        503     68.01595
 3.50   1118.1731  16.9995     26431.36   1753.1223 -78.39     1.894     1.868   0.0033        504     80.71185
 7.14   1139.9956  22.0942     242.2323    227.4807  87.96     0.778     0.499   0.2445        505     54.53408
 3.84   1122.6794  19.5186     2597.024   1562.0618 -88.03     3.397     1.495   0.0438        506     104.6506
 3.50   1128.5802  16.3725     47087.49   1737.8889  -6.45     1.986     1.935   0.0019        507     84.14792
 4.29   1133.7789  21.4220     449.8905   1646.3203 -43.97     1.409     0.887   0.1407        508     58.29939
 7.43   1125.0928  22.0299     257.0101   1143.4855 -89.23     0.798     0.500   0.2412        509     57.07189
 3.50    956.0066  16.9955     26528.35   1977.1598 -62.30     1.856     1.843   0.0032        510     78.93774
 3.50    957.5377  16.9457      27774.9    641.3931   0.58     1.966     1.830   0.0032        511     80.71185
 5.53   1107.4104  21.6217     374.3179     72.3295  47.40     1.002     0.863   0.1827        512     62.97054
 3.50   1122.1097  16.3111     49828.99    751.3432 -15.72     2.000     1.981   0.0019        513     85.53889
 6.25   1103.3842  21.4555      436.226   1095.1700  57.64     1.017     0.786   0.1710        514     68.70648
 7.14   1113.7013  22.5668     156.7394   1446.2334 -72.45     0.835     0.357   0.3264        515     47.10279
 3.50   1107.9958  18.2547     8318.342   2031.7438  59.90     1.720     1.663   0.0093        516     71.40187
 7.17    963.9461  21.3747     469.9463   1592.9565  60.44     0.803     0.797   0.1596        517     69.04916
 4.09   1105.7799  20.8950      730.973   1576.8228  36.92     1.514     1.179   0.0990        518     66.61341
 4.41    964.2063  20.8648     751.6068    562.8087   4.41     1.317     1.241   0.0988        519     68.36209
 3.89   1100.6522  19.3054     3160.544   1887.3671 -89.63     2.820     1.862   0.0374        520     108.8515
 6.86   1100.0121  21.7181      342.495   1047.9834 -45.57     0.896     0.530   0.1836        521     57.89311
 3.54   1044.2196  18.2784      8138.49   1055.1305   4.79     1.689     1.663   0.0096        522     72.05997
 3.50    967.6239  18.4391     7019.119    677.1440 -51.98     1.744     1.626   0.0111        523     71.73167
 6.52   1083.7263  20.6559       911.08    588.2567 -36.49     1.657     1.230   0.1353        524     113.5217
 4.98   1044.0205  21.1460     580.1101   1755.4863  29.81     1.408     1.026   0.1355        525     72.38677
 5.71   1055.7113  20.8204     782.9827   1431.9976  72.22     1.300     1.244   0.1228        526     88.52211
 4.34    966.2393  19.7344      2128.85   1605.2759  14.14     1.530     1.383   0.0390        527      76.5083
 5.16   1078.7230  19.7660     2067.797   1469.9968  76.45     1.996     1.556   0.0583        528     110.9987
 5.36   1078.6431  20.6213     940.5347    515.3638 -86.52     2.040     1.264   0.1221        529     105.7723
 6.01   1053.1486  20.7831     810.3809    392.6722 -46.90     1.546     1.248   0.1366        530     101.9082
 3.50   1051.9703  21.0163     653.7236   1867.5787  13.67     1.294     1.177   0.0862        531     51.87226
 4.85   1072.1456  19.9714     1711.423   1982.5552 -59.70     2.129     1.682   0.0708        532     111.6348
 5.72   1048.0205  22.7813     128.6431   1218.0000  90.00     0.847     0.289   0.2782        533     32.95047
 6.74   1075.3447  21.2157     544.0414   1133.6921  89.24     1.499     0.807   0.1799        534     90.10771
 3.50   1062.9615  17.5171     16408.74    584.3824   6.59     1.834     1.760   0.0051        535      76.5083
 5.50   1056.5775  19.6938     2210.032    987.3730  19.32     2.761     1.905   0.0758        536     154.2457
 7.25   1062.2325  22.5068     165.6571    258.6206 -72.93     0.744     0.453   0.3340        537     50.95409
 8.04   1030.2338  21.8682     298.2723   1852.4094  71.19     0.736     0.455   0.2063        538     56.65682
 3.64   1034.2898  21.0205     651.1934   1269.0984  26.83     1.252     1.071   0.0865        539     51.87226
 4.30   1011.9247  19.2493     3328.065    860.4559  50.10     2.372     2.150   0.0384        540     117.8071
 5.55   1002.4131  21.9870     267.3789    704.5506  44.99     1.123     0.583   0.2232        541     54.96519
 3.50    959.6619  14.9479     174889.8   1216.2828 -20.40     2.101     2.060   0.0005        542     88.52211
 6.51   1000.2983  20.9935     667.5897   1750.2216  81.64     1.341     0.918   0.1423        543     87.44908
 5.54   1030.4843  22.3338     194.2723   1971.0127   0.03     0.789     0.500   0.2368        544     42.35352
 3.50   1020.9841  18.6969      5535.65   1252.8024   0.37     1.726     1.600   0.0139        545     70.73766
 7.87    997.2391  21.5623     395.3444   1004.8298 -70.34     1.094     0.659   0.2241        546     81.58443
 3.50    992.8112  18.1939     8797.591    883.0483 -15.11     1.792     1.698   0.0092        547     74.63435
 3.50    993.7725  20.0025     1663.105   1567.4962  -1.46     1.425     1.350   0.0386        548     59.10355
 3.50    994.0570  21.7344       337.41    495.6017   4.47     1.436     0.735   0.1416        549     43.99361
 7.61    990.7915  22.1831      223.181   1082.4191 -70.83     0.763     0.450   0.2675        550     54.96519
 4.77    997.4199  21.5418      402.884   1853.9639  28.25     1.085     0.882   0.1493        551     55.39294
