#   1 KRON_RADIUS            Kron apertures in units of A or B                         
#   2 Y_IMAGE                Object position along y                                    [pixel]
#   3 MAG_BEST               Best of MAG_AUTO and MAG_ISOCOR                            [mag]
#   4 FLUX_BEST              Best of FLUX_AUTO and FLUX_ISOCOR                          [count]
#   5 X_IMAGE                Object position along x                                    [pixel]
#   6 THETA_IMAGE            Position angle (CCW/x)                                     [deg]
#   7 A_IMAGE                Profile RMS along major axis                               [pixel]
#   8 B_IMAGE                Profile RMS along minor axis                               [pixel]
#   9 MAGERR_BEST            RMS error for MAG_BEST                                     [mag]
#  10 NUMBER                 Running object number                                     
#  11 FLUXERR_BEST           RMS error for BEST flux                                    [count]
 3.87     54.0606  20.0695     1556.649     63.4906  10.24     5.079     4.642   0.1293          1     185.4044
 0.00     17.6089  99.0000    -136.8267    984.8857 -88.11     4.179     1.842  99.0000          2     96.19543
 0.00     18.7909  99.0000    -80.34534     91.0583 -77.68     1.665     1.590  99.0000          3     56.55421
 0.00     15.4372  99.0000    -3.269043   1445.5699 -58.56     1.765     1.663  99.0000          4     59.75788
 0.00      7.7679  99.0000     -65.0011   1469.4524 -68.75     0.745     0.449  99.0000          5     49.21456
 0.00      4.5160  99.0000    -102.2406    145.3089  44.41     1.257     0.896  99.0000          6     51.97637
 7.14     10.4944  25.8551     7.550049   1183.4982  44.88     0.503     0.497   5.3168          7     36.96346
 3.50     60.5870  22.8356     121.8295   1078.2454  78.89     2.101     1.994   0.6283          8     70.48656
 7.81     14.3362  23.5997       60.271    839.6812  45.80     0.572     0.336   0.6190          9      34.3509
 0.00     25.5086  99.0000     -12.8031    367.0246 -44.58     1.386     1.224  99.0000         10     47.28382
 3.96     17.9751  26.8377     3.054321    384.0876  -6.21     1.065     0.750  11.8881         11     33.43471
 3.50    182.7325  23.2944     79.84338   1107.3342 -33.02     5.842     5.048   2.5557         12     187.8999
 0.00     24.5880  99.0000    -101.6649    383.1618  87.82     1.000     0.715  99.0000         13      66.1692
 7.77     35.5278  22.1925     220.2909   1110.5074  83.69     1.018     0.640   0.3059         14      62.0522
 0.00     34.3293  99.0000    -175.9263    326.4466 -55.26     1.064     0.824  99.0000         15     64.26465
 0.00     38.8936  99.0000    -71.06433   1521.2977  57.82     1.154     0.680  99.0000         16     49.84152
 5.84     39.8461  23.0250      102.333   1170.4801  -0.97     0.941     0.732   0.5053         17     47.61105
 0.00     45.8528  99.0000    -89.80005    440.1219 -39.18     1.403     1.002  99.0000         18     65.46149
 0.00     43.2799  99.0000     -78.9928    915.3459 -44.82     1.174     0.700  99.0000         19     30.52157
 3.50     80.9598  21.2759     512.4503    537.4124 -67.89     2.020     1.918   0.1446         20     68.24831
 0.00     40.5038  99.0000    -3.557129   1225.9862 -32.64     0.782     0.319  99.0000         21     31.52255
 6.55     51.1657  25.0392     16.00696    265.9854  36.65     0.939     0.465   2.9528         22     43.52224
 0.00     51.0299  99.0000    -52.64343   1435.2108 -33.32     0.788     0.497  99.0000         23     38.60708
 6.80     49.3377  24.2422     33.35303   1233.6754  45.58     0.575     0.334   0.9428         24     28.95531
 0.00     75.9613  99.0000    -83.30835    127.6706  65.46     1.365     1.260  99.0000         25     44.57961
 0.00     82.8388  99.0000    -152.7251    421.4473 -51.35     1.212     0.808  99.0000         26       56.279
 0.00     91.5345  99.0000    -208.0653    376.7948 -74.03     1.886     1.573  99.0000         27     86.86592
 3.50    122.5929  24.8958     18.26794    788.9210 -57.93     2.107     1.961   4.1640         28     70.04463
 0.00     97.3432  99.0000     -174.432     55.9943  -9.78     1.501     1.385  99.0000         29     51.97637
 0.00     92.9185  99.0000    -30.93164    495.8493  75.14     1.341     0.684  99.0000         30     57.91062
 0.00     98.7693  99.0000    -282.6975    452.5781 -24.86     1.703     0.981  99.0000         31     77.61527
 4.43     96.5883  25.8824     7.363037   1075.8324  21.36     0.766     0.435   3.7664         32     25.53618
 0.00    114.3489  99.0000    -22.86047    270.3333 -45.61     0.584     0.329  99.0000         33      35.6811
 7.06    117.8673  22.7737     128.9745     66.8318  46.85     0.748     0.562   0.3812         34     45.27081
 0.00    118.7044  99.0000     -51.1366    990.6282 -41.71     0.576     0.332  99.0000         35     26.13712
 0.00    118.5058  99.0000    -39.85181    154.4909  45.33     0.502     0.498  99.0000         36     40.18352
 4.24    235.9001  20.7484     832.9908    403.1562 -56.45     6.429     5.300   0.3186         37     244.3633
 3.50    194.4204  24.4258     28.16394    317.8754 -62.51     2.391     2.159   3.0159         38     78.21309
 3.50    163.1395  23.2196     85.53809   1468.1359 -60.49     1.999     1.918   0.8519         39      67.1012
 5.04    132.4922  23.8768     46.69763    418.0420   0.54     0.804     0.500   0.7331         40     31.52255
 0.00    171.1363  99.0000    -8.242188    877.1224 -68.32     1.766     1.710  99.0000         41     59.75788
 5.36    147.2958  24.1223     37.24756    353.1507 -30.05     0.879     0.605   1.1256         42     38.60708
 0.00    152.5081  99.0000    -7.102295   1279.9960  -1.46     0.803     0.500  99.0000         43     41.70041
 0.00    172.3745  99.0000    -40.81787    325.0115 -64.12     1.467     1.346  99.0000         44      67.1012
 0.00    165.8674  99.0000    -38.34778   1445.5350  -0.27     1.320     1.134  99.0000         45     43.52224
 4.17    167.5935  23.6315     58.53503    104.3067 -28.86     1.173     1.010   0.8141         46     43.87753
 0.00    170.4302  99.0000    -8.870239   1368.2188 -47.27     1.080     0.717  99.0000         47     44.22997
 5.71    169.4399  25.8041     7.913696    651.5150 -35.83     0.503     0.493   3.8993         48     28.41404
 0.00    181.2359  99.0000    -60.15369    574.8821  23.27     1.275     0.773  99.0000         49     43.87753
 0.00    193.3881  99.0000    -32.07446   1350.3933 -35.33     1.357     1.132  99.0000         50      53.1578
 0.00    186.9876  99.0000    -49.43848   1354.0366 -74.11     0.796     0.783  99.0000         51     65.69823
 3.72    211.5532  23.7311     53.40198    827.4822  -7.29     3.936     1.949   2.0555         52     101.0751
 3.50    207.5034  24.3337     30.65698    548.9205 -81.30     1.549     1.369   1.7434         53     49.21456
 7.58    196.0324  24.8820      18.5011    267.5382  56.83     0.765     0.324   2.2662         54     38.60708
 4.87    229.8139  99.0000    -19.66553    414.8996 -19.48     1.967     1.652  99.0000         55     41.32641
 0.00    211.4506  99.0000      -3.3573    684.4574 -82.33     1.680     1.042  99.0000         56     46.95431
 4.07    209.4233  21.4821     423.7924    349.7025  43.13     1.598     1.217   0.1470         57      57.3719
 0.00    204.3587  99.0000    -19.95276    250.6058 -42.34     0.981     0.848  99.0000         58      32.0113
 0.00    212.9739  99.0000    -77.65125   1305.9009  53.84     1.403     1.346  99.0000         59     46.28826
 4.51    231.0750  19.0556     3960.441    562.2184  -9.41     3.381     2.852   0.0379         60     138.0799
 3.50    204.4280  25.7749     8.128906   1498.4841 -36.27     0.505     0.489   2.5789         61     19.30354
 0.00    205.7527  99.0000    -3.143555    937.2287 -19.28     0.855     0.346  99.0000         62      37.7942
 0.00    224.5217  99.0000    -125.2638   1225.8657 -53.97     1.548     1.416  99.0000         63     52.27423
 0.00    260.5782  99.0000    -157.4822    997.2145 -60.88     2.174     2.033  99.0000         64     72.22723
 3.50    266.7132  22.9972     104.9825     67.3777 -78.85     2.116     1.998   0.7292         65     70.48656
 5.20    223.1785  22.5387     160.1455    345.6050 -22.38     1.579     1.463   0.5250         66     77.41497
 0.00    223.2261  99.0000     -51.2168    774.7524 -19.32     1.202     1.068  99.0000         67     39.40318
 0.00    219.2476  99.0000    -95.67346    740.7268 -18.84     0.845     0.353  99.0000         68     39.00716
 4.32    244.2684  23.0482     100.1691    112.8208  77.16     2.123     1.544   0.8328         69     76.81094
 4.49    256.2215  22.8205     123.5328    612.7909 -37.89     2.503     1.802   0.8299         70     94.40332
 6.09    239.9036  19.7262     2135.652    838.4949 -37.93     1.369     1.007   0.0361         71     70.92573
 5.00    240.0472  27.3834     1.847778   1478.8186 -53.93     0.940     0.464  19.0970         72      32.4927
 0.00    313.2080  99.0000    -105.6141    439.2092 -58.52     2.401     2.209  99.0000         73     79.59053
 6.70    252.6677  19.6960     2195.838   1372.6152 -44.30     1.226     0.877   0.0339         74     68.47543
 6.94    251.4614  26.1591     5.706299    107.4959 -45.23     1.084     0.836  12.4584         75     65.46149
 5.43    254.3471  23.2041     86.77002   1352.5072   0.00     0.868     0.476   0.4411         76     35.24328
 3.50    288.3375  22.6255     147.8444   1486.2755 -55.67     1.869     1.782   0.4649         77     63.29089
 3.50    282.7324  23.0526     99.76343   1522.1934 -43.42     1.561     1.489   0.5787         78      53.1578
 0.00    271.2609  99.0000     -49.4696   1273.5472 -11.08     1.161     0.926  99.0000         79      71.3622
 3.57    290.6129  24.3119     31.27917    514.7311 -61.03     1.859     1.552   2.0927         80     60.27528
 0.00    319.4862  99.0000    -77.79187    905.2509 -61.70     2.069     1.942  99.0000         81     69.15231
 3.50    303.9936  22.3940     182.9713    201.5941 -73.78     1.829     1.708   0.3668         82     61.80148
 5.16    297.8686  21.6133      375.576   1413.5083 -39.26     2.150     1.549   0.2687         83     92.91134
 3.56    294.7549  20.1158     1491.748   1327.3584 -23.02     1.400     1.322   0.0351         84     48.25885
 3.50    352.2489  21.9511     275.1359   1345.7200 -52.96     2.313     2.158   0.3032         85     76.81094
 0.00    352.2323  99.0000    -75.89026    890.5778 -52.57     2.350     2.174  99.0000         86     78.21309
 0.00    294.2966  99.0000    -19.41235   1475.4912 -66.12     1.171     0.977  99.0000         87      64.9854
 3.50    302.8696  25.9641     6.829346    563.5292  64.37     1.321     1.261   6.9209         88     43.52224
 0.00    322.8518  99.0000    -26.80066    697.1324 -67.39     1.711     1.657  99.0000         89     57.64189
 6.40    309.7060  23.2534     82.91443     85.4069 -81.45     1.983     0.885   1.1045         90     84.32649
 0.00    322.1810  99.0000    -73.38025    641.0074 -76.22     2.195     1.269  99.0000         91     82.08734
 4.49    328.1170  20.3131     1243.804    595.2689 -50.18     1.627     1.559   0.0625         92     71.57944
 0.00    317.8036  99.0000    -19.68445    226.3809 -71.76     0.752     0.447  99.0000         93     30.00857
 0.00    347.0935  99.0000     -7.80957    866.9109 -38.15     1.821     1.669  99.0000         94     63.53572
 5.35    332.8581  23.5384     63.77173     93.4377  -7.83     1.068     0.836   0.8645         95     50.76745
 4.20    330.3324  26.0186     6.494873   1545.6162  -6.15     0.994     0.631   5.5124         96     32.96707
 0.00    335.7877  99.0000    -42.40833   1440.3218 -48.97     0.986     0.855  99.0000         97     40.56806
 3.79    356.5633  22.8819     116.7437    431.6613 -76.63     1.957     1.739   0.6391         98      68.7018
 0.00    350.8575  99.0000    -60.16553     54.4747 -39.25     1.290     1.224  99.0000         99     42.80281
 5.14    348.6108  22.8653     118.5466     42.2829 -59.05     0.983     0.545   0.3462        100      37.7942
 0.00    368.9762  99.0000    -84.22107    760.8817 -55.02     1.739     1.636  99.0000        101      57.3719
 7.08    351.1112  25.9301     7.046021    920.2661 -17.72     0.939     0.676   8.5457        102     55.44519
 3.50    362.0320  22.5139     163.8427   1500.1698  10.15     1.428     1.398   0.3199        103     48.25885
 3.61    368.2886  24.8630     18.82727    442.6443 -44.79     1.606     1.455   3.1494        104     54.59865
 6.16    353.6877  23.9170     44.99731    350.3493  43.36     0.575     0.334   0.6589        105     27.29933
 0.00    396.0084  99.0000     -76.5282    231.2756 -59.51     2.003     1.932  99.0000        106      67.1012
 0.00    360.5867  99.0000    -121.7885    533.2850  21.62     1.031     0.915  99.0000        107     60.53232
 3.53    361.4968  25.5318     10.16882   1033.7421 -34.22     1.094     0.910   3.6200        108      33.8959
 5.96    363.8832  24.6305     23.32336   1415.6968 -78.20     1.038     0.416   1.7977        109     38.60708
 3.50    373.7502  23.9749     42.66162    992.1270 -58.62     1.191     1.021   0.9516        110     37.38114
 4.95    373.9765  25.5933     9.609131   1083.8434 -45.30     1.443     1.000   6.6052        111     58.44437
 0.00    369.9420  99.0000    -28.90991    210.5096  87.58     0.786     0.499  99.0000        112      37.7942
 0.00    371.1455  99.0000    -48.74292     71.4292 -16.36     1.204     0.716  99.0000        113     60.78827
 0.00    376.9810  99.0000    -197.0422    753.9877  38.43     1.723     0.867  99.0000        114     79.78536
 3.50    397.8752  21.7451     332.6401   1461.0035 -57.54     1.678     1.607   0.1837        115       56.279
 5.17    376.6144  25.3776     11.72083     86.3840  23.01     1.364     0.457   3.7232        116     40.18352
 3.50    398.9585  22.9610     108.5455    354.4046 -56.82     1.759     1.641   0.5927        117     59.23597
 5.97    380.9103  23.8133     49.50793    125.6369 -22.70     0.902     0.682   1.0227        118     46.62247
 3.64    394.5150  23.2085     86.41663   1088.6681 -16.65     1.553     1.372   0.6569        119     52.27423
 0.00    420.3994  99.0000    -23.49255    433.1460 -57.35     1.997     1.878  99.0000        120     66.86942
 3.50    416.4439  23.2958     79.73767    837.1794 -67.30     1.895     1.794   0.8720        121      64.0226
 5.36    390.0044  26.7062     3.447632   1195.2917  85.80     0.739     0.674  11.5104        122     36.54101
 6.62    390.2305  24.3998     28.84448    260.4030  71.18     0.744     0.452   1.4074        123     37.38114
 4.81    397.2771  24.6584      22.7323    977.5050 -21.24     1.103     0.780   2.1130        124     44.22997
 0.00    397.9344  99.0000    -76.92041    626.5070  15.77     1.528     0.795  99.0000        125      66.1692
 3.50    440.8153  24.4451      27.6676    305.5588 -50.74     1.189     1.082   1.5466        126     39.40318
 6.01    407.6977  24.0573     39.54431    281.6329 -82.40     1.007     0.467   1.1452        127     41.70041
 7.28    415.6719  24.1188     37.36743      2.5615  28.95     1.141     0.754   1.5785        128     54.31354
 7.80    404.5128  24.3157     31.16943    526.8889  -1.99     0.784     0.499   1.6814        129     48.25885
 0.00    425.0124  99.0000    -5.195435    926.1458 -46.76     1.635     1.521  99.0000        130     54.59865
 0.00    461.8470  99.0000    -6.610474    807.3679 -54.81     2.148     2.048  99.0000        131     72.44187
 7.26    413.7131  23.8477      47.9624   1562.2982 -60.78     1.155     0.451   1.1701        132     51.67679
 3.50    438.7642  23.5411     63.61487    251.9271 -54.88     1.813     1.728   1.0464        133     61.29697
 0.00    421.8596  99.0000    -53.36462    158.7295  50.88     1.660     1.444  99.0000        134     74.96967
 5.46    412.6987  26.0683     6.204224    199.3263  43.64     0.560     0.342   4.2517        135     24.28975
 9.12    415.3152  23.7448      52.7334    558.6304  42.89     0.584     0.328   0.7951        136     38.60708
 6.12    419.5396  25.2884     12.72424   1203.5216  13.28     1.222     0.608   4.4868        137      52.5704
 3.50    433.6358  23.7267     53.61987   1421.9036 -17.73     1.428     1.337   0.9709        138     47.93604
 6.05    427.7109  22.6480     144.8118   1179.3110  20.69     1.296     0.986   0.5067        139     67.56239
 5.64    420.6244  26.4085     4.535034   1579.7715  17.88     0.757     0.446   7.7810        140      32.4927
 7.11    424.8950  22.5265     161.9497   1063.8502 -46.61     0.815     0.670   0.3525        141      52.5704
 0.00    431.8513  99.0000    -74.84375    717.7710 -64.55     0.930     0.895  99.0000        142      62.3019
 0.00    434.9498  99.0000    -56.36829    151.0015  25.47     1.154     0.980  99.0000        143     51.97637
 0.00    468.5386  99.0000    -451.7295    850.1890  22.22     7.442     1.903  99.0000        144     165.8682
 3.51    451.1122  20.2767      1286.24     21.1382 -39.37     1.703     1.572   0.0480        145     56.82808
 5.35    446.1109  25.6608     9.030029    122.1262 -32.70     1.653     1.204   9.0659        146     75.38273
 7.20    434.6680  24.4914     26.51099    353.3013  46.61     0.562     0.341   1.2293        147     30.00857
 3.57    448.0235  24.5865     24.28857    884.3464  -1.26     2.252     1.419   2.8189        148     63.04509
 0.00    458.6750  99.0000    -8.199829     34.3958 -60.50     1.679     1.537  99.0000        149     55.72452
 0.00    444.1706  99.0000    -10.29333    654.5854 -70.39     0.757     0.448  99.0000        150      31.0261
 0.00    464.5988  99.0000    -38.74731    468.4730 -73.92     1.596     1.441  99.0000        151      52.5704
 4.28    453.8176  23.7410     52.91724   1533.1399  37.42     0.790     0.678   0.6469        152     31.52255
 5.10    461.9113  21.3225     490.9261   1096.1396  54.35     1.156     1.063   0.1239        153     56.00245
 3.50    472.0582  22.2302     212.7765    254.1115 -72.83     1.524     1.321   0.2496        154     48.89806
 0.00    462.3787  99.0000    -51.93701    724.6503 -28.34     1.116     0.728  99.0000        155     45.61248
 7.22    457.7005  20.3867     1162.354   1223.6603 -42.96     0.565     0.339   0.0285        156     30.52157
 0.00    472.9619  99.0000    -199.8442    734.7728 -38.58     1.496     1.347  99.0000        157     48.89806
 0.00    478.7596  99.0000    -91.14978    922.8173 -35.41     1.544     1.447  99.0000        158     51.67679
 0.00    478.7934  99.0000    -78.54382   1276.8331 -53.38     1.380     1.256  99.0000        159     50.76745
 4.44    476.5136  24.7152     21.57397   1168.0371 -89.76     0.813     0.676   1.6356        160      32.4927
 0.00    533.7934  99.0000    -273.0167    518.6295  28.40     4.107     3.566  99.0000        161     161.0236
 3.50    484.9557  22.4546     173.0459   1070.4277 -66.11     1.365     1.226   0.2798        162     44.57961
 0.00    473.4778  99.0000    -32.62988    781.5225  45.02     0.505     0.494  99.0000        163     40.18352
 4.94    496.9649  24.0937     38.24109     82.5904  56.28     2.338     2.068   3.0522        164     107.4776
 5.19    489.7222  23.3013      79.3407    839.5610  85.43     1.974     0.945   0.9588        165     70.04463
 0.00    496.5237  99.0000    -65.15845   1186.6776 -15.91     2.961     1.842  99.0000        166     94.40332
 0.00    481.6935  99.0000     -15.5376   1309.1306  71.28     0.894     0.694  99.0000        167     36.54101
 0.00    479.8593  99.0000    -45.66382    682.6145  17.68     1.030     0.720  99.0000        168     30.52157
 5.99    481.6788  23.7120     54.35229   1520.4889  -0.10     0.921     0.467   0.7714        169     38.60708
 3.50    513.2880  19.8048     1986.473   1302.2382 -66.23     1.839     1.727   0.0642        170     117.4457
 0.00    505.2572  99.0000    -167.1637    763.0609  35.25     1.787     1.614  99.0000        171     62.55061
 3.50    516.2645  23.3618     75.04089   1460.9927  24.44     4.349     1.624   1.3325        172     92.07201
 0.00    502.7133  99.0000    -44.51855    863.5478  86.67     1.248     1.114  99.0000        173     41.32641
 3.50    498.6334  25.4731     10.73389    366.2104 -49.91     1.014     0.951   3.4294        174      33.8959
 0.00    502.3745  99.0000    -53.42114   1310.0952 -19.71     1.173     0.897  99.0000        175     39.40318
 4.28    514.1793  20.7363     842.3391   1310.0308  82.91     1.494     1.427   0.0898        176      69.6459
 0.00    514.5804  99.0000    -9.733276   1179.1089 -56.89     1.341     1.068  99.0000        177     40.18352
 5.57    510.5956  23.0304     101.8197    164.3583  -2.33     2.204     1.004   0.8715        178     81.70818
 0.00    520.3478  99.0000    -40.14917    641.4071 -66.00     1.226     0.908  99.0000        179     43.52224
 8.37    511.4778  24.6310      23.3136    453.4842  44.04     0.503     0.496   1.8718        180     40.18352
 3.50    519.1760  23.9362     44.20996   1518.8837  43.20     0.828     0.669   0.6273        181     25.53618
 3.50    588.6913  23.1691     89.60742   1315.8531 -46.59     2.329     2.162   0.9455        182     78.01432
 0.00    521.5092  99.0000    -64.29822    854.4668 -59.60     0.500     0.498  99.0000        183     40.18352
 4.34    541.0020  22.6671     142.2832    999.7307 -58.21     1.569     1.410   0.4868        184     63.77962
 4.50    536.8311  23.6250     58.88464    404.4706  47.38     1.380     0.681   0.7894        185     42.80281
 6.50    545.6520  23.7404     52.94641    933.8276  70.97     1.235     0.753   1.2830        186     62.55061
 3.50    631.9619  22.9410     110.5634    483.1478 -47.23     2.858     2.668   0.9369        187     95.38501
 3.70    559.8239  22.8851     116.4023   1041.5421 -18.76     1.577     1.488   0.5276        188     56.55421
 0.00    573.4060  99.0000    -21.46802   1242.7255 -48.70     1.761     1.644  99.0000        189     58.97329
 0.00    597.4254  99.0000    -482.1757    782.7070 -83.48     3.545     3.355  99.0000        190     152.8112
 4.22    571.6400  22.5085     164.6598     45.6350  59.09     1.992     1.404   0.4620        191     70.04463
 0.00    556.2180  99.0000    -11.66748    778.7782  45.57     0.804     0.683  99.0000        192     30.52157
 3.50    581.4234  23.9901     42.06885    144.8262 -85.18     1.779     1.649   1.5087        193     58.44437
 3.50    572.2832  22.1546     228.1268   1448.0365  21.10     2.736     1.688   0.3549        194     74.55432
 3.95    565.5809  23.6807     55.93945    139.6900 -53.99     1.148     1.009   0.8023        195     41.32641
 3.50    582.9928  24.1745      35.4967    318.9863 -39.14     1.741     1.667   1.7799        196      58.1781
 0.00    563.6564  99.0000    -21.69348    905.5596   5.49     1.049     0.627  99.0000        197     51.07236
 5.58    575.7251  22.1946     219.8688   1336.6144 -63.76     1.448     1.293   0.3703        198     74.96967
 6.82    576.9731  22.7256     134.8165   1001.5249 -66.98     1.399     1.121   0.6837        199     84.87705
 0.00    585.4980  99.0000    -28.78381     75.9934  34.12     1.282     1.160  99.0000        200     42.43853
 0.00    576.2507  99.0000    -57.61731    549.0676  -3.84     0.664     0.432  99.0000        201     30.00857
 0.00    579.6700  99.0000    -2.855225    740.6813 -45.54     0.569     0.338  99.0000        202      32.4927
 4.02   1002.4446  22.6164     149.0811   1555.2887 -75.10     1.475     1.318   0.4039        203     55.44519
 4.61   1597.9525  22.8086     124.9033    655.1014 -32.85     1.793     1.294   0.5173        204      59.4975
 0.00   1595.9124  99.0000    -259.4888    374.0342  41.13     1.272     1.258  99.0000        205     65.69823
 0.00   1594.0922  99.0000    -59.50513   1384.9441 -19.49     1.473     0.518  99.0000        206     58.97329
 0.00   1592.8507  99.0000    -23.02722    567.1038  41.77     0.836     0.671  99.0000        207     51.97637
 3.51   1571.3456  22.6235     148.1144     92.7359 -46.28     1.463     1.342   0.3585        208     48.89806
 3.50   1523.4841  24.3510     30.17212     14.4994  44.62     0.509     0.490   0.6948        209     19.30354
 0.00   1515.7332  99.0000     -56.1886    392.7216 -44.48     1.718     1.630  99.0000        210     58.97329
 0.00   1516.1362  99.0000    -42.54053   1547.0354  59.82     1.454     1.004  99.0000        211     65.22388
 0.00    952.6561  99.0000    -31.03699    886.7118 -47.95     0.561     0.340  99.0000        212     27.86226
 0.00    950.6980  99.0000    -20.99524    267.9047  28.11     0.947     0.863  99.0000        213     31.52255
 0.00    948.7698  99.0000     -22.7345    445.2767  -8.36     1.064     0.910  99.0000        214     33.43471
 3.50    947.9496  24.9954     16.66663    133.2829  89.95     0.730     0.666   1.5827        215     24.28975
 0.00    939.9116  99.0000    -9.866333   1067.0671 -40.96     1.543     1.337  99.0000        216      52.5704
 0.00    942.2944  99.0000    -26.70605    725.6536  42.39     0.565     0.339  99.0000        217      32.4927
 0.00    939.1722  99.0000    -33.75293    515.9601  26.90     1.278     0.921  99.0000        218     79.19942
 3.50    930.5093  23.6040     60.03625   1178.4397 -63.94     1.809     1.764   1.1088        219     61.29697
 5.70    933.8318  23.5522      62.9696   1118.5709  12.09     0.875     0.614   0.7062        220     40.94899
 7.04    933.5328  24.6153     23.65222   1027.5371  45.25     0.516     0.481   1.5352        221     33.43471
 4.76    929.1013  24.8405     19.22168   1322.4060 -85.48     1.407     1.267   3.5480        222     62.79834
 6.25    926.4553  24.9584     17.24353    665.7037 -88.92     0.928     0.456   2.6027        223     41.32641
 8.62    926.6777  24.0348     40.37207    934.3347  44.43     0.573     0.336   1.0055        224     37.38114
 0.00    926.6449  99.0000    -18.54272     46.6976 -47.40     0.572     0.335  99.0000        225      20.8502
 6.33    919.9985  26.5077     4.139282   1027.5399  56.68     0.762     0.323   8.2704        226     31.52255
 8.42    918.4757  24.8954     18.27393    252.9750  32.09     0.796     0.313   2.3881        227     40.18352
 0.00    913.5744  99.0000    -26.33643    838.4932 -17.32     1.372     1.256  99.0000        228     58.44437
 4.51    913.3035  23.9142      45.1134   1000.9104 -11.44     1.225     0.979   1.1694        229     48.57951
 0.00    908.4130  99.0000    -68.82605    658.8084 -20.19     0.749     0.447  99.0000        230     48.25885
 5.80    905.2918  22.6161     149.1285   1315.1288  40.86     1.390     0.833   0.4445        231     61.04315
 3.50    901.2191  22.9041     114.3827    302.8273 -74.09     1.691     1.589   0.5343        232       56.279
 3.50    882.8359  18.9747     4266.983    183.6337 -36.29     4.129     3.698   0.0344        233     135.3544
 4.11    879.3942  21.4831      423.401    224.3853 -89.82     7.579     1.983   0.4038        234     157.4156
 5.48    886.6755  22.2107     216.6287   1304.8312  69.25     1.659     1.272   0.3961        235     79.00314
 8.04    889.4891  25.5310     10.17651    680.4579  50.42     0.503     0.495   4.2882        236     40.18352
 4.55    896.9634  23.3347     76.93713    538.7819  -3.00     2.098     1.525   1.1262        237     79.78536
 0.00    886.5468  99.0000     -74.6217   1500.5457   3.01     1.461     1.296  99.0000        238       56.279
 0.00    885.8094  99.0000    -3.573364    339.2329 -50.57     1.330     0.893  99.0000        239     46.95431
 0.00    879.0529  99.0000    -8.866943   1177.1078  78.38     1.941     1.680  99.0000        240     105.1408
 4.58    878.3823  24.0023      41.5968    960.6887  83.41     1.256     1.192   1.4402        241     55.16446
 0.00    879.8236  99.0000    -23.36548    673.3711   4.42     0.996     0.374  99.0000        242     42.43853
 4.95    877.6362  26.1900     5.546143    541.8445 -68.79     0.889     0.666   7.4006        243      37.7942
 0.00    870.1768  99.0000    -143.7933   1103.6156 -61.56     2.074     1.779  99.0000        244     84.14217
 3.50    860.0833  22.5819      153.897   1224.4911 -47.68     2.319     2.159   0.5435        245     77.01282
 0.00    868.6845  99.0000    -106.8025    939.5432  25.12     1.995     1.411  99.0000        246      87.9318
 5.10    870.6064  26.5025     4.159058    643.5370 -54.39     1.037     0.813  12.1739        247     46.62247
 0.00    889.3626  99.0000    -149.4127    325.6322  17.18     1.630     1.281  99.0000        248     55.72452
 7.64    867.6809  25.0618     15.67798    454.3147  45.23     0.563     0.341   2.2507        249      32.4927
 0.00    892.3138  99.0000    -6.931885   1453.3175 -44.80     0.562     0.341  99.0000        250     19.30354
 8.00    898.5093  24.0549     39.63318    987.5135  45.27     0.505     0.495   1.1011        251     40.18352
 0.00    881.0706  99.0000    -82.01477   1592.5045 -66.40     2.127     1.980  99.0000        252     71.57944
 0.00    900.5183  99.0000    -4.186035    379.4817 -45.00     0.511     0.488  99.0000        253     27.29933
 4.33    860.3961  24.4402     27.79175   1157.4747  -1.20     1.415     1.294   2.2734        254      58.1781
 6.61    861.1950  23.1446     91.65662   1554.1703  42.07     0.759     0.567   0.5157        255     43.52224
 4.62    859.2386  21.7880     319.7444   1339.8370 -46.16     1.590     1.265   0.2199        256     64.74604
 4.33    894.8569  22.5014     165.7441   1425.8367 -39.54     1.211     1.023   0.3098        257     47.28382
 0.00    856.4521  99.0000    -62.70374    545.3185  83.02     1.014     0.653  99.0000        258     31.52255
 6.69    845.8800  23.8846     46.36243   1206.5642  85.17     1.807     1.294   2.3676        259     101.0751
 4.64    845.9662  22.5523     158.1606   1063.6742  89.16     1.197     1.105   0.3589        260     52.27423
 0.00    847.6516  99.0000    -68.82825    358.7094 -47.94     0.564     0.339  99.0000        261     36.11361
 4.01    844.1765  23.0423     100.7083   1106.0085  18.02     1.649     1.396   0.6472        262     60.01714
 5.35    838.6929  23.2850     80.53845   1247.0768 -32.77     2.123     1.570   1.3036        263     96.67842
 0.00    837.3973  99.0000    -54.54846    298.6949 -26.40     1.378     1.249  99.0000        264     45.27081
 5.57    837.5710  22.1556     227.9084   1520.2875   7.21     0.957     0.484   0.1840        265     38.60708
 0.00    836.5140  99.0000    -2.147461    819.0198  -0.57     1.082     0.929  99.0000        266     43.16402
 3.50    823.7377  23.5267     64.46289    654.3710 -54.11     1.702     1.624   0.9665        267      57.3719
 5.65    820.7242  23.9872     42.17932   1398.2626 -45.46     1.033     0.755   1.2671        268     49.21456
 6.21    819.5537  22.7552     131.1926    702.4227  75.71     0.930     0.814   0.4448        269     53.73878
 3.50    803.8622  22.4858      168.141   1378.6096 -21.73     1.740     1.702   0.3809        270     58.97329
 3.50    799.2562  25.3103     12.46985    695.5490 -86.67     2.594     1.857   6.5651        271     75.38273
 3.50    801.5494  25.4488     10.97729     41.1097 -47.21     1.556     1.367   5.0225        272     50.76745
 0.00    786.3645  99.0000   -0.1694336   1348.2412  16.84     0.742     0.450  99.0000        273     20.09176
 4.73    774.9242  21.9355     279.1167   1427.4871 -80.02     2.969     2.204   0.4640        274     119.2557
 3.50    767.5738  25.0199     16.29504    391.7379 -67.87     1.399     1.279   3.1072        275     46.62247
 6.61    768.5201  23.2373     84.15125    140.3967 -55.99     1.096     0.753   0.7712        276     59.75788
 8.06    759.9716  23.4873     66.84509   1020.4913  57.79     0.794     0.314   0.6528        277     40.18352
 8.05    758.7314  23.5265     64.47473   1341.6193 -19.11     0.999     0.595   1.0282        278     61.04315
 7.71    755.4391  21.2786     511.1627    195.3306  50.93     1.281     0.507   0.1313        279     61.80148
 6.87    754.6496  23.7576     52.11475    433.6602 -45.40     0.587     0.327   0.6034        280     28.95531
 0.00    753.2500  99.0000    -45.55615   1080.7517 -18.40     0.867     0.354  99.0000        281     44.92654
 3.94    743.5427  22.8772     117.2566    556.2998 -21.20     1.383     1.282   0.4814        282     51.97637
 0.00    724.9424  99.0000    -26.74109    404.7045 -46.93     2.406     2.206  99.0000        283     79.59053
 0.00    738.9064  99.0000    -12.94543   1157.9508   1.73     1.220     1.143  99.0000        284     57.10064
 0.00    736.8120  99.0000    -58.11682    649.5158 -57.46     1.284     1.211  99.0000        285     70.48656
 0.00    727.4276  99.0000    -59.61877    848.3037 -42.83     2.120     2.006  99.0000        286     70.92573
 4.33    728.2363  22.8718     117.8341   1178.2656 -71.71     1.497     1.275   0.5459        287     59.23597
 6.81    740.3104  25.5944     9.599243   1272.3551 -43.06     0.576     0.333   3.2758        288     28.95531
 6.41    722.1498  22.9207     112.6447   1394.6674  67.01     1.174     1.065   0.6880        289      71.3622
 0.00    716.7179  99.0000    -92.33264    808.2800 -58.15     1.484     1.251  99.0000        290     54.31354
 0.00    709.5805  99.0000    -42.04016   1163.7408  10.74     1.443     1.381  99.0000        291     72.86926
 4.50    704.9365  22.2960     200.2611   1339.0225 -35.32     1.746     1.681   0.4121        292     75.99811
 3.50    707.9461  25.0701     15.55811    794.6355  86.27     0.715     0.646   1.6038        293     22.97581
 3.92    703.4935  23.3704     74.44446    952.2862 -18.86     1.625     1.545   0.8979        294     61.54974
 4.48    699.7203  25.4720     10.74438    582.8018   2.02     1.869     0.964   6.0138        295      59.4975
 5.28    692.6083  24.1425     36.55878   1213.5952  57.54     1.506     1.276   1.7871        296     60.16186
 0.00    687.6442  23.1061     94.96571   1213.6564 -40.15     1.307     0.976   0.5334        297     46.64192
 0.00    693.6906  99.0000    -20.81409   1316.2979  45.71     0.551     0.345  99.0000        298     19.30354
 0.00    692.8769  99.0000    -70.54138    316.1330  48.88     0.828     0.663  99.0000        299     43.52224
 4.67    684.0256  22.2417     210.5349    472.4936  52.83     2.910     2.718   0.6717        300     130.2095
 0.00    686.2902  99.0000    -45.25635    644.0512  42.53     1.531     1.435  99.0000        301     52.27423
 0.00    688.1401  99.0000    -32.86768    130.8793  46.46     0.805     0.656  99.0000        302     24.28975
 0.00    682.3370  99.0000    -36.58948    543.4663 -63.27     2.121     1.519  99.0000        303     81.32726
 0.00    673.8572  99.0000     -48.7865    231.1585  61.85     1.162     0.421  99.0000        304     36.96346
 6.74    669.7614  24.4360     27.90039   1221.3247 -22.02     0.974     0.859   2.3859        305     61.29697
 0.00    667.3170  99.0000    -53.43018   1180.0011   2.17     0.731     0.668  99.0000        306     45.61248
 3.50    649.1271  21.7961     317.3516   1464.2974 -58.66     2.075     1.942   0.2382        307      69.5999
 4.97    655.4444  22.9788     106.7756    870.9727   6.69     1.205     1.054   0.5611        308     55.16446
 3.50   1551.7955  23.9192     44.90894   1221.6729 -32.21     1.026     0.978   0.8307        309      34.3509
 0.00    646.8544  99.0000    -50.86462    652.7488  27.70     0.962     0.824  99.0000        310     36.54101
 0.00    640.5812  99.0000    -116.4471    536.7190 -68.30     1.775     1.691  99.0000        311     60.01714
 7.03    642.0137  22.6071     150.3728    276.5096 -87.93     0.787     0.499   0.3117        312     43.16402
 5.15    631.7795  23.3643     74.86169    805.9449 -67.46     1.254     1.124   0.8669        313     59.75788
 0.00    629.6339  99.0000    -20.10022    941.6058 -21.03     1.042     0.326  99.0000        314     26.72454
 0.00    624.2540  99.0000    -330.4171   1581.3296 -24.63     1.442     1.261  99.0000        315     73.08202
 0.00    619.1545  99.0000     -146.144   1151.0912  43.65     1.117     0.934  99.0000        316     70.48656
 7.27    616.4916  24.4759      26.8938   1234.5254 -74.41     0.500     0.499   1.4926        317     36.96346
 7.54    610.1631  24.4338     27.95654    944.9097  41.60     0.839     0.661   2.1209        318     54.59865
 3.50    608.4720  24.3597     29.93176   1011.9153   4.20     0.785     0.497   0.8087        319     22.28981
 3.50    606.2894  21.2003     549.3964    586.0947 -31.41     1.357     1.343   0.0915        320     46.28826
 0.00   1562.1376  99.0000    -8.395752    861.4935   5.33     1.262     1.158  99.0000        321     40.94899
 0.00   1529.5508  99.0000    -81.27551    733.3308  32.68     1.023     0.681  99.0000        322     49.84152
 0.00    589.1851  99.0000    -32.60559   1139.4061  71.47     0.742     0.454  99.0000        323     28.41404
 0.00   1566.7651  99.0000    -187.7238    784.6982 -84.12     1.821     1.377  99.0000        324     78.01432
 0.00   1581.9138  99.0000    -40.26465   1414.7047  68.45     1.253     0.472  99.0000        325     43.52224
 3.51   1553.5024  21.9857     266.5021    682.1384 -29.96     4.698     3.910   0.6034        326     148.0637
 3.50   1585.7356  26.6839     3.519165   1108.8071 -45.53     1.410     1.206  13.8641        327     44.92654
 3.50   1564.5630  23.4758     67.55811    304.2780 -45.84     1.966     1.875   1.0637        328      66.1692
 0.00   1542.6790  99.0000    -20.50293    135.1462 -57.03     1.585     1.524  99.0000        329     54.02692
 0.00   1576.4824  99.0000    -51.45935   1491.4977  44.73     0.516     0.483  99.0000        330     36.96346
 0.00   1586.8705  99.0000    -53.91479   1069.2076 -26.32     0.977     0.733  99.0000        331     29.48664
 0.00   1558.8706  99.0000    -112.8118    487.7123 -43.24     1.943     1.876  99.0000        332     65.69823
 0.00   1562.9105  99.0000    -25.63647   1566.5850 -28.67     1.434     0.440  99.0000        333     27.29933
 0.00   1565.3141  99.0000    -2.819946    386.6744  64.22     0.775     0.483  99.0000        334     48.57951
 3.50   1567.4845  18.4691     6797.568     22.0536 -35.09     1.501     1.336   0.0080        335     49.84152
 0.00   1546.9426  99.0000     -25.1731    863.4279  79.12     1.442     1.277  99.0000        336     46.95431
 0.00   1536.6472  99.0000     -27.3595   1429.4083 -57.98     1.567     0.952  99.0000        337     51.07236
 3.80   1543.5000  22.5637     156.5038    654.6492 -44.43     1.543     1.391   0.3828        338     55.16446
 0.00   1477.6925  99.0000    -11.60388    198.6753 -44.09     0.562     0.341  99.0000        339      34.3509
 0.00   1533.0137  99.0000    -16.25696    415.7943 -28.03     1.657     1.117  99.0000        340      62.0522
 4.87   1519.6189  23.9649     43.05847     84.3914  80.11     1.501     0.882   1.3771        341     54.59865
 0.00   1502.3057  99.0000    -1.194458   1412.6653  43.54     0.566     0.339  99.0000        342      32.4927
 5.85   1525.2084  30.4088    0.1138916    378.9753  80.66     1.380     0.702 544.4764        343     57.10064
 0.00   1539.6632  99.0000    -2.409546    263.3266  45.45     0.576     0.334  99.0000        344     28.95531
 7.05   1527.5273  22.0573     249.5013    878.5313  49.71     0.500     0.498   0.1475        345      33.8959
 0.00    951.5252  99.0000    -106.0448    654.1403  78.51     2.123     1.347  99.0000        346        95.71
 6.67   1504.6394  25.1799     14.06128   1312.1968 -60.46     1.233     0.361   3.4160        347     44.22997
 0.00   1508.0370  99.0000    -96.02258    269.3830 -51.48     1.875     1.773  99.0000        348     63.04509
 6.75   1521.7552  24.8854     18.44373   1100.5942 -83.82     0.997     0.482   2.6857        349     45.61248
 0.00   1515.3909  99.0000    -68.78333    483.6699 -45.90     1.145     1.021  99.0000        350     43.52224
 5.57   1499.2957  23.3909     73.05017    844.5074  14.72     1.147     0.828   0.8032        351     54.02692
 0.00   1497.3391  99.0000    -37.34119    930.6786  45.79     0.575     0.335  99.0000        352     33.43471
 0.00   1504.9111  99.0000    -81.45459    723.3754 -14.58     1.267     1.119  99.0000        353     60.53232
 5.01   1483.2747  22.9641     108.2317    575.1030 -33.51     1.906     1.010   0.6894        354      68.7018
 0.00    977.4967  99.0000    -33.69397   1280.5354  84.64     0.500     0.499  99.0000        355     27.29933
 4.78    953.0150  26.5703     3.907471     61.2813 -34.44     1.174     0.434   9.2925        356     33.43471
 5.50    979.2097  24.0536     39.67957    452.6703  73.39     1.079     0.952   1.4943        357     54.59865
 5.78    982.8316  27.1519     2.286865   1487.1891 -47.73     0.766     0.557  17.5534        358     36.96346
 0.00    972.4925  99.0000    -74.78931   1499.4553 -53.16     0.502     0.495  99.0000        359     39.79527
 0.00   1489.0807  99.0000    -88.95386     77.8819 -75.41     0.962     0.688  99.0000        360     53.44908
 0.00   1476.3274  99.0000    -128.6041    998.5892  -9.60     1.603     0.944  99.0000        361      66.1692
 4.69    987.5121  24.6380     23.16309    453.9747  88.37     1.715     1.484   3.4562        362     73.71661
 0.00    965.8497  99.0000    -13.97791    416.2971 -35.18     1.233     0.947  99.0000        363     37.38114
 0.00   1479.4890  99.0000    -14.36523    638.4839  46.79     0.501     0.499  99.0000        364     19.30354
 0.00   1439.3828  99.0000    -42.22437   1271.1970  84.54     1.095     0.914  99.0000        365     53.44908
 3.50    985.6581  25.1428     14.55005    558.4474 -60.54     1.860     1.774   4.6501        366      62.3019
 3.50    998.9910  23.5471     63.26562    233.2787 -18.29     1.047     0.720   0.5151        367     30.00857
 0.00    981.6761  99.0000    -14.97583    797.9857 -22.91     1.536     1.395  99.0000        368     83.77232
 0.00   1407.2278  99.0000     -23.8468    329.8878  77.17     1.283     1.109  99.0000        369     57.10064
 0.00   1453.8417  99.0000    -57.52307    391.7621  21.98     1.190     0.813  99.0000        370     56.00245
 0.00   1060.6309  99.0000    -45.28638    726.9678  18.85     1.586     1.368  99.0000        371      62.3019
 5.67    993.0269  24.6853     22.17542    500.0000  90.00     0.838     0.289   1.3088        372     26.72454
 0.00   1065.3551  99.0000    -25.19666    292.5060  -0.67     0.931     0.478  99.0000        373     34.79995
 0.00    992.5980  99.0000    -65.41357      9.8381  20.92     0.779     0.432  99.0000        374     36.54101
 0.00   1063.8134  99.0000    -77.05481      7.4519 -49.92     1.309     0.988  99.0000        375     39.40318
 5.81   1439.4318  23.7673     51.64966    646.8270  47.40     1.087     0.718   1.0675        376     50.76745
 0.00   1436.1301  99.0000    -143.8881    224.7948 -34.44     1.604     1.459  99.0000        377     53.44908
 3.50   1440.6519  23.6731     56.33057    619.1653   9.05     1.445     1.337   0.9366        378     48.57951
 3.50   1084.5770  25.0755     15.48169     43.0163  33.22     1.129     1.014   2.5929        379     36.96346
 0.00   1450.7783  99.0000     -47.2218     88.3631 -73.90     0.748     0.452  99.0000        380     47.61105
 0.00   1386.5995  99.0000    -5.230835   1274.1162 -79.55     1.184     0.678  99.0000        381     31.52255
 0.00   1073.9574  99.0000     -61.4646      6.6659 -10.48     1.253     1.042  99.0000        382     39.40318
 0.00   1435.2332  99.0000    -141.5825   1090.4421 -47.26     2.094     1.972  99.0000        383     70.70648
 0.00   1432.6862  99.0000    -85.35107    341.5507  -7.52     1.510     1.030  99.0000        384     89.85308
 6.66   1069.3281  22.8360     121.7892   1182.6630  44.61     0.577     0.334   0.2582        385     28.95531
 0.00   1416.2998  99.0000    -12.20483   1386.6493  19.76     1.425     1.377  99.0000        386      53.1578
 0.00   1389.6022  99.0000     -18.2688   1428.5128 -35.92     1.644     1.588  99.0000        387     55.72452
 4.22   1437.3093  23.2883     80.29272   1347.0366  73.00     1.028     0.724   0.4826        388      35.6811
 3.50   1067.5095  25.0477     15.88318    568.8696 -74.17     1.051     0.731   2.1214        389      31.0261
 0.00   1079.9409  99.0000    -39.29846    330.0615 -62.65     1.125     0.943  99.0000        390     45.95161
 0.00   1393.0532  99.0000    -23.93188   1038.7660  36.71     1.381     1.366  99.0000        391     47.28382
 0.00   1066.6592  99.0000    -83.57898   1597.1162  36.70     1.159     0.981  99.0000        392     42.43853
 0.00   1072.8472  99.0000    -36.90527   1219.1344 -71.81     2.172     1.586  99.0000        393     96.51769
 0.00   1414.8446  99.0000    -51.28369      1.3369  76.87     1.069     0.416  99.0000        394      35.6811
 0.00   1420.1652  99.0000    -8.674316   1126.3615 -58.87     1.926     1.752  99.0000        395     63.77962
 0.00   1360.4252  99.0000    -134.7128   1135.0798  85.51     6.676     5.131  99.0000        396     124.7283
 7.40   1079.6525  24.8528     19.00635    921.6893 -46.67     0.573     0.335   1.8012        397     31.52255
 0.00   1412.1393  99.0000    -67.73523    350.1120  23.37     1.424     1.101  99.0000        398      69.5999
 0.00   1409.1057  99.0000    -1.008667    308.4276  -7.76     1.523     1.467  99.0000        399     51.67679
 3.50   1367.0492  22.6118     149.7158   1159.7756 -48.42     3.323     3.056   0.8013        400     110.4696
 0.00   1162.6458  99.0000    -0.270752    887.7574 -42.33     1.404     1.128  99.0000        401     42.80281
 4.68   1096.1305  23.6188     59.21936   1526.4138 -79.64     1.384     1.254   1.1334        402     61.80148
 5.79   1401.4601  24.1549     36.14526   1031.5901  46.87     1.406     1.196   2.2212        403     73.92693
 3.50   1394.2668  24.2169     34.13892    114.4738 -48.42     2.040     1.936   2.1927        404     68.92742
 6.46   1389.5433  21.9961     263.9707    806.6446   0.13     0.949     0.941   0.2480        405     60.27528
 4.13   1391.2551  22.6517     144.3151    713.2373  26.66     1.497     1.456   0.4555        406     60.53232
 6.13   1388.2180  24.6482     22.94739   1384.9540   1.83     0.696     0.413   1.5602        407     32.96707
 5.41   1388.9937  24.2926      31.8385   1584.7758 -89.72     0.686     0.417   0.9877        408     28.95531
 5.53   1380.3506  27.5237     1.623779    318.5949  -4.36     1.034     0.628  29.8153        409     44.57961
 8.31   1094.4969  24.1330     36.87964    429.0226  -2.01     0.796     0.500   1.5393        410     52.27423
 0.00   1371.3206  99.0000    -14.38403    705.8511 -32.13     1.214     0.408  99.0000        411     40.94899
 0.00   1371.5497  99.0000    -6.133667   1215.7539  21.02     0.718     0.456  99.0000        412     21.58201
 0.00   1353.2751  99.0000    -56.47412    152.0077  17.83     1.231     1.094  99.0000        413     87.22266
 9.28   1157.6599  23.8395     48.32776    568.3308  45.39     0.579     0.332   0.8943        414     39.79527
 3.50   1105.3257  22.5042     165.3158    751.8358 -44.66     1.770     1.620   0.3874        415     58.97329
 3.50   1373.4700  23.6222     59.03516   1018.9562 -23.41     1.815     1.707   1.1276        416     61.29697
 7.83   1260.4321  21.2282     535.4432   1015.6125  58.28     1.971     1.064   0.1193        417     58.82039
 5.52   1294.2798  24.2622     32.74451    742.2533  72.75     1.481     1.308   2.5070        418     75.58841
 3.50   1292.2153  25.2065     13.72192    762.1052 -25.95     2.162     1.723   5.3106        419      67.1012
 0.00   1369.4689  99.0000    -37.26941    149.4737  17.40     0.499     0.499  99.0000        420      37.7942
 0.00   1131.8344  99.0000    -100.6152    359.0297  34.13     1.138     1.043  99.0000        421     74.96967
 0.00   1130.7366  99.0000     -56.0929    183.5802 -57.92     1.787     1.711  99.0000        422     60.53232
 5.31   1331.2352  22.6941     138.7957    386.9082   1.03     1.306     0.996   0.4655        423      59.4975
 0.00   1139.3163  99.0000    -98.28125    148.0981 -46.09     1.899     1.811  99.0000        424     64.26465
 4.94   1346.4969  23.6896     55.48181    605.5798 -50.92     1.185     0.774   0.9319        425     47.61105
 0.00   1308.3901  99.0000    -47.19006    669.6346 -12.17     1.506     1.500  99.0000        426     61.29697
 0.00   1333.5925  99.0000    -69.79016    107.4225 -28.91     1.327     1.156  99.0000        427     62.79834
 0.00   1090.0750  99.0000    -81.51489    642.4633 -46.35     1.578     1.413  99.0000        428     52.27423
 3.50   1320.9133  23.3542     75.56372    659.9951 -43.03     1.941     1.824   0.9408        429     65.46149
 0.00   1331.2213  99.0000    -133.0781   1139.4135 -89.82     1.767     1.445  99.0000        430     80.36704
 0.00   1320.0242  99.0000    -11.11047    264.0417 -45.50     1.309     1.038  99.0000        431     62.55061
 3.93   1330.7634  19.9277     1773.908    655.8417   4.85     1.684     1.650   0.0563        432     91.97202
 0.00   1278.8961  99.0000    -66.56714   1331.4630 -56.91     1.622     1.533  99.0000        433     59.23597
 0.00   1305.5667  99.0000    -46.83142    892.8640  77.78     1.231     1.139  99.0000        434     45.27081
 0.00   1245.3409  99.0000    -85.13672    614.2117  55.72     1.066     0.800  99.0000        435     49.52903
 3.50   1299.2703  21.2510     524.3231    724.8672 -47.60     2.192     2.053   0.1531        436     73.92693
 4.36   1308.5709  21.4739     426.9974   1036.2755 -36.97     2.662     1.897   0.2463        437     96.83888
 8.09   1307.6787  24.2015     34.62476    574.6574 -44.07     0.576     0.334   1.1327        438     36.11361
 0.00   1273.5858  99.0000    -179.5385    610.0049 -58.39     4.226     2.471  99.0000        439     123.9792
 4.25   1300.2339  24.1617     35.92017     54.0051 -29.97     1.122     0.858   1.2608        440     41.70041
 3.85   1263.1622  24.3792     29.39709    215.8559 -41.55     0.728     0.565   0.9206        441     24.92076
 5.39   1292.0193  24.9570     17.26562    545.9752 -45.38     0.899     0.525   2.1889        442     34.79995
 0.00   1293.9078  99.0000    -80.45825    412.7370  23.44     1.287     1.129  99.0000        443     40.94899
 0.00   1260.2809  99.0000    -23.71643    432.4522 -61.87     1.924     1.810  99.0000        444     79.59053
 6.02   1278.3990  23.1264     93.20801    343.4074  -1.19     0.918     0.658   0.5354        445     45.95161
 0.00   1274.1146  99.0000    -46.35583    698.3151 -74.17     1.243     0.866  99.0000        446     54.59865
 0.00   1158.6622  99.0000    -5.484131    186.2973  47.11     0.563     0.340  99.0000        447     36.54101
 3.50   1266.2653  23.6220     59.04761    807.8691 -34.50     1.553     1.437   0.9559        448     51.97637
 0.00   1213.6493  99.0000    -149.0083   1429.3060  77.16     2.725     2.083  99.0000        449     132.6899
 5.86   1238.9690  23.7577      52.1095    857.0435 -50.04     0.811     0.782   0.9647        450     46.28826
 0.00   1131.0317  99.0000    -156.9476    219.3827 -20.53     1.568     1.132  99.0000        451      66.1692
 3.76   1235.1206  22.8250     123.0287    304.8844 -70.00     1.601     1.472   0.5016        452     56.82808
 6.60   1230.6104  25.2107     13.66858    599.0931  13.10     1.561     1.462   7.8454        453     98.74409
 0.00   1203.8763  99.0000    -163.8615   1075.5712  37.43     2.022     1.572  99.0000        454     90.54163
 3.50   1238.0283  23.3369     76.77661   1553.5206 -12.61     1.431     1.370   0.6917        455     48.89806
 3.66   1243.3585  22.9478     109.8739    672.6531 -75.48     1.362     1.197   0.4575        456     46.28826
 0.00   1222.2170  99.0000    -125.1903    995.1972 -29.50     6.401     5.215  99.0000        457     199.9881
 0.00   1211.9683  99.0000    -26.43933    829.0000  90.00     0.845     0.289  99.0000        458     26.72454
 0.00   1215.4215  99.0000     -29.6875    513.0118 -59.01     1.744     1.692  99.0000        459     58.70942
 0.00   1154.6307  99.0000    -30.87146   1353.0853 -56.52     1.612     1.412  99.0000        460     68.92742
 3.50   1219.7524  15.1811     140468.7   1195.0623  47.81     1.918     1.903   0.0005        461      66.1692
 5.03   1229.3567  23.0995     95.54614   1153.9326 -13.34     1.229     0.989   0.6238        462     54.88228
 0.00   1208.4735  99.0000    -38.14099    838.8270 -35.35     1.394     1.273  99.0000        463     45.95161
 0.00   1195.7808  99.0000    -52.35791    124.2719  85.27     1.875     1.703  99.0000        464     92.57652
 4.55   1205.1183  23.2186     85.62024   1217.1880 -44.51     0.858     0.657   0.4357        465      34.3509
 0.00   1262.9902  99.0000     -19.0144    855.3846   0.11     1.019     0.768  99.0000        466     42.43853
 4.38   1202.6338  25.2461     13.22961    339.0765 -83.95     1.516     1.396   5.1955        467     63.29089
 4.00   1238.4276  23.3033      79.1886     48.1247 -11.79     1.158     0.950   0.5719        468     41.70041
 0.00   1028.6923  99.0000    -6.435669    463.6869 -44.70     0.557     0.343  99.0000        469     24.28975
 3.50   1211.5623  22.7434      132.625   1279.0439  81.01     5.652     3.475   1.2571        470     153.5208
 0.00   1182.5493  99.0000     -292.683    176.5511   8.16     1.425     0.969  99.0000        471     65.22388
 0.00   1159.2971  99.0000    -42.82532    970.3315 -43.15     0.560     0.341  99.0000        472     24.28975
 4.80   1183.5492  23.3976     72.60217    673.2097 -21.31     1.027     0.930   0.6974        473     46.62247
 4.30   1130.0508  24.8819     18.50317    547.4385 -65.12     1.184     1.024   2.6771        474     45.61248
 3.52   1152.1665  25.2716     12.92249     99.4363  -5.07     1.309     1.208   3.6874        475     43.87753
 0.00   1167.6770  99.0000    -71.72241   1599.3630  46.34     0.885     0.518  99.0000        476     39.40318
 3.50   1165.9740  24.4348     27.92957   1299.8141 -73.19     1.994     1.896   2.5820        477     66.40343
 4.29   1134.6660  22.4917      167.238    607.3837 -45.52     0.986     0.862   0.2584        478     39.79527
 3.70   1173.1541  21.6550     361.4005    757.8781 -78.56     3.576     3.345   0.3793        479     126.2133
 3.50   1152.4623  23.6617     56.92712    693.8153 -37.57     3.504     3.217   2.2121        480     115.9552
 6.77   1169.6912  24.1647     35.82031    385.3456  43.30     0.572     0.336   0.8779        481     28.95531
 3.50   1181.6404  23.5229     64.68872    549.2858 -17.70     1.166     0.942   0.5990        482      35.6811
 0.00   1158.6710  99.0000    -24.53882    236.4378 -45.47     1.660     1.640  99.0000        483     59.75788
 0.00   1197.1642  99.0000    -124.5715   1053.6813  19.67     0.936     0.685  99.0000        484     53.73878
 4.87   1201.8149  23.0150     103.2799   1442.1520 -87.53     1.659     1.491   0.7991        485     75.99811
 6.43   1178.4944  24.9079      18.0658   1597.7561  72.38     1.154     0.262   2.0920        486     34.79995
 0.00   1142.0636  99.0000    -11.90869    661.8563 -73.51     0.961     0.718  99.0000        487      58.1781
 0.00   1080.7614  99.0000    -115.0648    512.1377 -66.90     1.874     1.779  99.0000        488     62.79834
 0.00   1121.0293  99.0000    -207.3212    329.8812  58.47     2.566     1.726  99.0000        489     112.1434
 3.50   1108.1862  23.5308     64.22351    427.9433 -54.08     1.692     1.627   0.9609        490     56.82808
 0.00   1111.4923  99.0000    -43.17664    479.1404  -7.99     2.159     1.548  99.0000        491     96.67842
 0.00   1115.1155  99.0000    -7.766113    674.4976 -60.84     1.343     1.079  99.0000        492     62.79834
 0.00   1095.7281  99.0000    -60.85034    778.1761 -41.61     1.938     1.855  99.0000        493     65.69823
 5.17   1091.6051  23.2619     82.26978    468.4292 -68.10     1.906     0.987   0.9217        494     69.82262
 4.46   1105.9491  24.4040     28.73547    679.0923  38.97     1.516     1.082   2.1165        495     56.00245
 5.41   1095.1104  26.7214     3.399658   1136.4398 -85.66     1.091     0.933  17.2586        496     54.02692
 0.00   1082.6000  99.0000    -9.654785   1148.1749 -75.07     1.756     1.711  99.0000        497     59.75788
 5.58   1040.7959  24.2604       32.797    467.1765  60.45     1.002     0.638   1.4411        498     43.52224
 6.46   1085.8284  23.3231      77.7616   1452.5986  76.35     0.929     0.621   0.6784        499     48.57951
 0.00   1066.0032  99.0000    -89.06445   1562.7290 -64.61     2.578     1.374  99.0000        500     114.0652
 7.78   1020.1995  24.7421     21.04565   1267.6206  25.73     0.733     0.656   2.7431        501      53.1578
 5.27   1004.8460  24.4466     27.62939   1237.8386  49.76     0.764     0.567   1.3502        502      34.3509
 7.53   1052.5183  18.7872     5071.409    238.0324  26.05     1.259     0.570   0.0136        503     63.29089
 3.50   1030.9935  21.6207      373.015    302.5808  71.36     2.461     1.757   0.2090        504     71.79602
 5.74   1001.6425  24.7609     20.68469   1025.6887 -46.97     0.578     0.332   1.3084        505     24.92076
 0.00   1044.5297  99.0000    -6.899658    809.4821 -44.15     0.509     0.490  99.0000        506     40.18352
 0.00   1039.5049  99.0000    -96.18469    525.3945 -59.24     1.681     1.610  99.0000        507     57.91062
 8.77   1042.6610  23.5058     65.71826   1095.3132  46.21     0.571     0.337   0.6380        508     38.60708
 3.50   1024.3846  22.8780     117.1646     50.1910 -43.62     2.321     2.148   0.7194        509     77.61527
 0.00   1041.0366  99.0000    -102.8707    633.0386 -49.21     1.900     1.824  99.0000        510     64.74604
 3.50   1026.5739  22.3753     186.1599   1379.9857 -68.53     1.930     1.815   0.3777        511     64.74604
 5.52   1038.8489  29.7007    0.2186279    121.9955 -35.31     2.009     0.803 346.8329        512     69.82262
 0.00   1010.6155  99.0000    -95.92798    813.6567 -57.65     1.843     1.780  99.0000        513     61.80148
 0.00   1026.6541  99.0000    -16.03735   1028.6674 -45.54     0.582     0.330  99.0000        514     25.53618
 7.37   1038.3229  25.8447     7.622559    242.3527 -43.78     0.581     0.331   4.3485        515     30.52157
 5.53   1014.3884  23.0108     103.6754    453.2856 -71.18     0.977     0.589   0.4289        516     40.94899
 3.50   1012.0173  23.7450     52.72327    344.6626 -58.15     1.552     1.358   1.0520        517     51.07236
 4.00   1000.6549  24.2665     32.61499   1273.9332 -43.42     1.549     1.290   1.8462        518     55.44519
 3.68   1002.4809  23.4787     67.37561    542.4350  72.62     1.531     1.462   0.8615        519     53.44908
 5.95   1020.8218  24.2578     32.87561   1154.6001  71.58     0.761     0.450   1.1787        520      35.6811
 4.18   1011.5944  24.3623     29.85852    268.0587 -42.84     1.170     0.663   1.3444        521     36.96346
