#   1 KRON_RADIUS            Kron apertures in units of A or B                         
#   2 Y_IMAGE                Object position along y                                    [pixel]
#   3 MAG_BEST               Best of MAG_AUTO and MAG_ISOCOR                            [mag]
#   4 FLUX_BEST              Best of FLUX_AUTO and FLUX_ISOCOR                          [count]
#   5 X_IMAGE                Object position along x                                    [pixel]
#   6 THETA_IMAGE            Position angle (CCW/x)                                     [deg]
#   7 A_IMAGE                Profile RMS along major axis                               [pixel]
#   8 B_IMAGE                Profile RMS along minor axis                               [pixel]
#   9 MAGERR_BEST            RMS error for MAG_BEST                                     [mag]
#  10 NUMBER                 Running object number                                     
#  11 FLUXERR_BEST           RMS error for BEST flux                                    [count]
 4.06     54.7854  16.5301     40548.01     63.6141  10.86     5.365     4.865   0.0054          1     201.5104
 4.05     18.2135  18.8025     5000.509    984.9620 -89.85     4.237     2.095   0.0254          2     116.8546
 4.10     19.4714  19.2109     3432.616     91.2174 -50.22     1.811     1.786   0.0225          3      71.2709
 3.50     16.2576  18.1516     9106.975   1445.6405  10.92     2.069     1.951   0.0081          4     68.27317
 5.88      5.8206  22.2328     212.2614    145.2245  -0.38     1.171     0.700   0.2624          5     51.27777
 3.50     61.4063  16.4768      42587.7   1078.3906  60.70     2.429     2.331   0.0020          6     80.15064
 7.15     11.4045  23.0242     102.4009   1183.2152  19.09     0.760     0.448   0.4220          7     39.79474
 6.20     19.1504  21.5368     402.9739    384.5094   6.20     1.294     0.940   0.1774          8     65.82211
 6.18     26.2150  21.2225     538.2761    366.8643  22.57     1.520     1.277   0.1680          9     83.25911
 8.14     25.4828  23.7919     50.49182    382.6798  34.64     1.089     0.824   1.5948         10     74.14753
 6.45     36.5190  21.5551     396.2419   1110.6578 -49.38     1.297     0.966   0.1913         11     69.78813
 6.19     34.8937  21.5036     415.4778    326.7797  -6.17     1.759     1.173   0.2250         12     86.08225
 3.50     81.5333  16.5116     41244.73    537.4374  -8.76     2.426     2.341   0.0021         13     80.15064
 6.56     40.7101  22.8753      117.455   1170.5583  40.85     1.270     0.507   0.4741         14     51.27777
 5.84     40.0144  25.8076     7.888062   1521.2733  85.98     0.741     0.661   5.6317         15     40.90551
 5.97     44.3194  21.6012      379.786    915.1635 -57.45     1.037     0.830   0.1555         16     54.38829
 8.83     45.6943  23.7292     53.49487    440.3448  43.14     0.570     0.337   0.7688         17     37.87114
 3.86     76.6940  20.1585     1434.115    128.1458 -36.54     1.719     1.565   0.0465         18     61.35826
 6.39     91.3040  20.3414     1211.783    376.7011  59.93     2.277     1.590   0.1058         19     117.9997
 5.62     84.3886  21.1197     591.7065    421.1944 -71.75     1.543     1.097   0.1300         20     70.85042
 3.50    123.3941  16.0733     61757.43    788.9817   1.93     2.491     2.407   0.0015         21     82.53824
 4.29     98.1545  19.8313     1938.646     56.0174  -2.94     1.876     1.626   0.0404         22     72.10451
 6.22     99.8760  20.4548     1091.679    452.8296  11.32     1.469     1.252   0.0810         23     81.44497
 5.77     92.9685  22.0345     254.7975    495.7600  -1.84     0.890     0.757   0.1949         24     45.73375
 7.44    118.7651  23.7895     50.60693    990.2153  56.24     0.770     0.712   1.1433         25     53.27821
 7.94    118.3204  22.4860     168.1111    415.3350 -44.33     0.572     0.336   0.2233         26     34.57146
 3.50    163.8909  16.7149     34202.21   1468.2533 -12.36     2.297     2.242   0.0024         27      76.5272
 8.54    132.4837  21.2383     530.4708    418.0073   0.90     0.791     0.500   0.1050         28     51.27777
 3.62    171.7659  18.3179     7813.738    877.2239 -65.04     2.104     2.045   0.0102         29     73.13316
 5.02    152.7571  23.2931     79.93713   1280.5729  70.56     0.724     0.458   0.3713         30     27.33114
 3.53    167.9653  21.5475     399.0198    104.0224 -78.63     1.477     1.352   0.1314         31     48.27642
 6.26    166.7164  21.3720     469.0317   1445.8735  25.87     1.481     1.385   0.2009         32     86.77369
 6.54    161.5322  23.7853     50.80115    634.5322  45.00     0.509     0.489   0.6610         33     30.92166
 6.44    170.4764  21.5827     386.3027   1368.4977   1.76     0.962     0.894   0.1655         34     58.87308
 6.49    170.4273  22.3839      184.686    651.2307  19.56     0.769     0.448   0.2108         35     35.84446
 7.24    181.4357  20.9818     671.8506    575.3188  32.57     1.271     0.859   0.1185         36     73.33715
 5.24    194.1731  20.4053      1142.57   1350.5505 -52.42     1.469     1.346   0.0679         37     71.48021
 6.58    188.1913  21.3935     459.8342   1354.9642  38.80     1.031     0.844   0.1408         38     59.62951
 4.47    212.4319  18.8625     4731.484    827.3854 -12.54     4.254     2.183   0.0302         39     131.7576
 4.70    208.1951  20.0301      1614.28    548.9749 -54.46     1.677     1.562   0.0499         40     74.14753
 3.50    213.7668  20.0706       1555.1   1306.0121  -5.55     1.672     1.540   0.0378         41      54.1129
 5.56    232.0003  19.0514     3975.878    561.9341 -29.94     3.527     3.152   0.0490         42     179.5554
 3.50    267.4318  15.8073     78898.87     67.5887   4.05     2.519     2.455   0.0012         43     85.03456
 5.22    212.3623  20.9416     697.2253    684.2392 -21.57     1.588     1.414   0.1183         44     75.93927
 3.50    261.3217  15.3866     116246.3    997.3779 -21.97     2.507     2.488   0.0008         45     85.21007
 3.57    225.6275  19.9835     1684.965   1226.0277  56.39     1.639     1.513   0.0354         46     54.93492
 4.82    224.2253  21.4400     440.5349    774.7047 -64.76     1.485     1.273   0.1583         47     64.21365
 5.37    245.7519  20.2952       1264.5    112.9574 -84.19     2.268     1.820   0.0904         48      105.287
 4.73    256.7946  19.1855     3514.008    612.8154 -30.55     2.748     2.239   0.0352         49     113.7449
 6.37    240.4774  21.4089     453.3567    838.2289  -1.00     1.566     1.476   0.2241         50     93.56676
 6.42    253.0003  19.4431     2771.802   1372.7172 -71.85     1.388     1.020   0.0287         51     73.26839
 7.14    251.7136  21.3122     495.5855    107.6560 -47.45     1.285     0.961   0.1290         52     58.85526
 3.50    289.1075  17.4346     17626.56   1486.3608   1.53     2.188     2.127   0.0045         53     73.54058
 7.65    254.4976  22.5480     158.7767   1352.0000  31.85     0.805     0.311   0.2132         54     31.16784
 3.60    283.4612  19.1992      3469.91   1522.2333  52.35     1.853     1.816   0.0200         55     63.98056
 0.00    266.9816  99.0000    -36.11902    123.0000  90.00     0.858     0.289  99.0000         56     39.79474
 6.63    272.2898  21.8908      290.844   1273.7919   3.53     1.216     0.928   0.2557         57     68.49165
 3.50    304.5837  17.7252      13486.7    201.6434   9.84     2.209     2.162   0.0059         58     73.74345
 5.28    294.7334  20.7860      804.636   1475.5226 -23.87     1.490     1.372   0.0987         59     73.09332
 4.40    303.5009  20.9797     673.1869    563.4193 -19.54     1.662     1.501   0.1087         60     67.39219
 3.50    323.5641  18.1878     8808.221    697.2144  48.95     2.098     2.084   0.0087         61     70.85042
 8.21    294.2909  23.3863     73.36255    247.3220 -43.16     0.553     0.344   0.5118         62     34.57146
 8.21    309.9417  21.3469     479.9932     85.7309 -48.00     1.182     0.645   0.1564         63     69.14293
 5.55    322.5255  20.6855     882.6404    641.3193  77.65     1.952     1.534   0.1151         64     93.56676
 5.15    328.8730  19.8041      1987.65    595.4155 -35.20     1.939     1.713   0.0500         65      91.4675
 5.86    331.2283  22.0776     244.8788   1545.7670  43.51     1.148     0.833   0.2472         66     55.74481
 6.09    333.6950  22.2450     209.8977     93.5791  55.69     0.971     0.940   0.2953         67      57.0691
 5.25    351.3244  20.4223     1124.854     54.6837  61.37     1.405     1.282   0.0659         68     68.27317
 3.68    369.6347  18.1372      9228.52    760.9844  20.92     2.099     2.041   0.0087         69     73.74345
 3.50    396.6434  16.4088     45339.18    231.3520 -26.42     2.431     2.344   0.0019         70     80.52258
 4.58    362.7214  20.0755     1548.158   1500.1469   1.09     1.885     1.588   0.0538         71     76.72218
 0.00    362.1609  99.0000     -41.4917   1033.3594 -58.97     1.241     0.995  99.0000         72     70.63924
 6.42    376.5254  18.8900     4613.263    753.3805  48.83     1.997     1.131   0.0225         73     95.73367
 5.64    381.7092  21.2956     503.2319      1.5745 -88.36     2.138     0.633   0.1138         74      52.7144
 5.73    375.3517  21.6179     373.9617   1083.9893 -64.08     1.453     1.092   0.2033         75     70.00188
 6.92    371.3849  23.0319     101.6813     72.0737  -4.98     1.328     0.618   0.6395         76     59.87953
 7.68    370.4340  22.1628     226.4023    209.7979 -20.41     0.757     0.448   0.2098         77     43.72983
 3.50    399.6176  18.4702     6790.681    354.4628  17.25     2.015     1.927   0.0107         78     66.94735
 3.50    398.5452  18.6071     5986.461   1461.0853  -1.85     1.953     1.880   0.0116         79     64.21365
 5.48    384.9274  21.8790     294.0306     67.2584  84.64     1.574     0.663   0.1988         80     53.83611
 5.96    376.7703  22.8275     122.7391     87.0265   1.14     0.694     0.420   0.2693         81     30.43467
 6.77    382.1244  21.3611     473.7819    125.8206 -25.56     0.976     0.759   0.1320         82     57.59029
 4.02    395.3357  20.2600     1306.206   1088.6277  16.79     1.645     1.542   0.0514         83     61.84332
 7.53    397.2801  20.8196     780.0895    626.6414 -84.29     1.368     1.024   0.1203         84     86.42866
 6.06    413.7102  20.4983     1048.763      1.9376  88.84     2.794     0.912   0.0794         85     76.72218
 5.80    390.9907  23.1778     88.89404   1196.0000  90.00     0.849     0.289   0.3203         86     26.21511
 7.06    405.4550  21.3671     471.1464    526.5231  81.85     1.415     0.997   0.1877         87     81.44497
 3.50    462.6592  15.2730     129057.1    807.5481 -14.75     2.549     2.471   0.0007         88     85.73444
 3.50    439.4121  17.6256     14782.45    252.0300   6.63     2.198     2.152   0.0054         89     73.94577
 6.39    408.1780  21.6394     366.6552    281.9645  29.19     1.164     0.805   0.1751         90      59.1263
 5.73    422.2335  20.5829     970.1426    159.3221  51.63     1.823     1.388   0.0994         91      88.8157
 6.58    427.0642  21.6108     376.4197    299.6302  84.40     1.385     0.613   0.1691         92     58.61877
 7.34    419.4577  22.6821     140.3265   1204.3013  -8.30     1.015     0.481   0.3900         93     50.39614
 7.02    428.1476  21.6054     378.2919   1179.8237  43.93     1.268     1.091   0.2301         94     80.15064
 4.39    434.3699  20.5780     974.5681   1421.9888 -10.82     1.560     1.399   0.0641         95     57.52779
 8.46    424.2213  22.7712     129.2708    133.4180  71.45     0.751     0.455   0.4003         96     47.65348
 5.96    421.4902  23.3067     78.94092   1580.9540   2.68     0.778     0.499   0.4988         97     36.25886
 8.25    421.6680  21.8185     310.8822    136.3273  45.21     0.574     0.335   0.1238         98     35.42521
 7.29    425.5192  22.5191     163.0682   1063.4724  46.62     0.503     0.496   0.2415         99     36.25886
 8.39    431.2661  20.9353     701.2378    718.8472  67.24     1.078     0.508   0.0931        100     60.12851
 6.61    428.4362  19.0784     3878.247    432.8666  -1.42     3.052     0.580   0.0245        101     87.47547
 4.77    469.1457  18.3932     7289.627    850.1890  21.91     7.491     2.172   0.0278        102     186.7339
 4.02    451.8686  18.8936     4598.005     21.3246   5.41     2.100     1.955   0.0185        103     78.26448
 5.98    435.1284  21.1023     601.2687    151.0912  52.00     1.240     1.134   0.1245        104     68.92652
 5.40    441.5390  21.2320     533.5929    305.5747 -51.09     1.441     1.138   0.1367        105     67.17014
 5.43    446.8850  20.8685     745.7936    122.1028  85.16     1.505     1.355   0.1091        106     74.94915
 0.00    435.6659  99.0000    -22.66406    353.6778 -45.54     0.573     0.336  99.0000        107     27.87241
 3.92    459.3049  18.7816     5097.674     34.4913 -43.25     1.983     1.870   0.0156        108     73.13316
 8.32    445.0175  21.6250     371.5203    654.3727 -25.27     1.075     0.452   0.1637        109     56.01217
 3.68    465.1302  19.9447     1746.281    468.4329  46.31     1.735     1.537   0.0365        110     58.61877
 5.36    454.5111  22.9107     113.6893   1533.5862   2.60     0.992     0.775   0.4306        111     45.07568
 3.85    462.4621  22.4375     175.7998   1096.4276  13.24     1.424     1.022   0.2805        112      45.4059
 6.23    454.6659  24.0619     39.37781   1224.3201  45.65     0.572     0.336   0.7687        113     27.87241
 4.18    473.5636  19.6653     2258.884    734.7416 -32.28     1.675     1.672   0.0328        114     68.27317
 7.77    463.4885  21.0880     609.2372    723.9955 -62.96     1.225     0.497   0.1076        115     60.37647
 4.28    473.0175  20.1870     1397.071    254.3179   2.68     1.614     1.461   0.0497        116     63.98056
 3.50    479.3950  19.5442     2525.226    922.8692  50.14     1.739     1.690   0.0249        117     57.84912
 4.18    479.2153  20.7050     866.9487   1276.8652  88.29     1.667     1.470   0.0796        118     63.51184
 6.15    468.1647  22.0771     244.9929   1198.3262 -25.50     0.748     0.647   0.1845        119     41.62955
 4.99    489.4695  21.1333     584.3843    839.3799 -85.63     2.556     0.978   0.1433        120     77.11064
 5.00    497.6219  19.8344     1932.983     82.7204 -14.39     2.586     2.443   0.0685        121     121.8614
 4.48    497.1443  19.7945     2005.432   1186.5587 -19.24     2.871     2.197   0.0589        122     108.7766
 5.27    477.6234  22.8242     123.1151   1167.6362 -32.52     1.409     0.553   0.3976        123     45.07568
 3.50    485.5691  20.5222     1025.947   1070.7618 -13.29     1.529     1.376   0.0524        124     49.49881
 3.50    480.5318  22.1629     226.3715    682.5682 -19.27     0.922     0.768   0.1412        125     29.43654
 4.19    532.4379  17.5775     15451.93    518.7012  17.05     4.773     2.905   0.0085        126     120.7875
 5.92    483.2268  23.8188      49.2594   1309.2524  17.63     0.842     0.349   0.6710        127     30.43467
 7.04    490.9982  22.4249     177.8505    424.4974  57.39     0.783     0.319   0.2058        128     33.69609
 4.88    505.6880  20.3003     1258.612    762.6530  29.68     1.866     1.696   0.0729        129     84.50584
 6.07    499.2487  21.8152     311.8413    366.5008  48.61     1.260     0.822   0.2085        130     59.87953
 3.50    503.6251  21.4525     435.5229    863.6788  17.99     1.349     1.193   0.1056        131     42.34122
 4.09    516.8408  19.3308     3073.777   1461.1042  25.64     3.620     1.834   0.0362        132     102.4098
 6.42    511.4173  20.4939     1053.056    164.7969  15.76     2.143     1.304   0.1078        133     104.5751
 3.50    504.0078  26.6356     3.679321    442.7247 -86.66     0.742     0.697   7.0328        134     23.82674
 3.88    515.1553  20.9765     675.1418   1179.1432 -11.58     1.351     1.290   0.0801        135     49.79971
 3.70    520.8367  21.3792     465.9417    642.2778   1.63     1.390     1.164   0.1066        136     45.73375
 7.78    522.2990  22.0094     260.7573    854.1040 -68.91     0.955     0.691   0.2535        137     60.86934
 6.15    519.8758  24.1655     35.79407   1519.3197  20.54     0.920     0.674   1.4363        138     47.33893
 3.50    541.7062  20.2623     1303.426    999.6561 -28.16     1.600     1.510   0.0432        139      51.8572
 5.95    537.3939  22.1304     233.2548    404.2004  25.92     1.629     0.795   0.3065        140     65.82211
 3.50    560.4191  19.8600     1887.964   1041.6516  18.47     1.867     1.613   0.0340        141      59.1263
 4.94    572.7739  20.0744     1549.732     45.8521  54.85     2.131     1.762   0.0653        142     93.24687
 3.50    573.2246  20.0511     1583.236   1448.4399  29.55     2.441     1.841   0.0495        143     72.10451
 3.56    583.6990  18.2295     8476.549    319.1047  10.28     2.100     2.028   0.0091        144     70.85042
 3.50    582.1724  18.2117     8616.416    144.8971   4.15     2.088     1.978   0.0088        145     69.57373
 6.41    557.7811  22.4746     169.8822    778.6027  72.66     0.764     0.454   0.2291        146     35.84446
 4.04    598.1440  18.5430     6350.195    782.6210 -52.42     3.563     3.261   0.0228        147     133.2236
 5.76    566.2109  21.4407      440.257    139.6721 -56.27     1.261     1.043   0.1578        148     63.98056
 6.78    568.5834  24.6419     23.08032    633.2251 -19.07     0.738     0.455   1.7633        149     37.47458
 6.26    578.0512  21.7428     333.3308   1001.7804 -28.13     1.682     0.817   0.2301        150     70.63924
 5.30    586.1544  21.6038     378.8784     75.9674  -8.76     1.328     1.229   0.1880        151     65.59474
 3.95   1002.9375  19.5149     2594.383    542.3767  41.74     1.957     1.741   0.0295        152     70.42743
 4.10   1598.2117  21.1162      593.646    654.3484  -3.12     1.918     1.218   0.0985        153     53.83611
 3.70   1595.8204  21.8514     301.6063    373.5580  36.47     1.480     1.018   0.1623        154     45.07568
 6.34   1594.4935  23.9833     42.33447   1384.2332 -29.70     1.436     0.913   1.7903        155     69.78813
 4.80   1586.2162  20.7042     867.5823   1108.5291  10.82     1.709     1.419   0.0908        156     72.51772
 4.54   1567.9301  19.8269     1946.457     21.5654   3.80     1.823     1.751   0.0436        157     78.07336
 5.33   1567.0110  20.3171     1239.229    784.3434 -85.86     2.030     1.671   0.0832        158     94.99292
 5.50   1529.7546  23.9403     44.04382    733.4183 -70.72     0.745     0.453   0.7743        159     31.40109
 6.53   1516.6896  21.1376     582.0571   1546.3409 -54.01     1.328     1.063   0.1398        160     74.94915
 3.50   1508.4398  16.8934     29017.02    269.0288   0.55     2.425     2.347   0.0031        161     81.81102
 3.50    878.8604  21.5693     391.0857    960.9188 -38.71     1.204     1.126   0.1105        162     39.79474
 6.82    880.5679  22.1607     226.8313    670.7686  20.31     0.733     0.453   0.1794        163     37.47458
 8.15    878.4954  21.3987     457.6221    542.0081   1.12     0.795     0.500   0.1203        164     50.69172
 3.76    870.8542  19.5674     2472.008   1103.3297 -62.93     2.030     2.002   0.0322        165     73.33715
 4.19    868.9675  20.7590     824.9224    939.8438  48.58     1.862     1.435   0.0878        166     66.72382
 6.09    870.7626  22.2025     218.2826    643.2283 -45.21     0.935     0.438   0.1884        167     37.87114
 7.86    868.9410  23.1584     90.49719    454.3015  62.52     0.908     0.211   0.4097        168     34.13659
 3.50    861.9903  22.9649     108.1577   1554.1732 -54.13     0.917     0.472   0.2329        169     23.19124
 5.46    859.8583  21.4662     430.0386   1339.5820 -39.58     1.325     0.950   0.1118        170     44.25971
 8.49    857.5150  23.0362     101.2789    545.0230  31.94     0.801     0.312   0.4227        171     39.41753
 8.31    850.6460  23.7176     54.06909    363.3300  45.93     0.585     0.329   0.7115        172     35.42521
 3.50    845.9612  21.3258     489.4076   1063.7421 -67.28     1.311     1.128   0.0940        173     42.34122
 3.50    844.6611  20.6463     915.1465   1106.0945  26.42     1.757     1.491   0.0645        174     54.38829
 4.44    837.9795  20.1969     1384.268    298.8437  12.85     1.630     1.534   0.0530        175     67.61351
 6.13    838.5260  24.4706     27.02588   1520.5083  45.37     1.021     0.596   1.8895        176     47.02227
 5.37    836.8230  22.3821     184.9897    818.9592  62.38     0.944     0.770   0.2627        177     44.74301
 3.62    824.2859  18.6394      5811.01    654.3231  45.13     2.096     1.990   0.0134        178     71.68891
 6.99    820.6904  22.7679      129.672    779.6790 -44.39     0.561     0.341   0.2422        179     28.92456
 7.22    817.8287  22.8058     125.2218    878.2869 -18.00     1.042     0.570   0.4669        180     53.83611
 3.50    804.4239  18.7764     5122.019   1378.5775  24.08     1.936     1.900   0.0140        181     65.82211
 0.00    809.3416  99.0000    -20.07739    127.3259 -45.67     0.578     0.333  99.0000        182     18.93557
 3.50    799.8787  17.5713     15541.47    695.5512  86.21     2.757     2.179   0.0058        183     83.25911
 3.58    802.0164  19.6055     2386.765     41.0132  17.44     1.831     1.771   0.0289        184     63.51184
 7.78    796.0267  22.1626      226.443    295.5872 -68.21     1.214     0.528   0.2872        185     59.87953
 3.87    775.1727  19.5381     2539.492   1427.3771 -86.22     2.914     2.025   0.0391        186      91.4675
 6.20    768.8491  21.6785     353.6663    140.4927 -79.69     1.337     0.879   0.1986        187     64.67728
 7.79    755.8050  21.5585     395.0204    193.6100  79.93     1.782     0.711   0.2338        188     85.03456
 7.71    756.4966  22.7085     136.9609   1342.5267  47.36     0.504     0.495   0.3095        189     39.03668
 4.11    744.2446  20.2231     1351.305    556.2840 -43.37     1.635     1.517   0.0507        190     63.03962
 3.66    739.4138  21.4484     437.1597   1157.9685  25.22     1.297     1.181   0.1069        191     43.04113
 5.24    737.5421  21.1528     573.9491    649.6644  80.76     1.432     1.312   0.1312        192     69.35867
 3.50    727.9818  16.0749     61662.61    848.3533  27.94     2.439     2.389   0.0015        193     82.35703
 3.56    728.8088  20.7928     799.6139   1178.1919  49.30     1.448     1.410   0.0668        194     49.19606
 5.63    722.7590  22.0279     256.3477   1395.0338  -6.53     1.256     0.933   0.2505        195      59.1263
 4.08    717.3167  20.4709     1075.536    808.4107  61.40     1.710     1.557   0.0651        196     64.44588
 3.78    710.4251  20.5418     1007.539   1163.6281   5.38     1.532     1.420   0.0574        197     53.27821
 3.78    706.0970  20.4959     1051.111   1339.0608  -8.24     1.875     1.504   0.0796        198     77.08215
 3.50    704.2918  19.7272     2133.613    952.3771  34.75     1.750     1.664   0.0296        199     58.10681
 5.81    700.5426  20.9216     710.1681    582.6079 -11.30     1.762     1.130   0.1217        200     79.58949
 4.79    692.9648  20.9853     669.7015   1213.7378  25.14     1.489     1.239   0.1110        201     68.44155
 5.19    688.7861  21.3785     466.2385   1213.9966  36.08     1.381     1.095   0.1000        202     42.94693
 6.63    693.1641  20.5962     958.3028    316.0519  11.70     0.956     0.699   0.0489        203     43.15181
 3.86    686.8881  19.8600     1888.013    644.1539  11.80     1.785     1.628   0.0369        204     64.21365
 4.72    688.8412  22.0003      262.946    130.9188  89.98     0.907     0.746   0.1564        205     37.87114
 7.17    674.4924  23.0042      104.309    230.4652 -55.24     0.501     0.498   0.3775        206     36.25886
 4.37    656.2733  21.2090      544.985    870.9708 -80.68     1.445     1.068   0.1039        207      52.1445
 3.50    649.7219  16.0993     60296.38   1464.2932   7.81     2.369     2.331   0.0014        208     79.40156
 7.72    647.1572  21.1659     567.0723    653.2191 -18.86     0.953     0.671   0.1147        209     59.87953
 4.84    631.8602  21.0745     616.8531    806.0596  -7.26     1.448     1.352   0.1155        210     65.59474
 4.45    624.8701  20.8625     749.8674   1581.7686  -0.44     1.487     1.293   0.0860        211     59.37844
 6.88    619.7174  22.5096     164.4913   1151.3589  34.33     1.228     0.597   0.3785        212     57.33029
 7.52    610.6086  22.6681     142.1532    946.1575 -18.98     0.761     0.445   0.3262        213     42.69261
 3.70   1543.1177  19.3298     3076.601    134.8626  13.62     1.861     1.807   0.0232        214     65.59474
 5.31    593.5084  23.2730      81.4364    882.5082  70.91     0.982     0.405   0.4494        215     33.69609
 5.07   1562.5160  20.8714     743.7422    861.0878 -75.69     1.564     1.347   0.1041        216      71.2709
 3.50   1564.8943  16.2167     54116.02    303.8436  -8.00     2.493     2.394   0.0017        217     82.89946
 3.74   1553.8457  17.2150     21577.82    681.9242 -32.53     4.766     4.085   0.0080        218      159.554
 4.26   1571.7207  20.1848     1399.789     92.3905  85.35     1.728     1.660   0.0545        219     70.21497
 7.15   1564.3650  24.6351     23.22485   1565.6927  47.41     0.579     0.331   1.3765        220     29.43654
 4.36   1546.9213  21.1266     587.9617    863.0593  41.04     2.299     1.275   0.1332        221     72.10451
 7.63   1576.4641  22.2672     205.6365   1491.3174  89.38     1.251     0.465   0.2944        222     55.74481
 3.50   1559.3071  16.2209      53906.6    487.3318  -7.88     2.552     2.462   0.0017        223     84.85869
 6.09   1552.6818  24.4092     28.59802   1221.4905 -81.11     1.347     1.127   2.7616        224     72.72344
 4.39   1543.8602  19.8516     1902.717    654.2137  83.24     1.807     1.722   0.0428        225     74.94915
 7.54   1536.9376  23.0021      104.511   1429.6595 -25.77     1.278     0.620   0.6673        226     64.21365
 5.26   1491.4724  24.4242     28.20386   1494.5192 -44.31     0.508     0.491   1.0311        227     26.77894
 7.04   1534.2606  21.7356     335.5537    414.5703  -1.92     1.290     0.650   0.2025        228     62.56385
 6.03   1521.3392  22.4657      171.285   1100.1757 -40.25     1.603     0.651   0.3797        229     59.87953
 7.47   1524.0001  22.6782     140.8329     12.4902 -58.10     0.803     0.311   0.2796        230     36.25886
 7.92   1505.0269  22.8297     122.4962   1096.0140 -88.76     0.627     0.613   0.4025        231      45.4059
 3.50   1516.1572  18.4446     6953.011    392.2966   2.53     2.134     1.955   0.0108        232     68.92652
 4.57   1515.6066  22.1092     237.8574    483.5974 -43.91     1.128     0.919   0.2088        233     45.73375
 4.04   1505.4595  21.4089     453.3682    723.2294 -27.09     1.566     1.307   0.1316        234     54.93492
 5.59   1499.6895  22.2108     216.6115    844.0128   4.94     0.731     0.666   0.1899        235     37.87114
 3.71    887.1884  21.1070     598.6826   1499.8871 -10.50     1.355     1.271   0.0847        236     46.70348
 7.15    886.6302  21.6592     360.0303    339.9196   1.88     1.415     0.774   0.2181        237     72.31141
 5.64    898.9808  23.0953     95.91333    987.0000  90.00     0.857     0.289   0.2968        238     26.21511
 5.26    897.4250  20.3305     1224.058    538.4157  29.99     1.893     1.749   0.0820        239     92.44231
 7.61    890.4911  22.2802     203.1915    680.9788  32.19     0.795     0.314   0.2024        240     37.87114
 3.52    901.8569  18.6868     5562.829    302.6142 -40.12     2.039     1.990   0.0135        241     69.06651
 6.65    890.1083  20.6182     939.1005    326.2471  22.80     2.090     1.302   0.1231        242     106.4161
 8.32   1482.7103  21.2813      509.881    575.0491 -58.96     1.286     0.867   0.1830        243     85.90852
 5.89   1489.2261  21.5689     391.2332     77.9050 -85.23     1.275     0.721   0.1532        244      55.2062
 4.61    913.9817  21.0561     627.4222    838.4760  19.87     1.454     1.365   0.1095        245     63.27617
 5.31    913.9099  21.5756     388.8137   1001.2720 -17.83     1.204     1.096   0.1651        246      59.1263
 3.50    881.6281  15.5069     104046.8   1592.4189  77.84     2.525     2.456   0.0009        247     84.68245
 5.33    895.1293  21.9696     270.5021   1425.6117  22.24     1.332     0.901   0.2270        248     56.54311
 7.51   1438.3938  23.5237     64.64111   1495.2007  19.65     0.765     0.441   0.7173        249     42.69261
 6.70    940.1116  20.5465      1003.25    516.0169  52.85     1.572     1.142   0.0939        250     86.77369
 0.00    923.3138  99.0000    -53.54553    806.9643  65.58     1.705     1.570  99.0000        251     56.01217
 3.50   1409.5125  19.8175      1963.32    308.0300  26.47     1.859     1.658   0.0330        252     59.62951
 7.50   1476.4878  21.2856     507.8971    999.4863   0.19     1.041     0.500   0.1145        253     53.55788
 5.00    966.7556  21.5597     394.5757    416.5706 -75.97     1.190     0.957   0.1435        254      52.1445
 3.75    929.8041  20.8224     778.1045   1322.3405  46.82     1.571     1.384   0.0744        255     53.27821
 7.31    948.8851  21.4629     431.3661    444.5893  49.04     1.336     1.036   0.2078        256     82.53824
 6.94   1439.7006  23.2932     79.92908    647.3334  43.21     0.562     0.341   0.3859        257     28.40336
 5.30   1438.3149  22.7878     127.3099   1346.6786  44.67     0.564     0.340   0.1978        258     23.19124
 6.83    951.8928  20.5317     1017.023    654.4578 -83.83     1.279     1.030   0.0809        259     75.74229
 4.16    940.5596  20.0536     1579.715   1067.0040  57.78     1.746     1.480   0.0454        260     66.04869
 4.09   1441.0920  19.7473     2094.579    618.8486 -20.90     1.823     1.680   0.0361        261     69.57373
 3.50   1436.7382  16.2440     52772.15   1089.2109  43.69     2.526     1.821   0.0019        262     94.29115
 3.50   1411.7726  21.0369     638.5923    349.3116  62.13     1.880     1.195   0.0867        263     50.98558
 5.92   1439.8511  21.2596     520.1644   1270.9764 -20.06     1.330     0.943   0.1341        264     64.21365
 7.54   1089.9775  22.3123     197.2781    396.6888  78.15     0.741     0.678   0.2871        265      52.1445
 6.17    979.4700  21.6354     367.9908    452.2737  72.96     1.245     0.901   0.1482        266     50.21274
 3.73   1436.6449  19.3952     2896.683    224.4045  25.06     1.856     1.774   0.0245        267     65.36658
 3.50   1083.0808  18.2310     8464.644   1148.0122   4.62     2.075     1.992   0.0088        268     68.27317
 5.26   1401.7551  21.1685     565.6945   1031.5714 -10.37     1.665     1.429   0.1510        269     78.64533
 5.07   1067.0283  22.3106     197.5803   1596.9507 -16.17     0.796     0.782   0.2060        270     37.47458
 4.66   1416.6246  20.0450     1592.254   1386.4370 -19.31     1.742     1.548   0.0507        271     74.34875
 7.31   1434.0306  22.1846     221.9028    340.5226  88.05     0.823     0.499   0.2238        272     45.73375
 6.25   1413.2245  21.6957     348.1078      1.4409  87.35     1.953     0.489   0.1535        273     49.19606
 7.84   1087.7867  21.9125     285.1033    639.7502 -48.22     1.627     0.425   0.0972        274     25.52377
 3.50   1081.2955  16.8538     30095.08    512.0266   1.75     2.424     2.363   0.0029        275     81.44497
 6.20   1087.1072  22.2140     215.9802   1452.9968 -58.43     1.198     0.771   0.2896        276     57.59029
 6.44   1404.9912  22.8510     120.1201   1362.1821 -52.53     0.940     0.467   0.3860        277     42.69261
 3.50   1390.1338  18.4930     6649.359   1428.3429  24.43     2.015     1.981   0.0111        278     68.05399
 5.60   1407.5088  21.5749     389.0692    329.5723  42.39     1.107     0.930   0.1548        279     55.47616
 3.50   1394.7197  15.8877     73270.73    114.2365  -2.25     2.612     2.495   0.0013        280     86.77369
 6.59   1353.0374  21.3889     461.7992    152.1204 -59.00     1.536     1.084   0.1950        281     82.89946
 5.68   1130.1277  21.0625      623.736    547.3596 -12.52     1.402     1.218   0.1259        282     72.31141
 3.60   1108.7540  18.6232     5897.997    427.8485 -17.02     2.143     1.992   0.0132        283     71.68891
 4.43   1393.6559  20.0568     1574.964   1038.5725  30.72     1.746     1.516   0.0481        284     69.78813
 6.07   1390.4139  22.0793       244.49    806.3391  14.97     1.517     0.893   0.3071        285     69.14293
 3.94   1391.7336  19.6950     2197.764    713.0140 -18.73     1.876     1.718   0.0338        286     68.49165
 3.50   1095.9811  16.9525     27480.15    778.1253  40.92     2.339     2.123   0.0033        287     83.01392
 3.56   1279.3623  19.1621     3590.519   1331.1583  75.39     1.973     1.870   0.0200        288     66.04869
 8.30   1094.3149  22.6707     141.8187    429.3361 -44.00     0.570     0.337   0.2713        289     35.42521
 3.52   1274.1741  17.8311      12234.1    609.6711 -59.24     4.450     2.803   0.0107        290     120.5052
 3.50   1321.3029  16.9355     27911.35    659.7650  30.09     2.403     2.317   0.0035        291     90.89021
 3.50   1211.9462  17.8317     12227.41   1278.7762  81.35     5.912     3.550   0.0138        292     155.4755
 6.39   1386.5453  20.7309     846.4905   1274.2920 -88.27     0.941     0.454   0.0522        293     40.65836
 3.57   1373.8639  18.3338     7699.885   1018.7498 -12.52     2.298     2.062   0.0107        294     75.74229
 3.50   1220.2120  18.2412     8384.992   1194.6749  79.24     2.221     2.136   0.0095        295     73.54058
 3.50   1333.7377  21.0984     603.4316    107.1235 -13.21     1.515     1.391   0.0896        296     49.79971
 4.11   1331.4196  21.9599      272.918    386.3806  44.83     1.014     0.857   0.1491        297     37.47458
 6.03   1347.4882  22.3217     195.5801    604.6951 -37.74     1.121     0.830   0.3140        298     56.54311
 3.70   1331.1071  19.4276     2811.529    655.6794  30.01     2.005     1.880   0.0253        299      65.5308
 3.91   1308.8210  19.5314     2555.178    669.3890 -39.46     2.205     1.678   0.0283        300      66.5369
 3.50   1320.5798  21.2045     547.2751    263.9218  87.87     1.356     1.157   0.0833        301      41.9869
 3.50   1292.6479  18.5750     6165.725    762.0434 -19.19     2.457     2.002   0.0133        302     75.54478
 4.62   1306.1183  21.0975     603.9398    892.7058  10.67     1.547     1.115   0.1072        303     59.62951
 5.78   1229.8682  22.2819     202.8729   1153.2817  39.15     1.141     0.988   0.3192        304     59.62951
 3.50   1299.5809  14.9490     173937.2    724.7350 -13.82     2.986     2.612   0.0006        305     95.15007
 8.41   1300.4139  22.9034     114.4561     53.7503 -19.42     0.759     0.449   0.4492        306     47.33893
 7.12   1263.6656  21.8861     292.1284    855.2507  59.95     1.107     0.924   0.2562        307     68.92652
 7.20   1292.7781  22.6390     146.0216    545.4184 -70.33     0.753     0.449   0.2932        308     39.41753
 4.29   1293.8401  20.5940     960.2682    412.4756  -9.04     1.530     1.267   0.0654        309     57.84912
 3.83   1266.6023  19.4310     2802.751    807.7180  21.32     1.922     1.788   0.0265        310     68.27317
 4.85   1201.8480  20.8561     754.2944   1441.9393  52.88     1.812     1.625   0.1170        311     81.26133
 8.04   1262.5000  22.1146     236.6852    216.5174  45.65     0.507     0.493   0.1809        312     39.41753
 6.54   1275.1787  22.7886     127.2236    697.8320 -44.81     0.757     0.569   0.3644        313     42.69261
 0.00   1239.4313  99.0000    -61.37817    857.8013 -19.51     0.723     0.459  99.0000        314     35.42521
 6.43   1239.1719  21.7624     327.3835     47.7610 -21.29     0.957     0.857   0.1867        315     56.27827
 4.07   1260.6809  20.0999     1513.712    432.3235  39.19     2.006     1.652   0.0514        316     71.68891
 3.92   1235.6237  19.7253     2137.463    304.5523  17.18     1.862     1.665   0.0337        317      66.2745
 6.02   1231.2905  20.7253     850.8856    599.4324   2.38     1.529     1.374   0.1074        318     84.15152
 5.46   1131.3656  20.8758     740.7556    219.2833   5.73     1.407     1.133   0.0972        319      66.2745
 4.41   1238.3259  20.1963      1385.12   1553.3666 -27.74     1.624     1.543   0.0534        320     68.05399
 6.76   1205.4940  22.5495      158.557   1216.5016 -44.36     0.501     0.499   0.2118        321     30.92166
 5.50   1213.8219  20.1100     1499.698   1429.0648  62.25     2.314     1.913   0.0809        322     111.7573
 3.50   1215.8936  17.7501     13181.56    512.8163  15.77     2.201     2.128   0.0061        323     73.74345
 4.51   1152.6636  20.5025     1044.681     99.1995   1.42     1.734     1.670   0.0773        324     74.34875
 3.50   1203.1788  20.2256     1348.248    338.7114 -30.18     1.595     1.555   0.0431        325     53.55788
 4.68   1209.0653  20.1492     1446.543    838.6197 -85.46     1.629     1.532   0.0540        326     71.89701
 4.65   1196.0720  20.1576     1435.371    124.1343 -62.98     2.122     1.792   0.0663        327     87.63031
 5.11   1183.4504  22.1189     235.7433    176.4444  43.16     1.018     0.596   0.1763        328      38.2636
 4.83   1154.7657  20.6633     900.9355   1352.9104 -16.12     1.614     1.496   0.0877        329     72.72344
 4.15   1182.1749  21.2663     516.9823    549.4448  52.55     1.339     1.137   0.1046        330     49.79971
 3.50   1139.7526  16.9124     28511.91    147.8719   8.47     2.418     2.290   0.0031        331     80.33682
 3.50   1131.2678  17.6456     14513.36    183.3222 -32.95     2.262     2.226   0.0057        332     76.72218
 3.50   1166.4521  16.4094     45314.13   1299.5201 -18.21     2.442     2.420   0.0020        333     81.81102
 6.03   1177.4873  23.4827     67.12842     18.4826 -45.28     0.507     0.492   0.5002        334     30.92166
 5.64   1162.4760  21.2637     518.2428    887.9290  -3.08     1.214     0.999   0.1265        335     60.37647
 3.67   1159.0970  18.7913     5052.375    236.1458  28.14     2.115     1.861   0.0151        336     70.21497
 7.09   1168.7396  23.5549     62.81323   1599.5944  70.66     0.747     0.449   0.5511        337     31.87332
 7.44   1159.0020  22.8201     123.5833    566.4996 -87.38     0.808     0.499   0.4019        338     45.73375
 7.78   1067.8488  21.7571     328.9658    569.1644 -43.13     0.772     0.568   0.1673        339     50.69172
 7.25   1132.3717  22.2233     214.1338    357.5125 -36.20     1.445     0.399   0.2702        340     53.27821
 4.51   1121.3683  19.3962     2894.073    329.5204  59.09     2.915     1.938   0.0390        341     103.8583
 6.88   1112.3186  19.9110     1801.426    478.9656  26.14     2.244     1.894   0.0826        342     137.0923
 4.88   1096.9320  20.7273     849.3615   1526.4592  39.67     1.378     1.340   0.0824        343     64.44588
 5.70   1091.7946  21.1276     587.4325    468.3736 -46.23     2.025     1.407   0.1730        344     93.56676
 4.76   1080.5232  20.8985     725.4595    329.8643 -14.82     1.275     0.874   0.0727        345      48.5849
 3.62   1096.0430  22.8554     119.6278   1136.1641  -2.82     0.929     0.750   0.2672        346     29.43654
 3.62   1039.9791  18.3441     7627.315    525.2814  39.16     2.099     2.006   0.0102        347     71.89701
 4.48   1073.2251  19.7795      2033.36   1218.8110 -45.87     2.074     1.941   0.0468        348     87.63031
 6.06   1066.8558  20.3409     1212.329   1563.1591  75.22     1.791     1.399   0.0832        349     92.92589
 8.91   1022.3207  22.5362     160.5175   1268.9786  27.92     0.914     0.210   0.2562        350     37.87114
 3.50   1011.1424  17.6167     14904.23    813.5724  16.49     2.242     2.159   0.0055        351     75.54478
 3.50   1041.5156  16.5754     38888.83    632.9080  15.36     2.404     2.380   0.0023        352     81.26133
 4.50    982.2241  20.7811     808.2585    798.0075   3.67     1.606     1.483   0.0903        353     67.17014
 7.17   1041.9910  22.4049     181.1523    467.0000  90.00     0.854     0.289   0.2098        354     35.00094
 6.13    987.8519  20.0268     1619.177    454.2320  47.59     1.987     1.789   0.0752        355     112.1576
 4.40   1031.5873  19.8888     1838.504    302.4051  70.40     2.789     1.769   0.0559        356     94.67786
 3.50   1027.0433  17.4500     17377.72   1379.8351  39.67     2.265     2.217   0.0047        357     75.74229
 6.70   1015.7997  21.9876     266.0554    452.9904 -57.19     0.813     0.506   0.1714        358      41.9869
 7.16    999.1955  21.9830     267.1711    232.9355 -30.82     1.047     0.668   0.2341        359     57.59029
 3.50    986.2090  16.9842      26688.7    558.3832  37.50     2.341     2.296   0.0032        360     78.45514
 4.10   1012.5897  19.6742     2240.435    344.5637  27.05     1.809     1.763   0.0341        361     70.42743
 6.84   1011.5046  23.5776     61.51025    266.9890 -31.78     0.807     0.310   0.5459        362     30.92166
 4.05   1001.1897  20.7905     801.3416   1273.6108  -3.61     1.429     1.188   0.0695        363     51.27777
 3.64   1002.5687  20.4397     1106.968   1555.2332  79.83     1.624     1.448   0.0534        364     54.38829
