#   1 KRON_RADIUS            Kron apertures in units of A or B                         
#   2 MAGERR_APER            RMS error vector for fixed aperture mag.                   [mag]
#   3 Y_IMAGE                Object position along y                                    [pixel]
#   4 X_IMAGE                Object position along x                                    [pixel]
#   5 THETA_IMAGE            Position angle (CCW/x)                                     [deg]
#   6 FLUX_APER              Flux vector within fixed circular aperture(s)              [count]
#   7 A_IMAGE                Profile RMS along major axis                               [pixel]
#   8 B_IMAGE                Profile RMS along minor axis                               [pixel]
#   9 FLUX_RADIUS            Fraction-of-light radii                                    [pixel]
#  10 FLUXERR_APER           RMS error vector for aperture flux(es)                     [count]
#  11 MAG_APER               Fixed aperture magnitude vector                            [mag]
#  12 NUMBER                 Running object number                                     
 4.06   0.0028     54.8102     63.6162   7.95     28239.57     4.204     3.866     11.604     73.13549  16.9229          1
 4.70   0.0164     18.1055    984.9224 -87.76     4828.448     3.562     1.819      9.541     73.11065  18.8405          2
 3.50   0.0232     19.5111     91.2539 -74.58     3416.113     1.594     1.593      3.972     73.11893  19.2162          3
 3.56   0.0079     16.2668   1445.6176   5.53     9998.601     1.890     1.805      4.509     73.17689  18.0502          4
 4.37   0.1459     26.1560    366.6079  16.67      544.858     1.016     0.880      3.215     73.18516  21.2093          5
 3.50   0.0017     61.3924   1078.3998  50.84     45631.54     2.294     2.198      4.958     73.12721  16.4018          6
 3.50   0.0018     81.5718    537.4313  -5.04     44296.07     2.231     2.187      4.877     73.18516  16.4341          7
 3.50   0.0001    183.5919   1107.5521 -24.07     797557.1     4.890     4.553      9.027     73.19344  13.2956          8
 3.90   0.0612     76.6700    128.0600  63.24     1298.369     1.316     1.219      3.494     73.14378  20.2665          9
 3.50   0.0012    123.3897    788.9986  15.16     65603.75     2.311     2.260      4.948     73.14378  16.0077         10
 4.09   0.0364     98.1763     56.0645  12.14     2184.772     1.461     1.381      4.156     73.17689  19.7015         11
 8.72   0.1361     99.7577    453.0021   0.10     583.8082     0.695     0.428      4.169     73.18516  21.1343         12
 3.50   0.0003    195.1722    317.9897 -45.18     279419.6     2.614     2.518      5.113     73.16861  14.4344         13
 3.50   0.0021    163.8853   1468.2463   6.52     37147.57     2.168     2.119      4.778     73.14378  16.6252         14
 3.95   0.0094    171.8063    877.2582 -13.05     8468.945     1.849     1.810      4.901     73.20171  18.2304         15
 6.26   0.0821    166.6234   1445.5895 -45.57     967.5662     1.074     0.955      5.103     73.16033  20.5858         16
 6.27   0.0559    173.0470    325.1680  -4.64     1422.177     1.249     1.149      6.752     73.18516  20.1676         17
 7.19   0.1919    168.1921    104.1895  44.40      413.948     0.754     0.563      3.699     73.12721  21.5076         18
 4.85   0.0030    236.3907    403.5207 -42.71      26187.2     5.571     4.586     18.395     73.16861  17.0048         19
 6.14   0.0703    194.1268   1350.6166  55.74     1131.199     1.147     1.041      5.809     73.20998  20.4162         20
 5.77   0.0217    212.2842    827.3955  -7.78     3660.152     3.064     1.803     11.542     73.15205  19.1413         21
 5.10   0.0415    208.3243    548.9987  14.64     1915.452     1.403     1.345      5.298     73.18516  19.8443         22
 6.34   0.0777    210.3540    349.7424  51.36     1022.557     1.187     1.029      5.414     73.15205  20.5258         23
 3.83   0.0488    213.7674   1306.0284  -4.51      1628.18     1.489     1.313      3.884     73.17689  20.0207         24
 9.38   0.1169    212.9898    684.5063 -57.67      679.267     0.791     0.316      3.659     73.13549  20.9699         25
 3.50   0.0007    261.3132    997.3710 -23.07     119840.5     2.403     2.367      4.929     73.15205  15.3535         26
 6.49   0.0247    231.9824    561.7929   6.10     3218.194     2.483     2.286     12.276     73.13549  19.2810         27
 4.02   0.0424    225.6863   1226.0515  38.45     1874.589     1.477     1.312      3.958     73.12721  19.8677         28
 6.12   0.0934    224.2461    774.5557 -15.37     851.4363     1.009     0.965      4.572     73.19344  20.7246         29
 3.50   0.0009    267.4353     67.6016  -3.84     83710.12     2.371     2.303      4.925     73.15205  15.7431         30
 7.01   0.0615    245.6219    113.0311 -81.84     1292.055     1.356     1.122      7.602     73.16033  20.2718         31
 5.62   0.0222    256.8119    612.8681 -22.48      3584.87     2.112     1.770      8.631     73.20171  19.1638         32
 7.99   0.1172    253.1951   1372.6124 -71.84     677.5327     0.758     0.448      3.983     73.12721  20.9727         33
 3.50   0.0002    313.6460    439.4265 -24.89     343053.1     2.632     2.551      5.145     73.19344  14.2116         34
 3.50   0.0040    289.1028   1486.3685  -1.22     19839.61     2.022     1.962      4.588     73.10236  17.3062         35
 4.05   0.0181    283.4547   1522.2284  -4.74     4399.154     1.677     1.596      4.420     73.18516  18.9416         36
 5.18   0.0441    291.1014    514.9318 -18.94     1802.302     1.625     1.502      5.482     73.12721  19.9104         37
 3.61   0.0054    304.6104    201.7310  31.11     14599.53     1.979     1.947      4.664     73.20171  17.6392         38
 3.50   0.0014    320.2000    905.3687  10.23     57736.91     2.242     2.205      4.828     73.14378  16.1464         39
 4.85   0.0412    295.4975   1327.5172 -13.90     1925.843     1.372     1.364      4.744     73.08579  19.8384         40
 6.62   0.0705    294.9007   1475.5369 -74.29       1126.6     1.173     0.974      6.176     73.12721  20.4206         41
 3.50   0.0003    352.8514    890.7111 -28.70     304338.8     2.568     2.504      5.034     73.11893  14.3416         42
 3.50   0.0003    352.8624   1345.7847 -23.23     293218.6     2.524     2.493      5.012     73.16033  14.3820         43
 8.97   0.0755    299.3999   1412.7705 -18.71     1051.475     0.759     0.449      4.552     73.12721  20.4955         44
 3.75   0.0080    323.5458    697.2219   5.39       9934.5     1.928     1.868      4.788     73.19344  18.0571         45
 7.68   0.0938    303.9609    563.0087   0.52      846.857     1.078     0.725      4.994     73.17689  20.7305         46
 5.80   0.0427    328.9993    595.2292 -20.45     1861.289     1.631     1.429      6.777     73.12721  19.8755         47
 9.34   0.0828    322.4987    641.4872  45.81     958.8966     0.503     0.497      3.017     73.08579  20.5956         48
 4.63   0.0119    347.9163    866.9841  39.24     6662.277     1.830     1.739      5.757     73.17689  18.4909         49
 7.46   0.1801    333.5166     93.5302  48.31      440.833     0.502     0.497      3.013     73.10236  21.4393         50
 4.55   0.0152    357.2899    431.7542 -86.08     5220.034     1.966     1.846      5.523     73.11893  18.7558         51
 6.03   0.0759    351.3906     54.6137  40.34     1046.002     1.061     0.951      4.707     73.13549  20.5012         52
 4.15   0.0079    369.6064    761.0257  39.72     10030.66     1.902     1.847      4.918     73.16861  18.0467         53
 5.27   0.0412    362.6790   1500.2339  23.19     1928.949     1.478     1.287      5.844     73.14378  19.8367         54
 4.23   0.0203    368.8589    442.7273   2.26     3908.645     1.676     1.588      4.762     73.12721  19.0699         55
 7.68   0.1288    361.9861   1033.5194 -89.92     616.8592     0.798     0.500      4.199     73.17689  21.0745         56
 3.50   0.0016    396.6423    231.3586   5.16     48766.64     2.248     2.188      4.857     73.16861  16.3297         57
 6.69   0.1081    374.2293    992.4621  -0.46     735.1066     0.965     0.724      4.139     73.16861  20.8841         58
 3.62   0.0114    398.5532   1461.1105  -0.57     6966.717     1.792     1.725      4.392     73.11893  18.4424         59
 3.57   0.0102    399.5710    354.4686  18.77         7819     1.831     1.777      4.411     73.16861  18.3171         60
 4.49   0.0478    395.4066   1088.5164 -42.15     1662.274     1.369     1.352      4.201     73.15205  19.9982         61
 3.50   0.0018    421.0752    433.2244  16.34     44595.05     2.212     2.168      4.806     73.16033  16.4268         62
 3.50   0.0037    417.0695    837.3176  35.07     21569.39     2.038     2.017      4.629     73.10236  17.2154         63
 7.26   0.0672    414.4749      1.5991 -88.23     910.4581     1.572     0.613      6.707     56.34393  20.6518         64
 4.05   0.0209    425.6546    926.3806  22.64     3796.685     1.672     1.608      4.528     73.18516  19.1015         65
 3.60   0.0050    439.4595    252.0048  10.36     15983.96     2.018     1.955      4.742     73.20998  17.5408         66
 7.26   0.0853    422.0591    159.4032  64.92      932.127     1.300     0.858      6.060     73.20998  20.6263         67
 3.50   0.0006    462.6514    807.5664  -4.64     138130.4     2.400     2.356      4.915     73.18516  15.1993         68
 5.74   0.0589    434.3322   1421.9010  11.76     1348.659     1.245     1.134      5.043     73.12721  20.2252         69
 7.77   0.1119    435.2876    151.0216   3.41     709.9611     0.735     0.683      4.408     73.16033  20.9219         70
 4.32   0.0150    451.8255     21.2910 -11.88     5300.342     1.771     1.671      5.129     73.13549  18.7392         71
 5.78   0.1139    441.5108    305.5070 -83.02     697.0405     0.924     0.898      4.105     73.10236  20.9419         72
 7.34   0.0820    446.8344    122.0894 -82.33     969.0653     1.148     0.731      5.608     73.12721  20.5841         73
 4.33   0.0140    459.2914     34.4861 -51.43     5659.112     1.743     1.673      4.779     73.08579  18.6681         74
 5.74   0.0189    469.2626    850.4149  22.43     4212.049     5.847     1.730     16.602     73.16033  18.9888         75
 9.44   0.0852    448.6069    883.8131  18.70     932.1747     0.775     0.444      4.649     73.11065  20.6263         76
 3.80   0.0453    465.1890    468.4067  53.61     1751.484     1.531     1.320      4.110     73.12721  19.9415         77
 6.35   0.1283    462.6235   1096.4197  11.00     619.4863     0.976     0.807      4.147     73.16033  21.0699         78
 4.43   0.0352    473.5376    734.7532  22.27     2254.441     1.505     1.391      4.534     73.13549  19.6674         79
 4.73   0.0501    472.9802    254.2992 -12.91     1584.379     1.391     1.194      3.912     73.11065  20.0504         80
 4.19   0.0273    479.3217    922.9229  32.84     2909.423     1.511     1.481      4.351     73.13549  19.3905         81
 5.93   0.0664    479.4613   1276.8489 -86.46     1195.895     1.230     1.100      5.315     73.13549  20.3558         82
 5.74   0.0478    514.6971   1309.9906   7.70     1661.081     1.319     1.171      5.798     73.12721  19.9990         83
 4.12   0.0642    485.6152   1070.7526  -8.55     1237.897     1.321     1.259      3.719     73.16861  20.3183         84
 6.54   0.0349    497.5776     83.0067  66.37     2274.997     1.905     1.613      9.190     73.16033  19.6575         85
 6.64   0.0404    496.9010   1187.0255  -1.97     1966.723     1.974     1.349      8.080     73.11065  19.8156         86
 4.90   0.0054    534.4559    518.5499  34.05     14754.24     3.647     3.086     12.619     73.16033  17.6277         87
 3.67   0.0068    513.8845   1302.1998   8.49     11751.68     2.027     1.866      4.742     73.16033  17.8748         88
 7.04   0.0646    505.7164    762.5055 -85.19     1228.814     1.245     1.035      6.094     73.09408  20.3263         89
 5.97   0.1216    503.5783    863.4941  14.81     653.4976     0.923     0.889      4.010     73.14378  21.0119         90
 5.48   0.0301    516.8466   1461.0226  24.80     2639.421     2.970     1.347      9.964     73.17689  19.4962         91
 5.84   0.1003    515.1458   1179.0188 -47.25     792.5468     1.176     1.000      5.556     73.18516  20.8024         92
 7.91   0.0895    511.1125    165.8792  45.76     886.6176     0.843     0.671      5.055     73.10236  20.6807         93
 7.31   0.1314    520.8629    641.8719 -43.04     604.0847     0.842     0.676      4.327     73.11065  21.0973         94
 3.50   0.0003    589.2521   1315.8784 -32.82     315387.4     2.545     2.493      5.002     73.11893  14.3029         95
 3.92   0.0499    541.6472    999.7842  41.53     1591.332     1.306     1.290      3.996     73.17689  20.0456         96
 4.43   0.0333    560.3848   1041.6217  45.42     2385.691     1.536     1.379      4.584     73.14378  19.6060         97
 3.77   0.0112    573.9904   1242.7697  14.96     7067.797     1.808     1.724      4.492     73.18516  18.4268         98
 5.79   0.0506    572.9567   1447.7887  47.55     1569.686     1.602     1.416      6.180     73.16861  20.0605         99
 6.09   0.0471    572.8408     45.9018  54.29     1684.315     1.694     1.258      7.087     73.10236  19.9839        100
 3.82   0.0083    583.6829    319.1039  10.22     9605.012     1.937     1.850      4.834     73.08579  18.0938        101
 3.67   0.0083    582.1736    144.8848 -10.85     9542.195     1.949     1.806      4.626     73.15205  18.1009        102
 3.50   0.0001    632.6119    483.1479 -14.17     562118.9     2.723     2.636      5.168     73.19344  13.6754        103
 8.96   0.1468    566.4742    139.4969 -37.18     540.8812     0.501     0.498      3.005     73.10236  21.2172        104
 6.43   0.0555    576.0765   1336.7830  30.80     1431.597     1.349     1.065      6.717     73.19344  20.1604        105
 5.27   0.0169    598.0474    782.5241 -49.02     4709.682     2.863     2.518     10.400     73.12721  18.8675        106
 6.31   0.0997    586.1059     75.9743   1.54     796.5102     1.004     0.858      4.697     73.13549  20.7970        107
 4.83   0.0707   1002.6642   1555.2805 -80.59     1122.269     1.320     1.123      4.311     73.11065  20.4248        108
 6.93   0.0824   1598.2859    654.0801  -4.44     797.4276     1.283     0.698      5.240     60.54079  20.7958        109
 7.14   0.1547   1596.1770    374.0029  36.32     472.3329     0.939     0.470      3.609     67.27833  21.3644        110
 4.11   0.0247   1543.0918    134.7388  -2.70     3220.193     1.670     1.574      4.378     73.13549  19.2803        111
 4.75   0.0798    929.7796   1322.2466  36.33     995.5419     1.163     1.114      3.826     73.17689  20.5548        112
 4.46   0.0574    923.3777    806.9763  76.86     1384.376     1.425     1.204      4.246     73.16861  20.1969        113
 6.36   0.0887    914.1400    838.4391  67.51     895.8298     1.071     0.954      4.718     73.16861  20.6694        114
 7.87   0.1802    913.7532   1001.0084   0.41     441.2202     0.689     0.431      3.579     73.19344  21.4384        115
 4.08   0.0128    901.8284    302.6319  32.47     6185.747     1.843     1.740      4.928     73.17689  18.5715        116
 3.50   0.0001    883.3814    183.6500 -19.82     798839.9     3.195     3.079      5.975     73.17689  13.2938        117
 6.89   0.0562    897.2708    538.1027  69.70     1414.002     1.425     1.164      7.594     73.12721  20.1739        118
 6.11   0.0203    880.5494    224.1360  88.64     3913.871     6.123     1.673     16.714     73.14378  19.0685        119
 3.50   0.0007    881.6226   1592.4487  65.69     111095.8     2.397     2.351      5.043     73.17689  15.4358        120
 8.03   0.0910    889.9066    325.8675 -44.75     872.1701     0.844     0.672      4.920     73.11893  20.6985        121
 4.70   0.1097    887.2526   1499.8967 -51.10      723.294     1.068     1.005      3.777     73.08579  20.9017        122
 7.97   0.1575    887.0178   1304.5103  88.51     504.4732     0.805     0.500      4.110     73.15205  21.2929        123
 6.94   0.0735    880.0314   1176.7563 -66.77     1081.494     1.170     1.034      5.628     73.19344  20.4649        124
 7.44   0.2467    878.8286    960.8246  45.21     322.0651     0.766     0.569      3.219     73.16033  21.7801        125
 4.81   0.0317    870.8043   1103.4138 -32.93      2502.34     1.741     1.609      5.481     73.13549  19.5541        126
 3.50   0.0003    860.6582   1224.3918   9.72     293123.5     2.607     2.563      5.192     73.20998  14.3824        127
 7.51   0.0849    869.3853    940.0309  28.13     936.6029     1.297     0.789      5.473     73.18516  20.6211        128
 6.42   0.1080    861.3013   1157.3337  43.91     735.3555     1.024     0.870      4.604     73.15205  20.8838        129
 6.09   0.1440    859.8855   1339.4011 -27.27     551.8636     1.096     0.578      3.554     73.15205  21.1954        130
 7.01   0.1000    846.0428   1205.9912 -53.00     794.9233     0.803     0.795      4.818     73.17689  20.7992        131
 5.36   0.0739    844.5964   1106.1683  25.00     1075.026     1.276     1.066      4.599     73.17689  20.4715        132
 6.93   0.1635    846.1494   1063.8723  45.80     485.7325     0.835     0.668      3.749     73.11065  21.3340        133
 6.16   0.0425    839.1501   1247.1755 -29.21     1871.828     1.482     1.308      7.024     73.19344  19.8693        134
 4.70   0.0571    838.0167    298.7638   5.94     1390.847     1.395     1.172      4.202     73.18516  20.1918        135
 3.94   0.0123    824.4010    654.3109  37.31     6445.204     1.893     1.787      4.845     73.15205  18.5269        136
 3.65   0.0139    804.4127   1378.5909  18.36     5703.467     1.785     1.710      4.404     73.12721  18.6597        137
 3.54   0.0047    799.9121    695.5764  88.77     16779.22     2.586     2.008      5.503     73.16033  17.4881        138
 4.21   0.0283    802.0409     41.0905 -21.87     2807.977     1.571     1.521      4.691     73.12721  19.4290        139
 5.47   0.0332    775.2255   1427.2784 -85.98     2393.688     2.215     1.593      7.563     73.16033  19.6023        140
 5.37   0.0534    768.0120    391.6290  15.91     1488.318     1.314     1.196      4.996     73.17689  20.1183        141
 4.25   0.0534    744.2063    556.2775 -23.97     1488.547     1.405     1.311      3.935     73.16861  20.1181        142
 6.64   0.1439    739.1788   1157.6746  21.00     552.2371     0.921     0.685      3.687     73.18516  21.1947        143
 6.69   0.1255    737.1107    649.3793 -22.30     632.7548     0.925     0.684      3.629     73.14378  21.0469        144
 3.50   0.0002    725.5227    404.7261 -14.90     385409.6     2.719     2.589      5.195     73.11893  14.0852        145
 3.50   0.0012    727.9932    848.3524  23.62      65967.8     2.318     2.276      4.956     73.19344  16.0017        146
 5.28   0.0806    728.8334   1178.1766  42.38     986.1508     1.189     1.040      4.338     73.16861  20.5651        147
 5.28   0.0529    717.2914    808.3470  55.73     1500.402     1.312     1.312      5.068     73.12721  20.1095        148
 4.44   0.0635    710.4481   1163.6825   4.86     1251.088     1.327     1.237      3.747     73.12721  20.3068        149
 5.89   0.0500    705.5657   1338.9106 -81.17     1589.748     1.391     1.282      5.587     73.12721  20.0467        150
 3.99   0.0334    704.2521    952.3856  34.75     2381.652     1.483     1.448      4.505     73.19344  19.6078        151
 8.02   0.0831    692.9650   1213.7378  65.54     955.9742     1.084     0.816      5.754     73.16033  20.5989        152
 4.46   0.0395    686.9780    644.0174  -9.45     2009.342     1.476     1.408      4.548     73.15205  19.7924        153
 8.50   0.0411    685.0096    471.8991 -46.29     1931.614     1.241     1.044      7.444     73.12721  19.8352        154
 6.45   0.0405    682.8522    543.7064 -55.36     1959.962     1.730     1.427      8.039     73.11065  19.8194        155
 3.50   0.0012    649.7205   1464.2881  16.57     65480.52     2.266     2.231      4.883     73.11065  16.0097        156
 7.15   0.1248    655.9042    870.8224 -47.09     636.3338     0.830     0.668      4.012     73.14378  21.0408        157
 3.50   0.0014   1559.3016    487.3324   1.33     56764.46     2.404     2.340      5.194     73.12721  16.1648        158
 3.65   0.0077    641.2100    536.7706  30.10     10347.78     1.936     1.874      4.724     73.17689  18.0129        159
 6.37   0.1109    631.9269    806.1052 -79.16     715.7662     1.132     0.729      4.426     73.11893  20.9131        160
 5.24   0.0747    624.8391   1581.7410   7.67     1064.087     1.212     1.137      4.539     73.16861  20.4826        161
 5.42   0.0630    606.9500    586.2335  26.18     1262.252     1.290     1.091      4.787     73.17689  20.2971        162
 5.10   0.0322   1543.9377    654.2358   6.61     2469.234     1.522     1.502      5.777     73.16033  19.5686        163
 4.80   0.0463    940.5503   1066.9835  58.96     1715.946     1.427     1.278      4.658     73.17689  19.9637        164
 3.50   0.0014   1564.9086    303.8567  -1.79     57282.94     2.387     2.296      5.143     73.11893  16.1549        165
 4.80   0.0682   1586.1338   1108.5453   6.59     1164.958     1.293     1.152      4.346     73.13549  20.3842        166
 4.78   0.0484   1571.6653     92.3622  57.95     1640.747     1.405     1.365      4.486     73.16861  20.0124        167
 7.25   0.0785   1547.3698    863.4689  36.12     1012.565     1.368     0.771      5.761     73.16861  20.5364        168
 5.95   0.0784   1562.6573    861.1366 -55.35     1013.564     1.190     1.114      5.925     73.13549  20.5354        169
 4.58   0.0370   1568.0312     21.5423 -19.68     2149.808     1.620     1.446      4.923     73.18516  19.7190        170
 5.82   0.0517   1567.1318    784.2593 -70.69     1534.853     1.482     1.326      6.232     73.13549  20.0848        171
 4.13   0.0047   1553.8680    681.8541 -27.44     17017.16     4.178     3.728     11.347     73.12721  17.4728        172
 8.39   0.1415   1552.6675   1221.6698 -45.10     561.0274     0.576     0.334      3.454     73.10236  21.1775        173
 3.50   0.0054    931.0528   1178.2883  42.24     14701.55     2.041     1.942      4.753     73.10236  17.6316        174
 7.28   0.0515    987.9465    454.0064  46.76     1544.812     1.373     1.148      7.908     73.22652  20.0778        175
 3.69   0.0104   1516.1770    392.3126  10.51     7655.646     1.934     1.797      4.723     73.16033  18.3400        176
 3.50   0.0026   1508.4668    269.0315  -6.55     30762.64     2.275     2.183      5.081     73.16861  16.8299        177
 6.71   0.0825    982.5072    798.0153  -2.06      962.639     1.166     0.957      5.548     73.15205  20.5913        178
 3.81   0.0096   1039.9601    525.2932  12.15     8257.335     1.885     1.859      4.756     73.08579  18.2579        179
 7.42   0.1110    948.9724    445.0000  90.00     715.6351     0.853     0.289      3.083     73.14378  20.9133        180
 6.30   0.0893   1505.5388    722.9551  -2.18     889.9218     1.136     0.952      4.886     73.16033  20.6766        181
 8.11   0.1730    966.4951    416.5008 -44.59      458.891     0.501     0.499      2.952     73.09408  21.3957        182
 7.60   0.0997    952.0114    654.7029 -89.33     796.5684     0.755     0.685      4.529     73.12721  20.7969        183
 5.75   0.1048   1001.2355   1273.6947 -19.03     757.8482     0.984     0.854      3.547     73.11065  20.8510        184
 3.50   0.0028    986.2198    558.4037  12.08     28667.33     2.209     2.145      4.963     73.15205  16.9065        185
 3.50   0.0002   1025.0056     50.2368 -16.82     456607.9     2.780     2.665      5.364     73.16861  13.9011        186
 6.75   0.0729   1061.0151    726.4691  -1.22     1090.824     1.190     1.100      5.644     73.20171  20.4556        187
 7.95   0.0803   1066.6418   1563.0979  69.46     988.0779     0.930     0.694      5.577     73.10236  20.5630        188
 7.06   0.2347   1080.6638    330.6638 -45.00     338.4062     0.580     0.332      2.331     73.12721  21.7264        189
 8.63   0.0917   1107.5222    678.0247  32.11     866.6552     0.796     0.314      3.477     73.16033  20.7054        190
 7.67   0.1103   1074.2769      6.6344  19.13     703.6235     0.989     0.595      4.732     71.45168  20.9316        191
 3.53   0.0045   1420.6407   1126.1237 -62.87     17622.27     2.191     2.117      5.118     73.14378  17.4348        192
 5.59   0.0946   1096.9529   1526.4910  87.46     839.0433     1.111     0.964      4.013     73.10236  20.7405        193
 3.50   0.0025   1081.2905    511.9973   4.48     31996.07     2.222     2.163      4.952     73.12721  16.7873        194
 3.69   0.0118   1108.7441    427.8706   3.58     6733.555     1.940     1.781      4.788     73.12721  18.4794        195
 3.50   0.0006   1435.6680   1090.3186 -15.70     138491.1     2.524     2.482      5.266     73.11065  15.1964        196
 3.50   0.0027   1096.1024    777.9913  14.15     29102.02     2.188     2.134      4.890     73.12721  16.8902        197
 4.08   0.0237   1436.6504    224.3800  15.99     3351.049     1.656     1.583      4.731     73.17689  19.2370        198
 8.03   0.1966   1407.5132    329.4820  45.38     403.8515     0.505     0.494      3.032     73.11893  21.5344        199
 8.14   0.1693   1440.2898   1270.6351  41.51     469.1502     0.570     0.335      3.132     73.12721  21.3717        200
 7.06   0.0924   1401.9138   1031.3040 -12.92      859.201     1.033     0.762      4.722     73.07751  20.7148        201
 4.49   0.0313   1441.0831    618.8366 -29.66     2540.834     1.597     1.453      4.699     73.16033  19.5376        202
 5.20   0.0475   1416.6306   1386.4108  11.46     1671.968     1.407     1.344      4.922     73.18516  19.9919        203
 3.56   0.0110   1390.1648   1428.3231  15.07       7196.4     1.843     1.776      4.585     73.14378  18.4072        204
 3.50   0.0010   1394.7063    114.2195  -0.11     77454.48     2.467     2.376      5.199     73.15205  15.8274        205
 4.21   0.0313   1391.8126    712.9902 -20.82     2533.971     1.595     1.496      4.581     73.13549  19.5405        206
 4.64   0.0326   1409.5522    308.0211  -3.07     2439.862     1.553     1.428      4.865     73.17689  19.5816        207
 7.76   0.0581   1111.8605    479.4189  22.24     1366.998     1.354     0.899      7.741     73.16861  20.2106        208
 8.14   0.0983   1115.1985    674.7978  44.88     808.3054     0.988     0.347      3.802     73.17689  20.7811        209
 3.50   0.0001   1367.8490   1159.4698  14.13     764225.1     3.960     2.856      5.650     73.13549  13.3419        210
 4.91   0.0536   1393.6984   1038.3988  23.33     1481.671     1.425     1.229      4.318     73.12721  20.1231        211
 3.84   0.0094   1373.8683   1018.6469 -15.76     8457.463     1.963     1.853      4.913     73.15205  18.2319        212
 3.50   0.0004   1299.6050    724.6524 -17.09     181907.3     2.582     2.526      5.274     73.20998  14.9004        213
 6.66   0.1041   1130.1299    547.3166  13.04     762.8828     1.013     0.756      5.049     73.10236  20.8439        214
 4.68   0.0140   1174.0432    757.8148 -85.99     5676.731     3.045     3.017     10.288     73.16861  18.6648        215
 3.50   0.0026   1139.7612    147.8624   6.64     30295.87     2.269     2.158      5.023     73.16033  16.8465        216
 6.84   0.1106   1306.0023    892.5251   0.29     718.7122     1.048     0.787      4.950     73.19344  20.9086        217
 5.52   0.0358   1121.2595    329.4239  51.19      2221.17     1.993     1.592      7.383     73.19344  19.6835        218
 3.50   0.0027   1321.3052    659.7635  -7.94     29146.55     2.248     2.204      5.057     73.10236  16.8885        219
 7.77   0.0736   1332.3197   1139.7904 -87.83     1078.815     1.160     0.700      5.964     73.16033  20.4676        220
 4.81   0.0989   1333.9618    107.0763  62.32     803.0727     1.198     1.119      3.534     73.14378  20.7881        221
 4.57   0.0218   1331.2437    655.5939  -7.57     3638.091     1.772     1.686      6.038     73.18516  19.1478        222
 6.05   0.1610   1320.6711    263.8921 -68.05     493.2068     0.921     0.685      3.253     73.11893  21.3174        223
 3.85   0.0120   1292.7131    761.8975 -13.96     6600.291     2.120     1.779      5.354     73.07751  18.5011        224
 5.80   0.0317   1308.7648   1035.8177 -30.20     2509.932     2.063     1.527      7.852     73.18516  19.5508        225
 6.70   0.0625   1260.7919    432.1530  45.74     1272.356     1.425     1.027      6.202     73.19344  20.2885        226
 8.17   0.2198   1331.5117    386.5117  45.00     360.9881     0.506     0.494      3.036     73.07751  21.6563        227
 3.96   0.0195   1279.3495   1331.1671  87.57     4084.305     1.771     1.669      4.608     73.17689  19.0222        228
 5.24   0.0266   1308.8101    669.4493 -26.72     2988.638     1.725     1.484      6.472     73.19344  19.3613        229
 5.37   0.0536   1152.5564     99.2741  27.73     1482.799     1.401     1.324      5.497     73.13549  20.1223        230
 6.59   0.0492   1294.9531    741.9031 -26.39     1614.598     1.377     1.166      7.074     73.07751  20.0298        231
 6.30   0.0888   1293.8875    412.4502 -74.70      893.908     1.058     0.971      5.094     73.11893  20.6718        232
 4.17   0.0246   1266.6727    807.6412  19.62     3231.808     1.694     1.594      4.558     73.15205  19.2764        233
 4.31   0.0074   1274.0188    609.7662 -55.23      10753.2     3.802     2.467      9.884     73.16861  17.9712        234
 7.33   0.1498   1181.8950    549.1121  48.59     529.6746     0.835     0.663      4.313     73.07751  21.2400        235
 7.65   0.0946   1231.1221    599.3472 -19.03     839.8304     0.945     0.689      4.965     73.11893  20.7395        236
 7.32   0.0562   1214.0806   1429.3109  63.34     1412.194     1.362     1.092      7.124     73.11065  20.1753        237
 3.50   0.0001   1222.6552    994.9854 -19.67     973178.5     5.316     4.874      9.708     73.18516  13.0795        238
 4.18   0.0295   1235.7129    304.5154  10.25     2688.707     1.673     1.489      4.534     73.11065  19.4761        239
 5.89   0.0952   1154.6027   1352.8634 -11.47     835.5374     1.247     0.972      4.347     73.20998  20.7451        240
 5.41   0.0942   1243.6855    672.2896   8.74     842.8179     1.122     0.967      4.012     73.11065  20.7357        241
 5.63   0.0493   1196.4487    123.9950 -29.03     1613.065     1.519     1.420      6.255     73.20998  20.0309        242
 3.83   0.0086   1211.6543   1278.6310  86.64     9274.373     5.195     3.109     11.925     73.17689  18.1318        243
 3.86   0.0086   1220.1406   1194.6002   7.96     9272.372     1.935     1.878      5.036     73.20998  18.1320        244
 6.58   0.0801   1202.4009   1441.9315  14.82     992.8182     1.224     0.967      4.743     73.19344  20.5578        245
 5.28   0.0535   1204.6826   1075.4138  27.95     1485.188     1.478     1.335      5.421     73.17689  20.1205        246
 3.51   0.0056   1215.8728    512.8373   7.10     14205.32     2.015     1.968      4.705     73.16033  17.6689        247
 5.19   0.0473   1208.9304    838.6003  76.49     1680.407     1.410     1.282      5.093     73.19344  19.9865        248
 4.79   0.0554   1203.1107    338.7057   7.71     1432.316     1.349     1.204      4.526     73.09408  20.1599        249
 7.83   0.1757   1064.3143      6.6554  43.63     441.8741     0.574     0.335      3.123      71.4771  21.4368        250
 3.57   0.0050   1131.2589    183.3136   5.89     15999.06     2.098     2.012      4.888     73.11893  17.5398        251
 4.82   0.0500   1238.3405   1553.4193  -5.84     1590.366     1.397     1.300      4.383     73.17689  20.0463        252
 8.41   0.1873   1162.6844    887.6744 -44.50     423.8851     0.566     0.339      2.908     73.11065  21.4819        253
 3.50   0.0016   1166.4545   1299.5092   2.02     48767.05     2.299     2.258      5.037     73.12721  16.3297        254
 7.60   0.1303   1131.3075    219.0416   2.72     609.1611     0.741     0.679      4.271     73.08579  21.0882        255
 3.95   0.0143   1159.1118    236.1489  19.38     5564.329     1.843     1.712      4.712     73.11065  18.6865        256
 3.50   0.0001   1152.9353    693.7203 -12.73     701107.8     2.868     2.767      5.424     73.10236  13.4355        257
 4.22   0.0259   1090.5554    642.2964  24.32     3063.488     1.637     1.552      4.466     73.09408  19.3345        258
 3.53   0.0087   1083.0737   1148.0181  -0.56     9131.983     1.912     1.861      4.597     73.20171  18.1486        259
 3.74   0.0076   1105.7887    751.7599  18.16     10420.17     2.027     1.906      4.970     73.16861  18.0053        260
 3.50   0.0019   1041.5289    632.9177  37.70     41530.98     2.283     2.243      5.031     73.10236  16.5041        261
 5.50   0.0460   1073.2410   1218.8578  -1.62     1727.419     1.629     1.450      5.915     73.15205  19.9565        262
 5.93   0.0453   1031.8055    302.5028  62.35     1751.639     1.693     1.372      6.835     73.14378  19.9414        263
 3.50   0.0049   1011.1313    813.5825  27.54     16143.85     2.096     2.020      4.848     73.18516  17.5300        264
 3.50   0.0042   1027.0907   1379.8291  23.69     18740.88     2.090     2.034      4.802     73.13549  17.3680        265
 4.80   0.0332   1012.6168    344.5900  -2.19     2392.268     1.566     1.482      4.857     73.13549  19.6030        266
 4.60   0.0293   1003.0110    542.4254  14.02     2708.261     1.549     1.526      5.240     73.15205  19.4683        267
