#   1 KRON_RADIUS            Kron apertures in units of A or B                         
#   2 MAGERR_APER            RMS error vector for fixed aperture mag.                   [mag]
#   3 Y_IMAGE                Object position along y                                    [pixel]
#   4 X_IMAGE                Object position along x                                    [pixel]
#   5 THETA_IMAGE            Position angle (CCW/x)                                     [deg]
#   6 FLUX_APER              Flux vector within fixed circular aperture(s)              [count]
#   7 A_IMAGE                Profile RMS along major axis                               [pixel]
#   8 B_IMAGE                Profile RMS along minor axis                               [pixel]
#   9 FLUXERR_APER           RMS error vector for aperture flux(es)                     [count]
#  10 MAG_APER               Fixed aperture magnitude vector                            [mag]
#  11 NUMBER                 Running object number                                     
 4.29   0.0036     53.9948     63.5993  11.74     31089.63     4.765     4.320     103.0673  16.8185          1
 3.56   0.0234     17.4664    984.8538 -87.97     4794.355     3.939     1.768     103.1791  18.8482          2
 3.70   0.0301     18.7613     91.0461 -72.32     3726.097     1.628     1.551     103.1856  19.1219          3
 3.50   0.0117     15.4439   1445.5518 -63.74     9549.428     1.723     1.620     103.1856  18.1001          4
 7.05  99.0000     10.4944   1183.4982  44.88    -55.99645     0.503     0.497     103.2185  99.0000          5
 6.79   0.4946      4.1435    144.9200  40.71     193.1709     0.834     0.672      87.9683  22.3351          6
 3.53   0.2952     25.4599    366.9177 -33.36     379.5018     1.209     1.182     103.1725  21.6020          7
 5.01   0.4075     18.0271    384.0071  43.53     274.8169     0.809     0.761     103.1199  21.9524          8
 3.50   0.0025     60.5942   1078.2433  79.65      43945.8     2.045     1.915     103.1265  16.4427          9
 7.59   0.5846     25.0074    383.0000  90.00     191.4678     0.842     0.289     103.0608  22.3448         10
 7.00   0.3331     34.3968    326.2948 -70.38      336.461     0.892     0.657     103.1988  21.7327         11
 8.25   0.2433     35.5171   1110.5182  45.17     460.8296     0.503     0.496      103.225  21.3911         12
 4.83  99.0000     38.7597   1521.1840  45.81    -31.92168     0.950     0.349     103.1462  99.0000         13
 6.60   0.4959     39.9982   1170.3248 -89.54     225.9788     0.726     0.673     103.1856  22.1648         14
 5.08   0.4565     43.2899    915.1600 -64.45     245.4961     0.937     0.674     103.1856  22.0749         15
 3.50   0.0027     80.9653    537.4162 -67.70     42085.21     1.980     1.870     103.1528  16.4897         16
 3.99   0.0751     75.9960    127.7005  55.44     1493.331     1.307     1.246     103.2053  20.1146         17
 5.32   0.1783     91.4747    376.8052 -78.40     628.5546     1.741     1.269     103.2053  21.0541         18
 6.25   0.4276     82.9848    421.3330 -38.45     262.1207     1.007     0.637     103.1988  22.0037         19
 3.50   0.0018    122.5889    788.9196 -60.37     62877.43     2.056     1.925     103.1922  16.0538         20
 4.17   0.0511     97.3493     56.0204  -7.37     2193.243     1.457     1.395     103.1988  19.6973         21
 7.78   0.3634     92.3186    495.3375 -44.13     308.3538     0.573     0.336     103.1856  21.8274         22
 6.52   0.1700     98.9442    452.4184 -20.12     659.4037     1.369     0.696     103.2119  21.0021         23
 3.50   0.0032    163.1369   1468.1296 -57.59     35244.31     1.970     1.871     103.1922  16.6823         24
 3.50   0.0143    171.1456    877.1454 -68.39      7814.31     1.706     1.635     103.1725  18.3178         25
 3.67   0.2235    165.7684   1445.6555  -7.75     501.5321     1.212     1.083     103.2119  21.2993         26
 4.92   0.2515    167.5014    104.2011 -32.68      445.562     1.115     0.922     103.1988  21.4277         27
 7.91  99.0000    170.4819   1368.4851 -44.87    -36.56362     0.512     0.488     103.2119  99.0000         28
 4.77   0.1255    193.3859   1350.3395 -42.09     892.9954     1.318     1.057     103.1725  20.6729         29
 7.35   0.4252    181.2063    574.7820  44.91     263.3007     0.986     0.349     103.1002  21.9989         30
 4.35   0.0281    211.5626    827.4361  -8.57     3982.567     3.339     1.771     103.2053  19.0496         31
 3.50   0.0789    207.4782    548.8702 -72.05     1420.779     1.499     1.332     103.1988  20.1687         32
 3.50   0.0923    212.9936   1305.8973  69.45     1213.997     1.388     1.321     103.2053  20.3395         33
 5.27   0.0341    231.1450    561.7668  10.32     3283.949     2.843     2.662     103.2185  19.2590         34
 5.23   0.3756    211.2085    684.5320 -70.43     298.4066     1.237     0.904     103.2119  21.8630         35
 3.77   0.0821    224.5214   1225.8990 -76.03     1365.952     1.462     1.383     103.2119  20.2114         36
 3.50   0.0009    260.5699    997.2185 -61.12     118084.2     2.106     1.983     103.1462  15.3695         37
 3.50   0.9625    223.2770    774.7710 -19.14     116.4366     1.218     1.021     103.1922  22.8848         38
 3.50   0.0014    266.7070     67.3818 -75.44     80425.16     2.060     1.957     103.1856  15.7865         39
 5.27   0.0911    244.4147    112.6355  80.16     1229.114     1.906     1.363     103.1528  20.3260         40
 6.57   0.2640    239.8170    838.5391 -40.63     424.4866     1.095     0.737     103.1856  21.4803         41
 4.61   0.0334    256.3414    612.7535 -32.37     3357.599     2.246     1.702     103.2053  19.2349         42
 6.91   0.2174    251.3722    107.4549 -25.45     515.5833     0.933     0.813     103.2119  21.2693         43
 6.37   0.1523    252.8633   1372.6449 -24.09     735.7393     0.909     0.681     103.2053  20.8832         44
 3.50   0.0060    288.3489   1486.2731 -44.95      18518.7     1.805     1.731     103.1594  17.3810         45
 3.50   0.0291    282.7197   1522.1979 -50.10     3857.106     1.529     1.437     103.1856  19.0843         46
 7.27   1.7859    271.0280   1273.5339  -3.00     62.74345     0.829     0.691     103.1791  23.5561         47
 3.50   0.0081    303.9831    201.6050 -71.65     13831.51     1.787     1.668     103.0871  17.6978         48
 6.67   0.1265    294.3306   1475.4302  33.11      885.662     0.955     0.947     103.1856  20.6818         49
 3.50   0.1493    302.8382    563.5659 -80.60     750.5396     1.246     1.152     103.1988  20.8616         50
 3.50   0.0130    322.8598    697.1352 -67.38     8606.119     1.690     1.644     103.1725  18.2130         51
 7.69   0.1405    308.6135     85.2461 -16.34     797.5554     0.942     0.650     103.1528  20.7956         52
 6.04   0.2522    322.4568    641.0989 -70.15     444.3642     1.896     0.720     103.1791  21.4307         53
 4.52   0.0640    328.1229    595.2418  11.03     1749.454     1.516     1.492     103.1791  19.9427         54
 5.84   1.1248    330.3811   1545.7687 -17.72     99.59112     0.744     0.451     103.1462  23.0544         55
 6.18   3.1527    332.9485     93.3431 -17.24     35.54593     0.981     0.742     103.1922  24.1730         56
 3.50   0.1114    350.9585     54.4072  13.12      1005.09     1.245     1.164     103.1265  20.5445         57
 3.50   0.0118    368.9713    760.8918 -57.32     9520.506     1.689     1.586     103.1856  18.1033         58
 3.50   0.0739    362.0646   1500.1921 -30.51     1517.363     1.376     1.351     103.1856  20.0973         59
 3.50  99.0000    361.4000   1033.6807 -45.80    -3.176698     0.997     0.846     103.1659  99.0000         60
 3.50   0.0024    396.0172    231.2760 -65.03     46237.84     1.945     1.885     103.1791  16.3875         61
 6.16   2.9624    369.5287    210.5006  43.57     37.83896     0.508     0.491     103.2185  24.1052         62
 7.05   0.5920    371.0011     71.5022  -1.33     189.3071     0.843     0.681     103.1988  22.3571         63
 5.54   2.3850    374.3658   1083.8331 -41.04     46.97995     1.107     0.664     103.1725  23.8702         64
 3.50   0.0157    398.9885    354.3774 -58.40     7142.304     1.668     1.581     103.1331  18.4154         65
 3.50   0.0178    397.8935   1460.9961 -30.63     6312.604     1.619     1.576     103.1988  18.5495         66
 7.59   0.2582    380.7195    125.6230 -40.56     433.9877     0.570     0.334     103.1725  21.4563         67
 3.50   0.0986    394.5604   1088.5067 -26.74     1136.466     1.300     1.290     103.1922  20.4111         68
 6.74   0.3635    398.1501    626.6614  21.00     308.3167     1.096     0.636     103.1922  21.8275         69
 8.93   0.4741    404.5203    526.5024 -44.04     236.4459     0.506     0.494     103.2185  22.1157         70
 3.50   0.0074    438.7550    251.9416 -52.31     15203.85     1.770     1.693     103.2185  17.5951         71
 5.22   0.1050    421.7733    158.6463  43.53     1067.427     1.532     1.188     103.1922  20.4792         72
 3.50   0.0009    461.8542    807.3710 -56.30     131536.6     2.102     1.993     103.2119  15.2524         73
 6.01   0.2945    427.6958   1179.2756  39.45      380.662     0.952     0.755     103.2119  21.5986         74
 3.50   0.1025    433.6942   1421.8760 -25.19     1093.076     1.371     1.230     103.2119  20.4534         75
 8.02   0.0766    427.0000    432.5600   0.00     1462.124     2.207     0.289     103.1002  20.1375         76
 5.72   0.1933    434.8481    151.1170  42.49     579.6613     1.038     0.821     103.1988  21.1421         77
 8.41   0.1234    432.1920    717.3890  71.03      907.744     0.763     0.444     103.1068  20.6551         78
 3.62   0.0231    451.1131     21.1480 -46.22      4846.27     1.641     1.523     103.1791  18.8365         79
 3.99   0.1979    440.8108    305.4538 -73.76      566.162     1.033     0.950     103.1659  21.1676         80
 4.76   0.0224    468.6128    850.2737  22.54     4993.694     6.924     1.743     103.1725  18.8039         81
 3.50   0.0213    458.6722     34.3961 -76.91      5258.72     1.602     1.490     103.2119  18.7478         82
 5.79   0.1438    446.0550    122.0158 -42.50     779.3811     1.336     1.095     103.1988  20.8206         83
 3.67   0.0598    464.5803    468.4629 -79.61     1874.166     1.484     1.303     103.1988  19.8680         84
 5.53   0.6692    453.6195   1533.2019 -18.16     167.3033     0.741     0.449     103.0937  22.4912         85
 5.38   0.1997    461.8551   1096.1782  31.16     561.2221     0.890     0.845      103.225  21.1772         86
 3.94   0.0801    472.0859    254.1018 -79.63     1399.731     1.390     1.242     103.2316  20.1849         87
 6.84   0.1719    462.4961    724.5242 -18.76     652.1293     0.982     0.409     103.2119  21.0142         88
 3.62   0.0592    472.9289    734.7911 -51.29     1894.578     1.421     1.331     103.2053  19.8562         89
 3.50   0.0378    478.8123    922.8293 -24.35     2962.122     1.483     1.414     103.1397  19.3710         90
 4.19   0.1660    478.7989   1276.8616 -67.36     674.9114     1.166     1.157     103.1659  20.9769         91
 3.50   0.0972    484.9070   1070.4321 -47.93     1153.129     1.261     1.224     103.1725  20.3953         92
 5.17   0.6854    479.8050    682.7712  42.58     163.3703     0.758     0.559     103.1002  22.5171         93
 5.24   0.0629    496.9012     82.6723  57.65     1781.617     2.137     1.836     103.2185  19.9230         94
 7.40   0.1499    489.2251    839.4065  85.20     747.0596     1.467     0.613     103.1068  20.8666         95
 5.19   0.9769    481.8154   1309.1838 -45.06     114.6271     0.757     0.563     103.1068  22.9018         96
 4.73   0.0568    496.5127   1186.6318 -14.12     1972.785     2.718     1.616     103.1856  19.8123         97
 4.48   0.0074    532.1151    518.8350  20.35     15058.88     4.038     2.327     103.1791  17.6055         98
 3.55   0.2053    502.7284    863.4223  89.33      545.779     1.198     1.025     103.1791  21.2075         99
 3.69   0.0419    516.2611   1461.0109  24.04     2673.276     3.983     1.418     103.1659  19.4824        100
 5.34   0.0992    505.2831    762.7427  56.00      1129.73     1.518     1.381     103.1791  20.4176        101
 6.21   0.3440    498.9921    365.9867 -35.24     325.4986     0.810     0.759     103.1002  21.7686        102
 5.79   0.1219    510.6985    164.7481  -0.47     919.1895     1.920     0.868     103.1856  20.6415        103
 3.54   0.1470    514.6564   1179.0015 -42.12     762.1642     1.241     0.984     103.1397  20.8449        104
 5.23   0.5486    520.3826    641.3871 -51.61     204.1269     1.135     0.780     103.1134  22.2752        105
 4.50  99.0000    519.4834   1518.9756   2.06    -199.9813     0.788     0.499     103.1725  99.0000        106
 3.68   0.0777    541.0331    999.7112 -69.49     1442.384     1.417     1.304     103.1725  20.1523        107
 6.66   0.4871    536.7133    404.5716  40.67     230.1003     1.305     0.505     103.1988  22.1452        108
 3.66   0.0517    559.8421   1041.5485 -22.94     2165.678     1.498     1.405     103.1922  19.7110        109
 6.23   0.8154    556.5090    778.4932  44.41     137.4739     0.501     0.499     103.2185  22.7044        110
 4.52   0.0735    571.7526     45.7116  60.31     1524.323     1.827     1.321     103.1922  20.0923        111
 3.50   0.0123    581.4449    144.8273 -78.14     9142.362     1.702     1.586     103.1922  18.1474        112
 3.55   0.0706    572.1193   1447.7230  16.02     1588.381     2.132     1.585     103.2119  20.0476        113
 4.76   0.1299    565.6754    139.4537 -49.48     862.6471     1.023     0.869     103.1659  20.7104        114
 3.50   0.0124    582.9798    318.9925 -50.10     9036.514     1.680     1.615     103.1134  18.1600        115
 4.00   0.0222    597.6184    782.6070 -46.09     5037.821     3.060     2.908     103.1002  18.7944        116
 6.75   0.4780    577.3093   1001.4482 -52.87     234.4209     1.080     0.813     103.1856  22.1250        117
 4.09   0.6935    585.5786     75.8797  16.98      161.597     1.187     1.039     103.1856  22.5289        118
 4.35   0.1114   1000.7565   1273.8424 -21.09     1005.801     1.195     1.166     103.2119  20.5437        119
 5.67   0.1478   1598.0852    655.0330 -39.39     612.3174     1.565     1.199     83.33947  21.0826        120
 5.65   0.0828   1595.8564    374.0631  29.89     1198.205     1.187     1.098     91.39175  20.3537        121
 8.36  99.0000   1592.6672    566.6823 -45.72    -247.1073     0.570     0.337     100.1255  99.0000        122
 4.65   3.6619   1586.7622   1069.2759 -18.26      30.5997     0.839     0.353     103.1791  24.3357        123
 3.67   0.0306   1542.6964    135.1372 -48.83     3661.857     1.550     1.435     103.1791  19.1407        124
 3.91   0.0665   1543.4806    654.6917 -35.75     1686.138     1.433     1.320     103.2119  19.9828        125
 0.00  99.0000   1529.4951    733.0126  31.67    -352.2526     0.811     0.308     103.1856  99.0000        126
 7.09   0.1586   1519.7188     84.3860  80.84     706.6519     1.285     0.695     103.2053  20.9270        127
 3.50   0.0146   1515.7234    392.7148 -65.32     7686.538     1.642     1.602     103.2185  18.3357        128
 3.50   0.0037   1508.0337    269.3897 -52.07     29966.62     1.823     1.734     103.1659  16.8584        129
 6.49   0.0642   1111.5519    479.1837  -6.49     1745.021     1.847     1.494     103.1791  19.9455        130
 3.50   0.0180   1108.2184    427.9441 -42.57     6242.855     1.653     1.569     103.2119  18.5615        131
 5.27   0.1905   1095.3320   1136.3632  50.27     588.1759     0.971     0.882     103.1856  21.1262        132
 4.88   0.1594   1080.0269    330.1104 -85.10     703.1795     0.955     0.834     103.1856  20.9323        133
 5.36   0.0536   1072.7854   1219.0762 -60.92     2090.918     1.897     1.428     103.1988  19.7492        134
 6.32   0.1584   1067.9000    568.8391 -49.18      707.486     0.837     0.669     103.1659  20.9257        135
 3.50   0.4048   1066.6152   1597.0835  65.14     233.6961     0.874     0.691     87.10892  22.1284        136
 5.81   0.3193    965.9115    416.3372 -16.94     350.9932     0.998     0.741     103.1856  21.6868        137
 6.09   0.1021    952.0375    654.1607   9.47     1097.448     1.267     1.156     103.2053  20.4490        138
 5.03   0.3949    948.9437    445.1916  -1.07      283.665     0.901     0.746     103.1462  21.9180        139
 4.14   0.0594    939.9215   1067.0532 -58.29     1884.943     1.429     1.322     103.1791  19.8618        140
 7.62   0.1242    939.0992    516.1607  11.41     902.2214     1.156     0.719     103.1725  20.6617        141
 8.32   1.1537    933.6818   1118.3519  43.58     97.12914     0.578     0.332     103.1856  23.0816        142
 4.96   0.1016    929.1829   1322.4061 -78.34     1102.164     1.262     1.234     103.0937  20.4444        143
 4.99   0.1696    913.5953    838.4943 -20.97     661.0104     1.206     1.184     103.2053  20.9995        144
 4.59   0.2329    913.2911   1000.9257  -8.75     481.2921     1.116     0.890     103.2185  21.3440        145
 3.50   0.0187    901.2079    302.8333 -60.65     5994.491     1.624     1.544     103.1462  18.6056        146
 5.25   0.1063    896.9571    538.5267  -1.16     1054.201     1.814     1.479     103.1791  20.4927        147
 6.44   0.4037    894.9256   1425.7035 -34.64     277.6637     1.013     0.832     103.2119  21.9412        148
 3.50   0.0010    881.0694   1592.5051 -61.40     105468.2     2.080     1.967     100.4634  15.4922        149
 5.08   0.1229    889.4803    325.3073   9.89     912.0075     1.463     0.989     103.2119  20.6500        150
 5.30   0.1796    886.5543   1500.3660  -2.89     623.9072     1.273     1.203     103.1791  21.0622        151
 6.68   0.1688    885.6320    339.2068 -40.94     663.4052     1.101     0.667     103.1331  20.9956        152
 5.07   0.1466    878.3784    960.8483  19.59     764.4153     1.149     0.959     103.1988  20.8417        153
 6.72   0.2176    877.6412    541.7975 -59.24      514.679     0.720     0.632     103.1199  21.2712        154
 4.71   0.0442    870.2624   1103.6235 -63.80     2534.749     1.931     1.651      103.225  19.5402        155
 5.89   0.1323    868.7073    939.5353  27.63     847.0503     1.905     1.282     103.1856  20.7302        156
 7.12   0.4870    870.4095    643.7270 -18.15     230.1239     0.737     0.458     103.1922  22.1451        157
 5.09   0.1506    859.1409   1340.0940 -81.10     744.0666     1.352     0.902     103.1659  20.8710        158
 6.38   0.3370    856.4113    545.2225  19.39     332.3605     0.755     0.449     103.1331  21.7460        159
 4.81   0.3542    845.9391   1063.5706 -66.55     316.4567     1.201     0.933     103.2119  21.7992        160
 4.84   0.1016    844.1618   1105.9795  14.77     1102.305     1.567     1.328     103.1528  20.4442        161
 3.50   0.0736    837.4161    298.6477 -40.47         1523     1.306     1.164     103.1791  20.0933        162
 7.47   0.3761    837.5931   1520.2312 -18.12     297.7794     0.737     0.457     103.1199  21.8653        163
 3.98   0.5179    836.5171    819.1790 -39.01     216.3732     0.962     0.951     103.1856  22.2120        164
 3.50   0.0191    823.7498    654.3543 -57.04     5874.448     1.632     1.572     103.2119  18.6276        165
 8.24   0.3011    820.6116   1398.2184 -18.36      371.929     0.749     0.449     103.1134  21.6238        166
 7.04   2.5152    819.5127    702.5098  44.59     44.56454     0.502     0.498     103.2119  23.9275        167
 3.53   0.0206    803.8825   1378.6069 -26.67     5438.322     1.673     1.603     103.1922  18.7113        168
 3.50   0.0070    799.2851    695.5685 -87.24     15992.08     2.520     1.770     103.1856  17.5402        169
 3.50   0.0477    801.5750     41.0710 -58.95     2350.933     1.460     1.332     103.1659  19.6219        170
 4.26   0.0445    774.8898   1427.4734 -83.44     2520.406     2.591     1.881     103.2119  19.5463        171
 8.51   0.3536    768.7847    140.3808 -71.42     316.6989     0.762     0.444     103.1265  21.7984        172
 8.84   0.2409    755.9553    195.6374  61.43     465.2274     0.931     0.206     103.1922  21.3808        173
 4.21   0.0844    743.5612    556.3371 -38.93      1327.72     1.314     1.281     103.2053  20.2422        174
 4.75   0.3364    738.8908   1157.9137 -18.32     333.2306     1.107     1.082     103.2185  21.7431        175
 5.22   0.1586    736.8796    649.6505 -64.17     706.5325     1.118     1.007     103.1791  20.9272        176
 3.50   0.0018    727.4302    848.3068 -52.76     63141.34     2.058     1.948     103.1922  16.0492        177
 4.51   0.1334    728.2628   1178.2941 -60.96     839.8124     1.315     1.247     103.1856  20.7395        178
 6.52   0.4811    722.0104   1394.8124   6.11     232.7274     0.910     0.757     103.0937  22.1329        179
 3.80   0.0973    716.7562    808.2146 -62.32     1151.815     1.424     1.228     103.1594  20.3965        180
 4.98   0.0984    709.6512   1163.6588 -57.01     1138.408     1.332     1.254     103.1988  20.4093        181
 4.52   0.0713    705.1599   1339.0242 -16.40      1570.93     1.623     1.394     103.1725  20.0596        182
 0.00   2.5333    707.5835    794.4910 -33.44     44.23406     0.505     0.488     103.1856  23.9356        183
 4.18   0.0496    703.4850    952.3275 -25.37     2261.676     1.529     1.490     103.2119  19.6639        184
 5.50   0.1584    699.9012    582.6287   3.18     707.5557     1.578     0.768     103.1725  20.9256        185
 6.05   0.2892    692.6078   1213.5953  77.41     387.0474     1.300     1.115     103.0871  21.5806        186
 6.28   0.1375    687.8056   1213.6979 -52.71     815.2521     1.280     0.862     103.2119  20.7718        187
 6.88   0.1557    692.9630    316.2277  88.40     719.6806     0.692     0.419     103.1725  20.9072        188
 3.50   0.0568    686.3311    644.1193  52.18     1971.247     1.411     1.355     103.1856  19.8131        189
 3.50   0.7275    688.1718    130.8481 -46.89     154.0479     0.725     0.566     103.1988  22.5809        190
 8.29   0.2479    669.7856   1221.3882 -71.69     451.7291     0.747     0.450     103.1002  21.4128        191
 3.50   0.0018    649.1250   1464.3016 -58.68      61901.4     1.982     1.886     103.2185  16.0707        192
 4.68   0.2675    655.5355    871.0259  16.21     418.8881     1.141     0.933     103.1922  21.4948        193
 3.50   0.1577    647.0779    652.8758  46.56     710.5949     0.833     0.643     103.2119  20.9209        194
 4.51   0.2424    631.7102    805.9259 -67.18     462.3976     1.108     1.010     103.2053  21.3875        195
 3.50   0.1335    624.1596   1581.3679 -23.13     839.4556     1.276     1.069     103.1988  20.7400        196
 7.18   0.2392    618.9836   1150.9087 -83.74     468.5299     0.790     0.784     103.1856  21.3732        197
 6.65   0.3678    610.3862    945.1718  18.99     304.5209     0.756     0.444     103.1397  21.8410        198
 3.50   0.0020   1564.5659    304.2784 -39.97     55744.02     1.929     1.843     103.1791  16.1845        199
 3.50   0.1514   1585.8114   1108.8171 -60.18     739.6273     1.227     1.126     103.1002  20.8775        200
 3.91   0.0514   1571.3781     92.7366 -26.69     2178.653     1.418     1.284     103.2053  19.7045        201
 5.87   0.1292   1566.7365    784.6447 -81.75     867.4638     1.721     1.303     103.2053  20.7044        202
 5.18  99.0000   1546.9447    863.4130  86.01    -121.0589     1.409     1.245     103.1594  99.0000        203
 3.93   0.0440   1567.4551     22.0330 -35.40     2549.386     1.533     1.329     103.2185  19.5339        204
 3.95   0.0061   1553.5302    682.1663 -30.49     18371.19     4.548     3.782     103.1856  17.3897        205
 5.06   0.7163   1562.1012    861.5003   5.79     156.4847     1.287     1.134     103.2185  22.5638        206
 3.50   0.3885   1551.6234   1221.7095 -69.32     288.4515     0.904     0.802     103.1791  21.8998        207
 3.50   0.0020   1558.8730    487.7139 -46.17     55103.01     1.910     1.842     103.2119  16.1971        208
 6.29   0.4537   1536.8062   1429.2098 -45.32     246.7656     1.236     0.501     103.1002  22.0693        209
 6.79   6.6954   1499.2946    844.4075 -19.62     16.73883     0.869     0.654     103.1988  24.9907        210
 5.64   0.1237   1532.6440    415.9157 -31.31     905.7128     1.337     0.875     103.1856  20.6575        211
 5.39   0.1597   1130.0070    547.4576 -64.23      701.591     1.197     0.937     103.1528  20.9348        212
 7.78   0.1738   1525.5988    378.8171  20.06     644.1407     0.749     0.444     103.0739  21.0275        213
 6.43   0.1695   1523.4879     14.4988  44.71     661.2097     0.507     0.493     103.2185  20.9992        214
 6.52   0.1575   1516.2588   1546.8119  58.31     711.4124     1.306     0.667     103.1659  20.9197        215
 5.46   0.1032   1515.4100    483.6451 -46.18     1085.178     1.017     0.863     103.1397  20.4612        216
 5.37   0.4390   1504.8772    723.3482 -20.12     255.2306     1.275     1.083     103.1725  22.0327        217
 3.87   0.2127   1131.0514    219.3539 -34.04     526.8336     1.387     0.964     103.2053  21.2458        218
 7.77   0.1316   1488.9768     77.7638 -88.99     851.1399     0.700     0.425     103.1594  20.7250        219
 6.17  99.0000   1131.8176    359.0837  41.87    -62.40703     0.833     0.663     103.1791  99.0000        220
 4.55   0.0501   1120.8425    329.8152  62.81     2236.154     2.093     1.459     103.1528  19.6762        221
 8.38   0.3771   1204.6903   1217.6581 -43.48     297.1398     0.570     0.337     103.1725  21.8676        222
 6.96   0.2655   1483.5046    574.9631 -36.36     422.0361     1.414     0.712     103.1922  21.4866        223
 3.50   0.0038   1139.3217    148.1025 -43.14     29267.68     1.837     1.761      103.225  16.8840        224
 5.48   0.2371   1229.2921   1154.0187 -19.16     472.6649     1.188     0.889     103.1856  21.3636        225
 6.73   0.1726   1476.3737    998.3060 -22.23     649.1221     1.227     0.538     103.1791  21.0192        226
 6.01   0.0678   1213.4183   1429.6628 -33.36     1653.463     1.871     1.703     103.1791  20.0040        227
 3.68   0.0340   1436.1495    224.7683 -27.69     3292.189     1.533     1.436     103.1922  19.2563        228
 4.66   0.4257   1263.2986    215.7001  44.91     263.3376     0.547     0.347     103.2185  21.9987        229
 5.29   0.8417   1262.9877    855.1975  -0.63     133.0223     0.910     0.738     103.0937  22.7402        230
 5.21   0.1588   1407.2019    329.7820  81.21     705.1057     1.204     1.074     103.0739  20.9294        231
 8.62   0.4447   1454.2683    392.0120  -0.68     252.0068     0.683     0.443     103.1988  22.0465        232
 3.83   0.0278   1278.9093   1331.4395 -51.58     4035.085     1.562     1.492     103.1791  19.0354        233
 4.62   0.0858   1260.2711    432.5604  84.96     1305.713     1.781     1.592     103.1856  20.2604        234
 5.56   0.2068   1437.0319   1346.9777  89.07     541.8041     0.631     0.596     103.1528  21.2154        235
 3.50   0.0009   1435.6907   1089.9928  44.87     118410.2     1.877     1.555     103.1922  15.3665        236
 5.67   0.6741   1389.5419    806.5201  -2.50     166.2145     0.894     0.873     103.1791  22.4983        237
 4.32   0.0473   1391.2994    713.2474   1.07      2370.34     1.404     1.360     103.1659  19.6130        238
 4.06   0.0611   1416.3636   1386.5543  12.77     1834.934     1.363     1.281     103.1922  19.8909        239
 3.63   0.0525   1440.6522    619.1528  -6.74     2135.021     1.385     1.265     103.2053  19.7265        240
 3.50   0.0015   1394.2677    114.4729 -48.28     74512.94     2.004     1.892     103.2119  15.8694        241
 5.12   0.1791   1439.4843   1271.0247  88.17     625.4726     1.031     0.777     103.1725  21.0595        242
 0.00  99.0000   1439.4855    646.9733  32.04    -316.0047     0.799     0.313     103.1856  99.0000        243
 7.00   0.1959   1432.9149    341.0662   6.46     572.1432     1.301     0.760     103.1988  21.1562        244
 3.64   0.0157   1389.6102   1428.4904 -37.35     7122.959     1.621     1.585     103.1922  18.4183        245
 3.55   0.0496   1409.0575    308.3873 -12.30     2257.423     1.494     1.361     103.1659  19.6660        246
 5.91   0.1229   1412.1827    349.9506  31.48     911.9512     1.317     1.066     103.1988  20.6501        247
 3.65   0.2037   1293.8597    412.8183  39.21     550.2528     1.177     1.096     103.2053  21.1986        248
 7.73   0.4802   1369.4696    149.4743  20.27     233.3927     0.499     0.499     103.2053  22.1298        249
 5.29   0.2915   1292.0199    545.9747 -45.38     384.2603     0.899     0.525     103.1462  21.5884        250
 5.99   0.2325   1401.4871   1031.5629  64.38     481.9034     1.249     1.173     103.1659  21.3426        251
 3.94   0.0668   1393.0740   1038.7726 -79.99     1678.404     1.354     1.302     103.1856  19.9878        252
 6.46   1.3710   1388.9921   1585.0000  90.00     81.63596     0.837     0.289     103.0608  23.2703        253
 7.48  99.0000   1380.4749    318.9702   0.58    -3.534075     0.801     0.499     103.1856  99.0000        254
 5.90   0.2842   1346.4714    605.3474 -52.18     394.1826     1.139     0.661     103.1594  21.5608        255
 5.76   0.0437   1294.3655    742.3005  69.37     2564.888     1.400     1.280     103.1856  19.5273        256
 3.55   0.0143   1373.4568   1018.9329 -27.29     7852.937     1.744     1.640     103.1791  18.3124        257
 3.50   0.0039   1320.9065    659.9919 -53.06     28495.92     1.897     1.778     103.1856  16.9130        258
 6.23   0.3581   1331.3510    386.8592  12.26     312.9635     1.146     0.934     103.1922  21.8113        259
 8.37   0.2811   1353.5084    152.2318 -88.80     398.6535     0.991     0.724     103.1725  21.5485        260
 4.17   0.0362   1330.7802    655.8921   4.55     3091.323     1.653     1.574     103.1791  19.3246        261
 5.22   0.1580   1333.6917    107.4516 -24.98     709.3253     1.328     1.072     103.1856  20.9229        262
 5.50   0.1614   1319.9974    264.1472 -43.53     694.0082     1.279     0.918     103.1397  20.9466        263
 4.28   0.0345   1308.3876    669.5966  -7.29     3247.443     1.485     1.461     103.0937  19.2711        264
 4.73   0.1488   1305.4764    892.7847  73.35     753.3764     1.156     1.092     103.2053  20.8575        265
 4.01   0.0099   1273.6105    609.9735 -59.01      11325.6     3.958     2.341     103.1331  17.9148        266
 3.50   0.0006   1299.2603    724.8717 -47.07     174915.8     2.142     2.007     103.1922  14.9429        267
 3.50   0.0169   1292.1937    762.0984 -26.08     6627.813     2.110     1.652     103.2119  18.4966        268
 7.00   0.4585   1300.2129     53.7996 -41.18     244.1777     0.749     0.562     103.0805  22.0807        269
 3.83   0.0373   1266.2433    807.8978 -49.31     3007.135     1.517     1.442     103.1659  19.3546        270
 8.18  99.0000   1278.4875    343.5114 -44.87    -4.695616     0.503     0.497     103.2053  99.0000        271
 6.70   0.0988   1230.5718    599.2249  51.78     1133.399     1.440     1.294     103.1462  20.4140        272
 6.98   0.2119   1274.4132    698.2534 -86.21     528.7303     1.011     0.709     103.1725  21.2419        273
 4.12   0.0105   1211.6340   1279.0074  81.80     10658.21     5.533     3.369     103.1397  17.9808        274
 3.87   0.0710   1238.0366   1553.5013 -43.93     1577.492     1.320     1.275     103.1791  20.0551        275
 5.52   0.2396   1238.4796     48.2261  17.39     467.7787     0.987     0.967     103.1856  21.3749        276
 8.44   0.3812   1238.7888    857.3996 -72.78     293.6496     0.750     0.457     103.0805  21.8804        277
 3.78   0.0559   1235.1672    304.8624 -24.46      2006.67     1.418     1.405     103.2053  19.7938        278
 5.13   0.2013   1245.0322    614.0154  43.88     556.5356     0.913     0.532     103.1528  21.1863        279
 4.00   0.0983   1202.7358    339.1342  74.41     1139.712     1.329     1.284     103.2053  20.4080        280
 3.50   0.0083   1215.4410    513.0215 -37.63     13539.04     1.704     1.630     103.1725  17.7210        281
 3.69   0.0122   1219.6963   1195.0034 -39.73      9214.63     1.794     1.760     103.1922  18.1388        282
 4.21   0.0737   1208.4735    838.8157 -35.04     1519.463     1.367     1.247     103.1791  20.0958        283
 5.34   0.0780   1195.8353    124.2200 -89.34     1436.134     1.751     1.549     103.1462  20.1570        284
 4.08   0.1311   1201.8878   1442.0974 -89.55      854.767     1.538     1.319     103.2185  20.7204        285
 3.50   0.1736   1181.6075    549.2989 -33.66     645.6165     1.157     0.858     103.2119  21.0251        286
 4.07   0.1018   1152.1097     99.4345  -3.71     1100.269     1.325     1.153     103.1725  20.4463        287
 5.82   0.4298   1182.5006    176.3564  28.30     260.6732     1.060     0.820     103.1659  22.0098        288
 5.37   0.1120   1154.4596   1353.0623 -80.95     1000.028     1.406     1.200     103.1791  20.5500        289
 3.50   0.0209   1158.6987    236.4566 -47.97      5350.55     1.533     1.489     103.1725  18.7290        290
 3.50   0.0076   1130.7496    183.5811 -58.66     14767.47     1.725     1.648     103.1988  17.6267        291
 3.50   0.0024   1165.9796   1299.8108 -77.09      46681.1     1.924     1.862     103.1265  16.3771        292
 5.81   0.1206   1162.6285    887.9203 -34.31     928.9498     1.309     0.999     103.1922  20.6300        293
 3.50   0.3977   1085.8322   1452.6077  70.90     281.6423     0.750     0.447     103.1397  21.9258        294
 3.50   0.0039   1095.6074    778.2672  37.03     28474.76     1.783     1.731     103.1988  16.9138        295
 6.44   0.1479   1091.4114    468.3268 -66.16     757.9216     1.588     0.831     103.1988  20.8509        296
 3.50   0.0119   1082.6101   1148.1854 -80.03     9388.449     1.721     1.650     103.0937  18.1185        297
 3.53   0.1142   1096.1083   1526.4297 -81.99     981.0735     1.184     1.054     103.1988  20.5707        298
 6.65   0.1372    979.1580    452.7891  43.37     816.4794     0.895     0.840     103.1462  20.7701        299
 3.50   0.0036   1080.7640    512.1384 -62.87     30984.07     1.841     1.770     103.2053  16.8222        300
 4.87   0.0915   1066.2321   1562.7701 -66.00     1224.863     1.816     1.129     103.1659  20.3298        301
 3.50   0.0062   1026.6034   1379.9752 -59.10     18134.87     1.798     1.735     103.0937  17.4037        302
 3.50   0.0072   1010.5954    813.6605 -50.73     15504.26     1.765     1.719     103.1594  17.5739        303
 6.06   0.1421    981.7744    797.9147 -66.94     788.6205     1.359     1.175     103.1856  20.8078        304
 3.50   0.0699   1030.8134    302.6691  66.23     1603.032     2.250     1.531     103.1856  20.0376        305
 3.50   0.0028   1041.0393    633.0474 -48.66     39834.61     1.894     1.818     103.1922  16.5493        306
 3.50   0.0134   1039.4924    525.3885 -61.51     8334.144     1.646     1.582     103.1856  18.2478        307
 9.03   0.2674   1040.6940    467.3314  43.70     419.2087     0.564     0.340     103.2053  21.4939        308
 6.78   2.3183    999.2442    232.9778   1.15     48.33171     0.675     0.429     103.1725  23.8394        309
 7.74   0.2399   1014.5070    453.4906 -45.08     467.3345     0.506     0.493     103.2185  21.3759        310
 5.24   0.0731    987.4515    453.9992  88.89     1531.685     1.567     1.392     103.1265  20.0871        311
 3.50   0.0481   1011.9922    344.6870 -54.47     2327.951     1.461     1.317     103.1922  19.6326        312
 4.05   0.0402   1002.5002    542.4741  86.95     2788.884     1.515     1.443     103.2119  19.4364        313
 3.50   0.0040    985.6564    558.4471 -64.77      27779.7     1.862     1.758     103.2053  16.9407        314
 3.50   0.0974   1002.4277   1555.2845 -71.32     1150.203     1.305     1.200     103.1856  20.3981        315
