#   1 KRON_RADIUS            Kron apertures in units of A or B                         
#   2 MAGERR_APER            RMS error vector for fixed aperture mag.                   [mag]
#   3 Y_IMAGE                Object position along y                                    [pixel]
#   4 X_IMAGE                Object position along x                                    [pixel]
#   5 THETA_IMAGE            Position angle (CCW/x)                                     [deg]
#   6 FLUX_APER              Flux vector within fixed circular aperture(s)              [count]
#   7 A_IMAGE                Profile RMS along major axis                               [pixel]
#   8 B_IMAGE                Profile RMS along minor axis                               [pixel]
#   9 FLUX_RADIUS            Fraction-of-light radii                                    [pixel]
#  10 FLUXERR_APER           RMS error vector for aperture flux(es)                     [count]
#  11 MAG_APER               Fixed aperture magnitude vector                            [mag]
#  12 NUMBER                 Running object number                                     
 4.06   0.0028     54.8102     63.6162   7.95     29638.55     4.204     3.866     12.083     77.60409  16.8704          1
 4.70   0.0168     18.1055    984.9224 -87.76     5015.733     3.562     1.819      8.323     77.57773  18.7992          2
 3.50   0.0210     19.5111     91.2539 -74.58     4012.391     1.594     1.593      3.984     77.58652  19.0415          3
 3.56   0.0082     16.2668   1445.6176   5.53     10265.69     1.890     1.805      3.989     77.64801  18.0215          4
 4.37   0.0975     26.1560    366.6079  16.67     865.0204     1.016     0.880      3.192     77.65679  20.7074          5
 3.50   0.0018     61.3924   1078.3998  50.84     47811.13     2.294     2.198      4.412     77.59531  16.3512          6
 3.50   0.0018     81.5718    537.4313  -5.04     45702.96     2.231     2.187      4.201     77.65679  16.4001          7
 3.50   0.0002    183.5919   1107.5521 -24.07     503878.8     4.890     4.553      9.545     77.66557  13.7942          8
 3.90   0.0512     76.6700    128.0600  63.24     1645.061     1.316     1.219      3.551     77.61288  20.0095          9
 3.50   0.0012    123.3897    788.9986  15.16     67805.29     2.311     2.260      4.374     77.61288  15.9718         10
 4.09   0.0351     98.1763     56.0645  12.14     2399.113     1.461     1.381      4.301     77.64801  19.5999         11
 8.72   0.1330     99.7577    453.0021   0.10     633.9789     0.695     0.428      4.169     77.65679  21.0448         12
 3.50   0.0003    195.1722    317.9897 -45.18     290888.2     2.614     2.518      4.402     77.63923  14.3907         13
 3.50   0.0022    163.8853   1468.2463   6.52     38380.91     2.168     2.119      4.284     77.61288  16.5897         14
 3.95   0.0096    171.8063    877.2582 -13.05     8762.553     1.849     1.810      4.242     77.67435  18.1934         15
 6.26   0.1215    166.6234   1445.5895 -45.57     694.0919     1.074     0.955      3.226     77.63045  20.9465         16
 6.27   0.0517    173.0470    325.1680  -4.64     1632.411     1.249     1.149      6.776     77.65679  20.0179         17
 7.19   0.1406    168.1921    104.1895  44.40     599.4828     0.754     0.563      3.492     77.59531  21.1056         18
 4.85   0.0031    236.3907    403.5207 -42.71     27301.25     5.571     4.586     18.541     77.63923  16.9595         19
 6.14   0.0867    194.1268   1350.6166  55.74     972.9097     1.147     1.041      4.524     77.68313  20.5798         20
 5.77   0.0228    212.2842    827.3955  -7.78     3694.025     3.064     1.803     10.224     77.62167  19.1313         21
 5.10   0.0471    208.3243    548.9987  14.64     1789.946     1.403     1.345      4.170     77.65679  19.9179         22
 6.34   0.0694    210.3540    349.7424  51.36     1214.364     1.187     1.029      5.670     77.62167  20.3391         23
 3.83   0.0530    213.7674   1306.0284  -4.51     1592.209     1.489     1.313      3.275     77.64801  20.0450         24
 9.38   0.1534    212.9898    684.5063 -57.67     549.4189     0.791     0.316      3.868     77.60409  21.2002         25
 3.50   0.0008    261.3132    997.3710 -23.07     102829.1     2.403     2.367      4.352     77.62167  15.5197         26
 6.49   0.0266    231.9824    561.7929   6.10     3167.858     2.483     2.286     12.278     77.60409  19.2981         27
 4.02   0.0371    225.6863   1226.0515  38.45     2270.907     1.477     1.312      4.289     77.59531  19.6595         28
 6.12   0.1430    224.2461    774.5557 -15.37     589.6545     1.009     0.965      3.383     77.66557  21.1235         29
 3.50   0.0010    267.4353     67.6016  -3.84     86908.27     2.371     2.303      4.279     77.62167  15.7023         30
 7.01   0.0535    245.6219    113.0311 -81.84     1574.646     1.356     1.122      7.444     77.63045  20.0570         31
 5.62   0.0242    256.8119    612.8681 -22.48     3492.544     2.112     1.770      7.587     77.67435  19.1921         32
 7.99   0.1461    253.1951   1372.6124 -71.84     576.8202     0.758     0.448      3.867     77.59531  21.1474         33
 3.50   0.0002    313.6460    439.4265 -24.89     356068.7     2.632     2.551      4.360     77.66557  14.1712         34
 3.50   0.0042    289.1028   1486.3685  -1.22      20270.1     2.022     1.962      4.091     77.56894  17.2829         35
 4.05   0.0197    283.4547   1522.2284  -4.74     4289.299     1.677     1.596      3.682     77.65679  18.9690         36
 5.18   0.0477    291.1014    514.9318 -18.94     1768.314     1.625     1.502      5.413     77.59531  19.9311         37
 3.61   0.0056    304.6104    201.7310  31.11     15056.02     1.979     1.947      4.023     77.67435  17.6057         38
 3.50   0.0014    320.2000    905.3687  10.23     59645.25     2.242     2.205      4.267     77.61288  16.1111         39
 4.85   0.0451    295.4975   1327.5172 -13.90     1866.984     1.372     1.364      4.151     77.55135  19.8721         40
 6.62   0.1541    294.9007   1475.5369 -74.29     546.7173     1.173     0.974      5.086     77.59531  21.2056         41
 3.50   0.0003    352.8514    890.7111 -28.70     314523.2     2.568     2.504      4.340     77.58652  14.3059         42
 3.50   0.0003    352.8624   1345.7847 -23.23     303351.6     2.524     2.493      4.366     77.63045  14.3451         43
 8.97   0.0867    299.3999   1412.7705 -18.71     972.1382     0.759     0.449      4.552     77.59531  20.5807         44
 3.75   0.0086    323.5458    697.2219   5.39     9841.861     1.928     1.868      4.070     77.66557  18.0673         45
 7.68   0.1272    303.9609    563.0087   0.52     662.9212     1.078     0.725      4.696     77.64801  20.9963         46
 5.80   0.0481    328.9993    595.2292 -20.45     1750.995     1.631     1.429      5.443     77.59531  19.9418         47
 9.34   0.1009    322.4987    641.4872  45.81     834.5688     0.503     0.497      3.017     77.55135  20.7463         48
 4.63   0.0125    347.9163    866.9841  39.24     6729.275     1.830     1.739      5.004     77.64801  18.4801         49
 7.46   0.1838    333.5166     93.5302  48.31     458.4435     0.502     0.497      3.013     77.56894  21.3968         50
 4.55   0.0154    357.2899    431.7542 -86.08     5455.709     1.966     1.846      4.772     77.58652  18.7079         51
 6.03   0.0986    351.3906     54.6137  40.34     854.9255     1.061     0.951      3.406     77.60409  20.7202         52
 4.15   0.0083    369.6064    761.0257  39.72      10208.1     1.902     1.847      4.109     77.63923  18.0276         53
 5.27   0.0503    362.6790   1500.2339  23.19     1676.471     1.478     1.287      3.529     77.61288  19.9890         54
 4.23   0.0222    368.8589    442.7273   2.26     3793.393     1.676     1.588      3.831     77.59531  19.1024         55
 7.68   0.2632    361.9861   1033.5194 -89.92     320.3324     0.798     0.500      2.231     77.64801  21.7860         56
 3.50   0.0017    396.6423    231.3586   5.16        50345     2.248     2.188      4.191     77.63923  16.2951         57
 6.69   0.1565    374.2293    992.4621  -0.46     538.9129     0.965     0.724      3.823     77.63923  21.2212         58
 3.62   0.0124    398.5532   1461.1105  -0.57     6806.527     1.792     1.725      3.871     77.58652  18.4677         59
 3.57   0.0103    399.5710    354.4686  18.77     8199.063     1.831     1.777      3.852     77.63923  18.2656         60
 4.49   0.0522    395.4066   1088.5164 -42.15     1613.831     1.369     1.352      3.968     77.62167  20.0304         61
 3.50   0.0018    421.0752    433.2244  16.34     46190.46     2.212     2.168      4.212     77.63045  16.3886         62
 3.50   0.0038    417.0695    837.3176  35.07     22186.12     2.038     2.017      4.114     77.56894  17.1848         63
 7.26   0.1346    414.4749      1.5991 -88.23     482.4377     1.572     0.613      6.535     59.78656  21.3414         64
 4.05   0.0209    425.6546    926.3806  22.64     4042.644     1.672     1.608      4.225     77.65679  19.0333         65
 3.60   0.0052    439.4595    252.0048  10.36     16373.91     2.018     1.955      4.082     77.68313  17.5146         66
 7.26   0.0933    422.0591    159.4032  64.92      904.156     1.300     0.858      6.463     77.68313  20.6594         67
 3.50   0.0006    462.6514    807.5664  -4.64     142619.9     2.400     2.356      4.292     77.65679  15.1645         68
 5.74   0.0737    434.3322   1421.9010  11.76     1142.978     1.245     1.134      3.358     77.59531  20.4049         69
 7.77   0.1586    435.2876    151.0216   3.41     531.5605     0.735     0.683      4.210     77.63045  21.2361         70
 4.32   0.0160    451.8255     21.2910 -11.88     5255.862     1.771     1.671      4.259     77.60409  18.7484         71
 5.78   0.1630    441.5108    305.5070 -83.02     516.7068     0.924     0.898      2.976     77.56894  21.2669         72
 7.34   0.0980    446.8344    122.0894 -82.33     860.1681     1.148     0.731      4.248     77.59531  20.7135         73
 4.33   0.0145    459.2914     34.4861 -51.43     5815.881     1.743     1.673      4.058     77.55135  18.6385         74
 5.74   0.0202    469.2626    850.4149  22.43     4169.724     5.847     1.730     18.226     77.63045  18.9997         75
 9.44   0.0941    448.6069    883.8131  18.70     894.9166     0.775     0.444      4.649     77.57773  20.6705         76
 3.80   0.0462    465.1890    468.4067  53.61     1824.569     1.531     1.320      3.788     77.59531  19.8971         77
 6.35   0.1902    462.6235   1096.4197  11.00     443.3686     0.976     0.807      4.549     77.63045  21.4331         78
 4.43   0.0360    473.5376    734.7532  22.27     2338.378     1.505     1.391      3.956     77.60409  19.6277         79
 4.73   0.0531    472.9802    254.2992 -12.91     1585.824     1.391     1.194      4.392     77.57773  20.0494         80
 4.19   0.0293    479.3217    922.9229  32.84     2878.526     1.511     1.481      3.628     77.60409  19.4021         81
 5.93   0.0838    479.4613   1276.8489 -86.46     1005.279     1.230     1.100      3.413     77.60409  20.5443         82
 5.74   0.0562    514.6971   1309.9906   7.70     1498.761     1.319     1.171      5.419     77.59531  20.1107         83
 4.12   0.0717    485.6152   1070.7526  -8.55     1175.745     1.321     1.259      3.507     77.63923  20.3742         84
 6.54   0.0396    497.5776     83.0067  66.37     2129.393     1.905     1.613      7.957     77.63045  19.7294         85
 6.64   0.0408    496.9010   1187.0255  -1.97     2064.213     1.974     1.349      7.233     77.57773  19.7631         86
 4.90   0.0056    534.4559    518.5499  34.05     15038.02     3.647     3.086     12.141     77.63045  17.6070         87
 3.67   0.0070    513.8845   1302.1998   8.49     12047.68     2.027     1.866      4.240     77.63045  17.8477         88
 7.04   0.0684    505.7164    762.5055 -85.19     1230.826     1.245     1.035      5.979     77.56014  20.3245         89
 5.97   0.1176    503.5783    863.4941  14.81     716.8533     0.923     0.889      2.982     77.61288  20.9114         90
 5.48   0.0343    516.8466   1461.0226  24.80     2456.359     2.970     1.347      9.641     77.64801  19.5743         91
 5.84   0.1297    515.1458   1179.0188 -47.25     650.1784     1.176     1.000      3.538     77.65679  21.0174         92
 7.91   0.1013    511.1125    165.8792  45.76     831.3563     0.843     0.671      5.055     77.56894  20.7505         93
 7.31   0.1757    520.8629    641.8719 -43.04     479.4694     0.842     0.676      5.054     77.57773  21.3481         94
 3.50   0.0003    589.2521   1315.8784 -32.82     326078.6     2.545     2.493      4.345     77.58652  14.2667         95
 3.92   0.0507    541.6472    999.7842  41.53     1661.668     1.306     1.290      3.496     77.64801  19.9986         96
 4.43   0.0359    560.3848   1041.6217  45.42     2345.789     1.536     1.379      3.779     77.61288  19.6243         97
 3.77   0.0114    573.9904   1242.7697  14.96     7414.838     1.808     1.724      4.238     77.65679  18.3747         98
 5.79   0.0547    572.9567   1447.7887  47.55     1540.896     1.602     1.416      5.823     77.63923  20.0806         99
 6.09   0.0546    572.8408     45.9018  54.29     1541.743     1.694     1.258      5.471     77.56894  20.0800        100
 3.82   0.0087    583.6829    319.1039  10.22     9714.819     1.937     1.850      4.094     77.55135  18.0814        101
 3.67   0.0087    582.1736    144.8848 -10.85     9688.867     1.949     1.806      3.995     77.62167  18.0843        102
 3.50   0.0002    632.6119    483.1479 -14.17     402885.9     2.723     2.636      5.102     77.66557  14.0370        103
 8.96   0.2142    566.4742    139.4969 -37.18      393.248     0.501     0.498      3.005     77.56894  21.5633        104
 6.43   0.0602    576.0765   1336.7830  30.80     1401.614     1.349     1.065      6.497     77.66557  20.1834        105
 5.27   0.0176    598.0474    782.5241 -49.02       4795.8     2.863     2.518      9.724     77.59531  18.8478        106
 6.31   0.1272    586.1059     75.9743   1.54     662.5377     1.004     0.858      3.727     77.60409  20.9970        107
 4.83   0.0726   1002.6642   1555.2805 -80.59     1160.309     1.320     1.123      3.550     77.57773  20.3886        108
 6.93   0.0888   1598.2859    654.0801  -4.44     785.9058     1.283     0.698      4.943     64.23985  20.8116        109
 7.14   0.1018   1596.1770    374.0029  36.32     761.5645     0.939     0.470      3.552     71.38905  20.8457        110
 4.11   0.0225   1543.0918    134.7388  -2.70     3746.865     1.670     1.574      4.138     77.60409  19.1158        111
 4.75   0.0659    929.7796   1322.2466  36.33     1278.724     1.163     1.114      3.746     77.64801  20.2831        112
 4.46   0.5372    923.3777    806.9763  76.86     156.9411     1.425     1.204      4.727     77.63923  22.5607        113
 6.36   0.0843    914.1400    838.4391  67.51     1000.025     1.071     0.954      4.502     77.63923  20.5500        114
 7.87   0.1520    913.7532   1001.0084   0.41     554.8876     0.689     0.431      3.199     77.66557  21.1895        115
 4.08   0.0129    901.8284    302.6319  32.47     6545.994     1.843     1.740      3.993     77.64801  18.5101        116
 3.50   0.0003    883.3814    183.6500 -19.82       314989     3.195     3.079      6.890     77.64801  14.3043        117
 6.89   0.0596    897.2708    538.1027  69.70     1413.635     1.425     1.164      5.532     77.59531  20.1742        118
 6.11   0.0204    880.5494    224.1360  88.64     4128.049     6.123     1.673     15.086     77.61288  19.0106        119
 3.50   0.0007    881.6226   1592.4487  65.69     114582.1     2.397     2.351      4.216     77.64801  15.4022        120
 8.03   0.1288    889.9066    325.8675 -44.75      654.317     0.844     0.672      4.187     77.58652  21.0105        121
 4.70   0.0895    887.2526   1499.8967 -51.10      941.315     1.068     1.005      3.809     77.55135  20.6157        122
 7.97   0.0943    887.0178   1304.5103  88.51     893.6332     0.805     0.500      4.095     77.62167  20.6721        123
 6.94   0.0651    880.0314   1176.7563 -66.77     1296.056     1.170     1.034      6.057     77.66557  20.2684        124
 7.44   0.1217    878.8286    960.8246  45.21     692.8987     0.766     0.569      3.597     77.63045  20.9483        125
 4.81   0.0286    870.8043   1103.4138 -32.93      2943.79     1.741     1.609      5.726     77.60409  19.3777        126
 3.50   0.0003    860.6582   1224.3918   9.72     294079.8     2.607     2.563      4.370     77.68313  14.3788        127
 7.51   0.0765    869.3853    940.0309  28.13      1102.06     1.297     0.789      5.739     77.65679  20.4445        128
 6.42   0.0831    861.3013   1157.3337  43.91     1014.637     1.024     0.870      4.467     77.62167  20.5342        129
 6.09   0.1224    859.8855   1339.4011 -27.27     688.4736     1.096     0.578      4.209     77.62167  20.9553        130
 7.01   0.0720    846.0428   1205.9912 -53.00     1171.865     0.803     0.795      4.818     77.64801  20.3778        131
 5.36   0.0599    844.5964   1106.1683  25.00     1406.841     1.276     1.066      5.273     77.64801  20.1794        132
 6.93   0.1207    846.1494   1063.8723  45.80     698.1833     0.835     0.668      3.912     77.57773  20.9401        133
 6.16   0.0375    839.1501   1247.1755 -29.21     2247.782     1.482     1.308      7.244     77.66557  19.6706        134
 4.70   0.0730    838.0167    298.7638   5.94     1155.427     1.395     1.172      3.654     77.65679  20.3931        135
 3.94   0.0127    824.4010    654.3109  37.31     6646.349     1.893     1.787      4.105     77.62167  18.4935        136
 3.65   0.0138    804.4127   1378.5909  18.36     6108.908     1.785     1.710      4.016     77.59531  18.5851        137
 3.54   0.0049    799.9121    695.5764  88.77     17361.85     2.586     2.008      5.323     77.63045  17.4510        138
 4.21   0.0299    802.0409     41.0905 -21.87     2814.923     1.571     1.521      4.041     77.59531  19.4263        139
 5.47   0.0357    775.2255   1427.2784 -85.98     2358.637     2.215     1.593      6.367     77.63045  19.6183        140
 5.37   0.0668    768.0120    391.6290  15.91     1261.672     1.314     1.196      3.167     77.64801  20.2976        141
 4.25   0.0566    744.2063    556.2775 -23.97     1490.382     1.405     1.311      4.059     77.63923  20.1168        142
 6.64   0.1291    739.1788   1157.6746  21.00     653.1128     0.921     0.685      4.218     77.65679  21.0125        143
 6.69   0.1037    737.1107    649.3793 -22.30      813.152     0.925     0.684      3.545     77.61288  20.7746        144
 3.50   0.0002    725.5227    404.7261 -14.90     399698.6     2.719     2.589      4.375     77.58652  14.0457        145
 3.50   0.0012    727.9932    848.3524  23.62     68753.73     2.318     2.276      4.290     77.66557  15.9568        146
 5.28   0.0683    728.8334   1178.1766  42.38     1233.825     1.189     1.040      3.855     77.63923  20.3219        147
 5.28   0.0600    717.2914    808.3470  55.73     1404.378     1.312     1.312      3.932     77.59531  20.1813        148
 4.44   0.0517    710.4481   1163.6825   4.86      1629.94     1.327     1.237      3.990     77.59531  20.0196        149
 5.89   0.0536    705.5657   1338.9106 -81.17     1571.068     1.391     1.282      5.044     77.59531  20.0595        150
 3.99   0.0317    704.2521    952.3856  34.75     2663.024     1.483     1.448      4.053     77.66557  19.4866        151
 8.02   0.0737    692.9650   1213.7378  65.54     1144.128     1.084     0.816      6.098     77.63045  20.4038        152
 4.46   0.0416    686.9780    644.0174  -9.45     2024.617     1.476     1.408      4.113     77.62167  19.7841        153
 8.50   0.0413    685.0096    471.8991 -46.29     2041.226     1.241     1.044      7.444     77.59531  19.7753        154
 6.45   0.0454    682.8522    543.7064 -55.36     1857.102     1.730     1.427      6.953     77.57773  19.8779        155
 3.50   0.0013    649.7205   1464.2881  16.57     66818.64     2.266     2.231      4.190     77.57773  15.9878        156
 7.15   0.1554    655.9042    870.8224 -47.09     542.5063     0.830     0.668      3.119     77.61288  21.2140        157
 3.50   0.0014   1559.3016    487.3324   1.33     59799.39     2.404     2.340      4.144     77.59531  16.1083        158
 3.65   0.0081    641.2100    536.7706  30.10     10425.06     1.936     1.874      4.107     77.64801  18.0048        159
 6.37   0.1213    631.9269    806.1052 -79.16      694.742     1.132     0.729      3.387     77.58652  20.9454        160
 5.24   0.0870    624.8391   1581.7410   7.67     968.6038     1.212     1.137      3.936     77.63923  20.5846        161
 5.42   0.0765    606.9500    586.2335  26.18     1102.359     1.290     1.091      4.254     77.64801  20.4442        162
 5.10   0.0355   1543.9377    654.2358   6.61     2376.157     1.522     1.502      3.735     77.63045  19.6103        163
 4.80   0.0412    940.5503   1066.9835  58.96     2047.083     1.427     1.278      4.573     77.64801  19.7722        164
 3.50   0.0014   1564.9086    303.8567  -1.79     60268.57     2.387     2.296      4.166     77.58652  16.0998        165
 4.80   0.0669   1586.1338   1108.5453   6.59     1260.598     1.293     1.152      3.934     77.60409  20.2986        166
 4.78   0.0483   1571.6653     92.3622  57.95     1747.423     1.405     1.365      3.862     77.63923  19.9440        167
 7.25   0.1277   1547.3698    863.4689  36.12     660.1199     1.368     0.771      2.924     77.63923  21.0009        168
 5.95   0.0951   1562.6573    861.1366 -55.35      885.876     1.190     1.114      2.834     77.60409  20.6816        169
 4.58   0.0354   1568.0312     21.5423 -19.68     2381.804     1.620     1.446      4.334     77.65679  19.6077        170
 5.82   0.0639   1567.1318    784.2593 -70.69     1319.708     1.482     1.326      5.593     77.60409  20.2488        171
 4.13   0.0047   1553.8680    681.8541 -27.44     17789.86     4.178     3.728     11.081     77.59531  17.4246        172
 8.39   0.1865   1552.6675   1221.6698 -45.10     451.5862     0.576     0.334      2.672     77.56894  21.4131        173
 3.50   0.0055    931.0528   1178.2883  42.24     15299.83     2.041     1.942      4.084     77.56894  17.5883        174
 7.28   0.0627    987.9465    454.0064  46.76     1346.494     1.373     1.148      8.238     77.70068  20.2270        175
 3.69   0.0102   1516.1770    392.3126  10.51     8280.282     1.934     1.797      4.113     77.63045  18.2549        176
 3.50   0.0026   1508.4668    269.0315  -6.55     32562.46     2.275     2.183      4.013     77.63923  16.7682        177
 6.71   0.0838    982.5072    798.0153  -2.06     1006.054     1.166     0.957      5.511     77.62167  20.5434        178
 3.81   0.0099   1039.9601    525.2932  12.15     8517.876     1.885     1.859      3.968     77.55135  18.2242        179
 7.42   0.3933    948.9724    445.0000  90.00     214.2917     0.853     0.289      2.278     77.61288  22.2225        180
 6.30   0.1013   1505.5388    722.9551  -2.18     832.3359     1.136     0.952      4.074     77.63045  20.7493        181
 8.11   0.2663    966.4951    416.5008 -44.59     316.2678     0.501     0.499      3.005     77.56014  21.7999        182
 7.60   0.1059    952.0114    654.7029 -89.33     795.9423     0.755     0.685      4.116     77.59531  20.7978        183
 5.75   0.0882   1001.2355   1273.6947 -19.03     955.4405     0.984     0.854      3.644     77.57773  20.5995        184
 3.50   0.0028    986.2198    558.4037  12.08     29683.58     2.209     2.145      4.028     77.62167  16.8687        185
 3.50   0.0002   1025.0056     50.2368 -16.82     474866.3     2.780     2.665      4.292     77.63923  13.8586        186
 6.75   0.0750   1061.0151    726.4691  -1.22     1124.255     1.190     1.100      5.778     77.67435  20.4228        187
 7.95   0.0755   1066.6418   1563.0979  69.46     1116.291     0.930     0.694      5.435     77.56894  20.4306        188
 7.06   0.1651   1080.6638    330.6638 -45.00     510.4592     0.580     0.332      2.181     77.59531  21.2801        189
 8.63   0.0949   1107.5222    678.0247  32.11     887.9644     0.796     0.314      3.513     77.63045  20.6790        190
 7.67   0.1144   1074.2769      6.6344  19.13     719.4834     0.989     0.595      3.476      75.8174  20.9074        191
 3.53   0.0045   1420.6407   1126.1237 -62.87     18685.66     2.191     2.117      4.354     77.61288  17.3712        192
 5.59   0.0807   1096.9529   1526.4910  87.46     1044.028     1.111     0.964      4.368     77.56894  20.5032        193
 3.50   0.0025   1081.2905    511.9973   4.48      33729.7     2.222     2.163      4.065     77.59531  16.7300        194
 3.69   0.0118   1108.7441    427.8706   3.58     7153.118     1.940     1.781      4.031     77.59531  18.4138        195
 3.50   0.0006   1435.6680   1090.3186 -15.70     145230.4     2.524     2.482      4.179     77.57773  15.1449        196
 3.50   0.0028   1096.1024    777.9913  14.15     30544.68     2.188     2.134      4.093     77.59531  16.8377        197
 4.08   0.0230   1436.6504    224.3800  15.99     3668.928     1.656     1.583      4.156     77.64801  19.1387        198
 8.03   0.1164   1407.5132    329.4820  45.38     724.0094     0.505     0.494      3.032     77.58652  20.9006        199
 8.14   0.1627   1440.2898   1270.6351  41.51     517.9404     0.570     0.335      2.653     77.59531  21.2643        200
 7.06   0.0991   1401.9138   1031.3040 -12.92      849.999     1.033     0.762      3.946     77.54256  20.7265        201
 4.49   0.0341   1441.0831    618.8366 -29.66     2472.963     1.597     1.453      3.489     77.63045  19.5670        202
 5.20   0.0468   1416.6306   1386.4108  11.46     1802.131     1.407     1.344      4.487     77.65679  19.9105        203
 3.56   0.0110   1390.1648   1428.3231  15.07     7688.365     1.843     1.776      3.960     77.61288  18.3354        204
 3.50   0.0010   1394.7063    114.2195  -0.11     81380.55     2.467     2.376      4.163     77.62167  15.7737        205
 4.21   0.0329   1391.8126    712.9902 -20.82     2561.583     1.595     1.496      3.857     77.60409  19.5287        206
 4.64   0.0320   1409.5522    308.0211  -3.07     2636.696     1.553     1.428      4.076     77.64801  19.4973        207
 7.76   0.0564   1111.8605    479.4189  22.24     1495.512     1.354     0.899      7.064     77.63923  20.1130        208
 8.14   0.0979   1115.1985    674.7978  44.88      861.732     0.988     0.347      3.375     77.64801  20.7116        209
 3.50   0.0002   1367.8490   1159.4698  14.13     338177.2     3.960     2.856      6.159     77.60409  14.2271        210
 4.91   0.0498   1393.6984   1038.3988  23.33     1690.981     1.425     1.229      3.878     77.59531  19.9797        211
 3.84   0.0094   1373.8683   1018.6469 -15.76     8991.334     1.963     1.853      4.197     77.62167  18.1654        212
 3.50   0.0004   1299.6050    724.6524 -17.09     190927.2     2.582     2.526      4.196     77.68313  14.8478        213
 6.66   0.1100   1130.1299    547.3166  13.04     766.1507     1.013     0.756      4.400     77.56894  20.8392        214
 4.68   0.0139   1174.0432    757.8148 -85.99     6075.803     3.045     3.017      9.962     77.63923  18.5910        215
 3.50   0.0027   1139.7612    147.8624   6.64     31633.55     2.269     2.158      4.121     77.63045  16.7996        216
 6.84   0.1145   1306.0023    892.5251   0.29     736.6407     1.048     0.787      4.304     77.66557  20.8819        217
 5.52   0.0372   1121.2595    329.4239  51.19     2266.471     1.993     1.592      7.097     77.66557  19.6616        218
 3.50   0.0028   1321.3052    659.7635  -7.94     30494.99     2.248     2.204      4.159     77.56894  16.8394        219
 7.77   0.0613   1332.3197   1139.7904 -87.83      1375.42     1.160     0.700      5.987     77.63045  20.2039        220
 4.81   0.0735   1333.9618    107.0763  62.32     1146.516     1.198     1.119      4.175     77.61288  20.4015        221
 4.57   0.0227   1331.2437    655.5939  -7.57     3716.134     1.772     1.686      4.855     77.65679  19.1248        222
 6.05   0.0994   1320.6711    263.8921 -68.05     847.6146     0.921     0.685      3.816     77.58652  20.7295        223
 3.85   0.0115   1292.7131    761.8975 -13.96     7299.721     2.120     1.779      5.042     77.54256  18.3917        224
 5.80   0.0286   1308.7648   1035.8177 -30.20     2944.158     2.063     1.527      7.674     77.65679  19.3776        225
 6.70   0.0588   1260.7919    432.1530  45.74     1433.701     1.425     1.027      6.046     77.66557  20.1589        226
 8.17   0.1207   1331.5117    386.5117  45.00     697.4045     0.506     0.494      3.036     77.54256  20.9413        227
 3.96   0.0190   1279.3495   1331.1671  87.57     4437.473     1.771     1.669      4.130     77.64801  18.9322        228
 5.24   0.0285   1308.8101    669.4493 -26.72     2960.083     1.725     1.484      4.998     77.66557  19.3717        229
 5.37   0.0543   1152.5564     99.2741  27.73     1551.668     1.401     1.324      5.481     77.60409  20.0730        230
 6.59   0.0546   1294.9531    741.9031 -26.39     1542.556     1.377     1.166      6.961     77.54256  20.0794        231
 6.30   0.0961   1293.8875    412.4502 -74.70     876.5529     1.058     0.971      3.651     77.58652  20.6931        232
 4.17   0.0251   1266.6727    807.6412  19.62     3357.601     1.694     1.594      3.956     77.62167  19.2349        233
 4.31   0.0074   1274.0188    609.7662 -55.23     11377.96     3.802     2.467      9.228     77.63923  17.9098        234
 7.33   0.1974   1181.8950    549.1121  48.59     426.7068     0.835     0.663      3.037     77.54256  21.4747        235
 7.65   0.0827   1231.1221    599.3472 -19.03     1018.993     0.945     0.689      5.375     77.58652  20.5296        236
 7.32   0.0508   1214.0806   1429.3109  63.34     1657.359     1.362     1.092      7.462     77.57773  20.0015        237
 3.50   0.0001   1222.6552    994.9854 -19.67     613624.5     5.316     4.874      9.845     77.65679  13.5802        238
 4.18   0.0281   1235.7129    304.5154  10.25     3001.254     1.673     1.489      4.372     77.57773  19.3567        239
 5.89   0.0718   1154.6027   1352.8634 -11.47      1175.26     1.247     0.972      5.488     77.68313  20.3747        240
 5.41   0.0767   1243.6855    672.2896   8.74     1098.942     1.122     0.967      4.145     77.57773  20.4476        241
 5.63   0.0422   1196.4487    123.9950 -29.03     1997.708     1.519     1.420      6.917     77.68313  19.7987        242
 3.83   0.0086   1211.6543   1278.6310  86.64      9847.81     5.195     3.109     11.978     77.64801  18.0667        243
 3.86   0.0085   1220.1406   1194.6002   7.96     9870.634     1.935     1.878      4.561     77.68313  18.0641        244
 6.58   0.0708   1202.4009   1441.9315  14.82     1191.154     1.224     0.967      4.794     77.66557  20.3601        245
 5.28   0.0448   1204.6826   1075.4138  27.95     1883.909     1.478     1.335      6.327     77.64801  19.8624        246
 3.51   0.0056   1215.8728    512.8373   7.10     14989.71     2.015     1.968      3.914     77.63045  17.6105        247
 5.19   0.0518   1208.9304    838.6003  76.49     1626.739     1.410     1.282      3.534     77.66557  20.0217        248
 4.79   0.0495   1203.1107    338.7057   7.71     1699.966     1.349     1.204      3.824     77.56014  19.9739        249
 7.83   0.1280   1064.3143      6.6554  43.63     643.7159     0.574     0.335      2.698     75.84438  21.0283        250
 3.57   0.0051   1131.2589    183.3136   5.89     16561.51     2.098     2.012      4.021     77.58652  17.5022        251
 4.82   0.0451   1238.3405   1553.4193  -5.84     1869.987     1.397     1.300      4.817     77.64801  19.8704        252
 8.41   0.1219   1162.6844    887.6744 -44.50     691.2942     0.566     0.339      3.121     77.57773  20.9508        253
 3.50   0.0017   1166.4545   1299.5092   2.02     50941.01     2.299     2.258      4.182     77.59531  16.2823        254
 7.60   0.1129   1131.3075    219.0416   2.72     745.8151     0.741     0.679      3.798     77.55135  20.8684        255
 3.95   0.0142   1159.1118    236.1489  19.38     5945.551     1.843     1.712      3.854     77.57773  18.6145        256
 3.50   0.0003   1152.9353    693.7203 -12.73     291310.8     2.868     2.767      6.037     77.56894  14.3891        257
 4.22   0.0264   1090.5554    642.2964  24.32     3192.591     1.637     1.552      3.853     77.56014  19.2896        258
 3.53   0.0085   1083.0737   1148.0181  -0.56     9908.564     1.912     1.861      4.029     77.67435  18.0600        259
 3.74   0.0078   1105.7887    751.7599  18.16     10782.32     2.027     1.906      4.049     77.63923  17.9682        260
 3.50   0.0020   1041.5289    632.9177  37.70     42980.04     2.283     2.243      4.058     77.56894  16.4668        261
 5.50   0.0432   1073.2410   1218.8578  -1.62     1949.891     1.629     1.450      6.719     77.62167  19.8250        262
 5.93   0.0486   1031.8055    302.5028  62.35     1733.437     1.693     1.372      5.256     77.61288  19.9527        263
 3.50   0.0049   1011.1313    813.5825  27.54     17085.33     2.096     2.020      4.079     77.65679  17.4684        264
 3.50   0.0043   1027.0907   1379.8291  23.69     19798.15     2.090     2.034      4.183     77.60409  17.3084        265
 4.80   0.0356   1012.6168    344.5900  -2.19     2368.995     1.566     1.482      3.796     77.60409  19.6136        266
 4.60   0.0298   1003.0110    542.4254  14.02     2831.046     1.549     1.526      4.086     77.62167  19.4201        267
