#   1 KRON_RADIUS            Kron apertures in units of A or B                         
#   2 Y_IMAGE                Object position along y                                    [pixel]
#   3 MAG_BEST               Best of MAG_AUTO and MAG_ISOCOR                            [mag]
#   4 FLUX_BEST              Best of FLUX_AUTO and FLUX_ISOCOR                          [count]
#   5 X_IMAGE                Object position along x                                    [pixel]
#   6 THETA_IMAGE            Position angle (CCW/x)                                     [deg]
#   7 A_IMAGE                Profile RMS along major axis                               [pixel]
#   8 B_IMAGE                Profile RMS along minor axis                               [pixel]
#   9 MAGERR_BEST            RMS error for MAG_BEST                                     [mag]
#  10 NUMBER                 Running object number                                     
#  11 FLUXERR_BEST           RMS error for BEST flux                                    [count]
 3.50     59.9924  16.3627     47304.41   1078.7397 -76.37     3.031     3.004   0.0022          1     97.26984
 3.80     53.4462  16.4621      43168.2     63.9191   1.33     5.337     4.876   0.0045          2     178.1201
 4.08     16.9284  18.5862     6102.924    985.4626 -87.34     4.427     2.434   0.0218          3     122.5328
 3.50     18.2198  19.1064     3779.652     91.5117 -89.07     2.184     2.115   0.0196          4     68.09087
 3.54     14.9005  18.0371     10119.55   1446.0903 -42.62     2.591     2.467   0.0088          5     82.25485
 7.64      7.3019  23.0427     100.6725   1466.3320 -43.43     0.563     0.340   0.3313          6     30.71558
 6.30      5.0665  21.7842     320.8646    144.8630 -83.55     0.803     0.681   0.1449          7     42.81334
 0.00      4.0000  99.0000     -106.345   1580.0042   0.00     0.836     0.289  99.0000          8     39.87959
 6.13     25.1073  20.3026     1255.946    367.6415  26.07     1.770     1.749   0.0860          9     99.46211
 8.11     17.1742  21.1978     550.6581    385.0853 -33.22     1.396     0.608   0.1351         10      68.4856
 6.87     34.8679  21.2738     513.4384   1109.8555  64.00     1.403     0.661   0.1281         11     60.54721
 3.50     80.3080  16.3964     45862.63    537.8432 -75.16     2.975     2.935   0.0023         12     95.31025
 7.99     37.7023  22.4142     179.6127   1521.1277  69.14     0.976     0.690   0.3593         13     59.42379
 9.43     38.5241  22.0709     246.3977   1170.4841  44.19     0.505     0.494   0.1915         14     43.43839
 6.75     42.1870  22.3281     194.4294    915.0546  36.06     0.940     0.466   0.2302         15     41.20927
 0.00     44.2103  99.0000    -3.712646    564.4238  70.29     0.750     0.451  99.0000         16     29.36971
 4.55     75.2320  19.9797     1690.974    128.0788  -2.01     2.038     1.769   0.0514         17     80.09643
 3.50    121.9991  15.9706     67881.18    789.4222 -43.33     3.091     2.991   0.0016         18     97.82252
 8.23     80.6874  21.5845     385.6398    422.8605 -69.48     1.831     0.584   0.2193         19      77.8782
 6.64     90.7543  20.1354     1464.992    377.0980  89.81     2.137     1.683   0.0858         20     115.7452
 4.32     96.7815  19.5256     2568.905     56.4105 -47.91     2.142     1.995   0.0348         21     82.25485
 6.56     97.9843  20.9072     719.6334    453.0412 -10.20     2.000     0.927   0.1236         22     81.92649
 3.92    170.5607  18.1972     8732.254    877.5997 -21.37     2.596     2.542   0.0115         23     92.72994
 3.50    162.5962  16.5948     38201.07   1468.6017 -50.03     2.946     2.848   0.0027         24     93.59795
 0.00    131.7585  99.0000    -20.98242   1511.9980  -0.09     0.691     0.428  99.0000         25     23.21879
 6.88    165.6576  20.5616     989.4038   1446.0773 -42.49     1.415     1.198   0.0903         26     82.25485
 4.86    166.8479  21.0114     653.7616    104.9452 -84.09     1.507     1.343   0.1067         27     64.22001
 5.88    159.3233  27.8887     1.160156    537.6866  45.51     0.564     0.340  22.2714         28     23.79218
 6.12    192.8279  20.2842     1277.361   1350.5502 -33.77     2.922     1.450   0.0988         29       116.21
 4.93    211.0075  18.7799     5105.359    827.9856  -4.47     4.185     2.622   0.0319         30     149.9366
 4.53    206.7366  19.7722     2047.017    549.4040 -48.40     2.105     1.879   0.0439         31     82.74496
 4.65    212.5211  20.0676     1559.401   1306.4330 -68.02     2.091     1.821   0.0583         32     83.71655
 5.26    230.1405  18.7971     5025.396    562.5012 -37.69     3.810     3.392   0.0375         33     173.5207
 3.50    260.0289  15.3145     124220.7    997.7187 -31.72     3.179     3.090   0.0009         34     100.8081
 6.95    210.9013  20.9018      723.228    684.3038 -59.47     1.540     1.020   0.1203         35     80.09643
 4.23    224.0483  19.8599      1888.12   1226.2903 -22.70     2.031     1.927   0.0444         36     77.18285
 5.35    222.7530  20.7840     806.0972    775.3895 -54.77     1.809     1.449   0.1068         37     79.25061
 3.50    266.0527  15.7033     86834.47     67.7354 -43.79     3.128     3.024   0.0012         38     98.64572
 5.83    243.7050  19.8355     1931.025    113.0363 -77.12     2.694     1.956   0.0693         39      123.191
 4.54    255.5920  18.9722      4276.71    613.4211 -37.77     2.987     2.534   0.0292         40     115.0444
 7.03    239.4051  20.8627     749.7374    838.6548 -80.25     1.643     0.860   0.1108         41     76.48117
 7.81    229.6943  25.8665     7.471313    538.6589 -43.29     0.568     0.338   4.7129         42     32.42328
 3.50    287.9388  17.2699     20512.99   1486.5565 -29.06     3.092     2.733   0.0049         43     93.16496
 8.22    252.1398  22.3445     191.5184   1374.1748   9.82     0.995     0.700   0.1697         44     29.93349
 3.50    282.1220  18.9289     4450.969   1522.4805 -44.20     2.397     2.330   0.0186         45     76.12791
 3.50    303.2986  17.6015     15114.82    201.9460  81.55     2.725     2.685   0.0063         46     87.03177
 3.50    322.3131  18.0334     10153.97    697.5564  78.99     2.545     2.526   0.0088         47     81.92649
 5.03    302.6460  20.7454     835.2672    563.9017  -9.44     1.653     1.383   0.0913         48     70.23445
 8.03    308.3838  21.1776     561.0056     86.2233  87.87     1.279     0.996   0.1614         49     83.39394
 5.57    327.8480  19.7021      2183.47    595.7647 -36.72     2.312     2.177   0.0572         50     114.9272
 7.03    323.0115  20.6466     914.8456    640.0058  80.26     1.572     1.066   0.0990         51     83.39394
 7.64    321.4944  21.2257     536.6664    643.4767  53.38     1.782     0.813   0.1704         52     84.19815
 7.19    331.8544  21.3558     476.0907     93.1126  72.97     1.157     0.864   0.1526         53      66.8927
 3.68    368.6599  17.9626     10838.43    760.9850 -48.41     3.231     2.593   0.0098         54     98.23499
 7.54    329.5132  21.8931     290.2375   1546.5171  -0.14     1.089     0.500   0.1933         55     51.65855
 5.33    349.9267  20.7249     851.1993     54.7275 -33.05     1.707     1.422   0.0974         56     76.30474
 3.50    395.3920  16.2929     50445.29    231.5977 -62.82     3.044     2.975   0.0021         57     96.43489
 4.56    361.4849  19.8507     1904.143   1500.6577 -19.23     2.058     1.899   0.0473         58     82.90768
 5.61    361.1364  21.1931     553.0651   1034.1522  63.29     1.356     0.944   0.1135         59     57.81433
 5.56    381.1993  21.4069     454.1873      1.9191  89.92     2.451     0.904   0.1474         60     61.65016
 3.84    398.3579  18.3058     7900.622    354.7344  68.09     2.588     2.567   0.0126         61     91.55981
 6.97    372.0318  21.9541     274.3923     70.7653 -55.38     1.399     0.754   0.2607         62     65.87757
 3.71    397.4172  18.4287     7055.125   1461.3718 -31.96     2.578     2.377   0.0130         63       84.677
 6.46    370.0135  22.3224     195.4598    209.0098  -0.68     0.615     0.606   0.1935         64     34.82819
 8.07    372.8885  21.5227     408.2284   1084.1633 -12.06     1.030     0.665   0.1634         65     61.43116
 3.69    393.9711  20.0238     1623.667   1088.8983 -52.38     1.986     1.909   0.0447         66      66.8927
 5.12    412.5886  20.4419     1104.685      2.3713  89.00     3.544     1.277   0.0809         67     82.25485
 7.20    382.3391  21.7900     319.1677     67.3483 -45.00     1.110     0.654   0.1919         68     56.39825
 7.63    383.7711  20.9215      710.254      9.8582  11.59     1.358     0.557   0.0570         69     37.30247
 7.89    397.2686  20.9002     724.2858    626.1052 -77.88     1.385     0.808   0.1147         70     76.48117
 3.50    461.3334  15.1618     142982.4    807.6801 -42.64     3.187     3.087   0.0008         71     101.2084
 3.50    438.1793  17.5078     16476.99    252.3251  -7.72     2.790     2.705   0.0059         72     88.87067
 6.42    420.9557  20.5009     1046.238    159.3079  43.28     2.158     1.705   0.1175         73     113.1544
 5.26    433.0997  20.2525     1315.165   1422.1903  69.41     1.817     1.717   0.0702         74     84.99474
 4.99    426.9867  20.0959     1519.227    433.6164   1.79     3.411     1.099   0.0443         75     61.99559
 4.50    450.5894  18.6620     5691.296     21.4207  29.10     2.486     2.460   0.0195         76     102.2682
 5.83    426.7534  21.4331     443.3501   1180.0170  34.23     1.461     0.792   0.1416         77     57.81433
 4.89    468.0778  18.2950     7979.571    851.1030  23.78     7.174     2.586   0.0264         78      194.193
 6.88    434.3987  20.7906     801.2227    150.7365   5.03     1.835     1.044   0.1190         79     87.80266
 8.49    431.0078  21.6296     369.9677    720.1688  54.18     0.930     0.469   0.1493         80     50.86983
 6.20    444.9543  20.4072     1140.524    122.5157  59.23     1.881     1.549   0.0929         81     97.54657
 4.06    457.9190  18.5779     6149.345     34.5368 -17.68     2.654     2.427   0.0168         82     94.88507
 5.35    440.3495  21.0307     642.2894    305.9942   4.56     1.300     1.116   0.0997         83     58.96842
 4.37    463.9705  19.9797      1690.96    468.8617  48.26     2.242     1.895   0.0531         84     82.74496
 6.00    461.4203  21.1216     590.7147   1096.9910  70.01     1.411     1.077   0.1241         85     67.49445
 3.50    478.1529  19.4198     2832.004    923.1714 -42.87     2.291     2.063   0.0267         86     69.65638
 5.14    471.5919  20.0381     1602.289    254.7253   9.05     1.979     1.869   0.0616         87     90.82081
 3.64    472.2752  19.7352     2117.915    735.0544  13.65     2.058     1.946   0.0346         88     67.49445
 3.98    596.9883  18.5681     6205.406    782.9264 -87.77     3.616     3.454   0.0226         89     128.8591
 4.16    478.5011  20.3837     1165.525   1277.1141 -65.74     2.062     1.725   0.0672         90     72.12791
 7.44    462.3968  21.8733     295.5928    722.7953 -12.80     1.120     0.417   0.1717         91     46.72692
 6.02    495.6913  19.4299      2805.58     82.7940 -76.01     2.776     2.530   0.0569         92     146.9403
 4.67    495.7672  19.6696     2249.893   1186.4735 -12.09     3.112     2.310   0.0554         93     114.8098
 3.94    483.9861  20.3538     1198.117   1070.6869 -32.19     1.909     1.620   0.0574         94     63.37497
 4.24    531.0347  17.9210     11261.27    519.8568  20.40     5.170     3.237   0.0134         95     138.9682
 7.00    489.6824  20.8579     753.1051    839.3367  48.22     1.546     1.140   0.1230         96     85.31129
 4.65    502.2025  21.1882     555.5588    863.7805 -39.11     1.826     1.368   0.1315         97     67.29446
 5.50    504.4208  20.3296     1225.015    763.4030 -17.69     2.418     1.450   0.0841         98     94.88507
 4.49    515.7132  19.2689     3254.264   1461.0072  21.96     4.042     2.029   0.0396         99     118.6205
 8.23    499.3254  21.8757     294.9242    366.3373 -44.47     0.576     0.334   0.1239        100     33.64723
 8.51    509.5540  20.7866     804.1633    166.5013  80.85     1.056     0.943   0.1059        101     78.39567
 6.68    509.5143  22.6953     138.6359    454.2384 -89.83     0.978     0.719   0.4026        102     51.39699
 6.17    513.6793  20.8762     740.4836   1179.5035   5.85     1.540     1.120   0.1090        103     74.33641
 6.30    518.5699  21.1432     579.0291    642.8600 -29.67     1.255     0.759   0.1071        104     57.11068
 3.50    540.5333  20.0529     1580.694   1000.0637 -45.72     2.173     1.750   0.0432        105      62.9482
 8.72    536.4772  21.7889     319.4683    402.4882 -37.02     0.500     0.499   0.1367        106     40.21613
 3.52    559.1711  19.6652     2259.037   1041.8424 -30.51     2.139     1.954   0.0319        107     66.28549
 3.83    580.9929  18.0759     9764.078    145.0090 -71.13     2.633     2.498   0.0100        108     90.22526
 3.59    582.3879  18.0746     9775.713    319.3510 -38.63     2.654     2.520   0.0095        109     85.15317
 4.74    571.4081  19.8976     1823.783     45.8489  54.95     2.361     1.903   0.0550        110      92.4388
 0.00    550.7809  99.0000    -10.55798    143.9820  -0.87     0.655     0.414  99.0000        111     20.76752
 4.62    571.8522  20.0335     1609.182   1447.7355  40.12     2.427     1.906   0.0617        112     91.41248
 8.47    565.4220  20.9725     677.6331    139.1938 -84.40     1.745     0.805   0.1481        113      92.4388
 5.78    577.0038  21.3569     475.5839   1002.5832  -1.68     1.329     1.013   0.1408        114     61.65016
 4.94    584.7218  20.9083     718.8866     75.8023  73.68     1.554     1.136   0.0905        115     59.87568
 6.83    986.9518  19.7269     2134.243    454.2726  73.36     2.267     1.946   0.0674        116     132.3675
 4.97   1598.8541  21.3520     477.7304    654.9175 -26.99     1.750     1.035   0.0843        117     37.07975
 5.87   1595.9941  20.9812     672.2256    652.7838 -22.74     1.121     0.683   0.0817        118     50.59561
 4.43   1599.4045  22.8853     116.3839     20.3169 -17.39     1.692     0.641   0.3321        119     35.59374
 7.59   1594.4321  21.5554     396.1395    374.4944 -88.56     1.109     0.499   0.1387        120     50.60419
 8.91   1594.3894  21.5798      387.326   1387.1508  19.77     0.757     0.441   0.1334        121     47.58437
 4.10   1584.9974  20.4101      1137.48   1108.8923  -5.70     1.845     1.581   0.0617        122     64.63839
 4.99   1585.4872  23.1491     91.27686   1068.7310  53.74     1.360     0.225   0.3026        123     25.43491
 3.50   1566.8105  19.6702     2248.682     22.0706  39.44     2.151     1.984   0.0321        124     66.48851
 3.54   1565.8353  20.1373     1462.409    784.5983  73.81     2.207     1.782   0.0478        125     64.42953
 3.50   1558.1235  16.1243     58924.52    487.7611 -84.10     2.956     2.930   0.0018        126     95.16874
 3.50   1552.8146  17.0830     24365.86    682.2030 -28.15     4.833     4.349   0.0066        127     147.9458
 7.93    869.6841  22.4529     173.3195    642.6815 -44.87     0.563     0.341   0.2005        128      32.0049
 6.42    858.8502  21.2390     530.1601   1339.7490 -54.85     1.522     1.265   0.1080        129     52.70351
 5.78    845.3093  21.4128     451.7433   1064.6372   4.64     1.337     1.276   0.1665        130     69.26832
 5.35    843.6138  20.5131     1034.614   1106.4128  28.43     1.837     1.523   0.0860        131     81.92649
 4.79    836.8301  20.1602     1431.862    298.9754 -57.04     2.095     1.693   0.0628        132     82.74496
 8.05    837.6497  22.4395      175.475   1521.6752 -46.05     0.581     0.331   0.2082        133     33.64723
 6.16    836.1196  22.0541     250.2532    819.3091 -20.89     0.916     0.679   0.1951        134       44.963
 3.50    823.2621  18.5082     6557.468    654.5389 -44.83     2.487     2.416   0.0131        135     79.25061
 3.50    803.3782  18.6598     5702.795   1378.7463 -35.98     2.435     2.303   0.0146        136     76.48117
 3.50    798.7995  17.4465     17434.73    695.8089 -82.98     3.169     2.692   0.0059        137     94.02895
 4.08    800.9242  19.4134     2848.619     41.2277 -36.88     2.357     2.166   0.0323        138       84.677
 0.00    797.7188  99.0000    -15.03345   1544.2725 -69.71     0.853     0.355  99.0000        139     27.95913
 3.50    774.7054  19.5187     2585.276   1427.5822  88.77     2.779     2.434   0.0352        140     83.87739
 6.60    767.9084  21.7107     343.3378    142.2739  -7.26     1.059     0.677   0.1642        141      51.9188
 8.07    757.6758  22.3315     193.8226   1342.3064  45.95     0.561     0.341   0.1863        142     33.24426
 4.68    742.8165  20.1033     1508.898    556.4481  37.00     1.973     1.809   0.0590        143     81.92649
 6.22    737.9290  21.3467     480.1056   1158.6479 -60.24     1.599     1.112   0.1738        144     76.83281
 3.50    726.8715  15.9638     68308.09    848.5637 -46.77     3.084     2.997   0.0016        145     98.23499
 5.03    736.1727  21.1264     588.0751    650.0113 -61.01     1.476     1.207   0.1143        146     61.86839
 4.27    727.8571  20.6168     940.3517   1178.2950  -1.38     1.918     1.742   0.0831        147      71.9408
 7.32    723.0043  21.4755     426.3989   1395.6740 -15.87     1.218     0.677   0.1565        148     61.43116
 3.50    715.9310  20.1702     1418.825    808.4232   3.82     1.831     1.767   0.0446        149     58.27871
 3.71    709.0450  20.3342      1219.87   1164.1002 -19.42     1.930     1.627   0.0535        150     60.10036
 3.89    704.8819  20.1714     1417.253   1339.0087 -17.61     2.022     1.783   0.0459        151     59.91418
 4.09    703.0588  19.6520     2286.566    952.6016 -17.93     2.164     2.110   0.0381        152     80.26452
 6.60    698.4171  20.8842     735.0249    583.4592  16.60     1.674     1.410   0.1379        153     93.30951
 6.11    691.0156  20.5493     1000.633   1214.0000 -64.82     1.742     1.438   0.0969        154     89.32449
 6.27    687.3191  20.8160     782.6913   1214.3245 -19.51     1.893     1.111   0.0981        155     70.71162
 8.75    687.4052  22.1129     237.0431    132.1882  19.49     0.759     0.446   0.2180        156     47.58437
 3.91    685.7895  19.7733     2044.994    644.3520 -76.66     2.205     2.099   0.0409        157     77.00803
 3.50    648.6792  15.9773     67466.81   1464.4430 -41.35     3.031     2.933   0.0015        158     95.87422
 4.47    654.8028  21.3396     483.2493    871.6137  16.84     1.473     1.161   0.1207        159     53.70523
 7.38    644.9847  21.8846     292.5143    653.9760  45.88     0.902     0.526   0.1777        160     47.86677
 3.90    630.8015  21.0384     637.7335    806.2888  -7.27     1.543     1.099   0.0801        161     47.01447
 3.65    623.5600  20.6037     951.7684   1581.1151   6.85     1.716     1.666   0.0652        162     57.11068
 9.29    618.5418  21.9209     282.8979   1151.5134 -42.70     0.509     0.489   0.1644        163     42.81334
 5.15    912.7505  21.4717     427.8945   1000.7191 -10.53     1.167     0.712   0.1087        164     42.81334
 7.90   1550.8585  21.3500     478.6307   1221.9042 -43.50     0.840     0.673   0.1236        165      54.4529
 3.50   1541.9684  19.2758      3233.41    134.9627 -88.98     2.309     2.183   0.0244        166     72.50066
 3.50   1570.5266  20.0005     1658.832     92.6435 -55.10     1.908     1.798   0.0389        167     59.42379
 3.50   1563.8154  16.1188     59223.63    304.2059 -48.02     3.028     2.968   0.0018        168     97.26984
 9.33   1536.9894  21.4446     438.6864   1428.7147 -86.80     0.740     0.689   0.1504        169      60.7694
 3.50   1507.2974  16.7963     31731.51    269.3668 -83.66     2.892     2.852   0.0032        170     92.72994
 4.82   1561.5085  20.4956     1051.399    861.5500  13.31     1.943     1.459   0.0770        171      74.5175
 3.74   1546.2635  20.6100     946.2448    863.2227  11.30     2.004     1.434   0.0674        172     58.73942
 7.08    595.3417  22.8395      121.391    882.6633  45.20     0.582     0.330   0.2501        173     27.95913
 6.47   1516.2203  21.0383     637.7783   1547.8488  86.81     1.542     1.161   0.1361        174     79.92798
 6.36   1532.8143  21.4398     440.6316    415.7062  51.44     1.225     0.867   0.1481        175     60.10036
 3.50    886.1867  20.8720     743.3745   1500.2448 -41.32     1.734     1.507   0.0755        176     51.65855
 7.25   1504.3042  23.7918     50.49854   1312.3025 -45.11     0.551     0.345   0.6116        177      28.4371
 3.50   1514.9398  18.3368     7678.602    392.6765 -49.10     2.545     2.449   0.0114        178     80.26452
 3.50   1542.7660  19.5781     2447.667    654.7966 -57.64     2.278     2.085   0.0311        179     70.04229
 7.79   1515.3047  21.6872     350.8459    483.5810 -40.07     1.280     0.506   0.1782        180     57.58074
 4.45    869.7726  19.5203     2581.427   1104.1035 -25.40     2.568     2.291   0.0418        181     99.46211
 4.76    868.4896  20.6542     908.4972    939.5806  10.66     2.196     1.446   0.0935        182     78.22356
 4.91    876.1675  22.3641     188.0936    542.0865 -47.54     0.851     0.656   0.1919        183     33.24426
 7.19   1496.8009  22.4316     176.7429    844.6091  70.45     0.764     0.441   0.2322        184     37.79746
 6.65    901.2337  22.8491     120.3291      1.4447  69.20     0.732     0.453   0.2567        185      28.4371
 3.50    880.6579  15.4015     114658.3   1592.4362 -70.44     3.101     2.929   0.0009        186     94.17218
 5.70   1504.2101  20.7324     845.3878    723.5041 -13.84     1.557     1.364   0.0985        187     76.65719
 4.89    878.4304  21.5900      383.701    960.4305  33.17     1.393     0.694   0.1273        188       44.963
 7.03    888.6298  20.4993     1047.834    325.9332 -19.57     1.511     1.008   0.0827        189     79.75918
 6.72    938.1221  21.1089     597.6504    516.4684 -38.73     1.776     1.478   0.1820        190     100.1374
 3.50    900.6879  18.5347     6399.394    303.0618 -32.93     2.564     2.331   0.0128        191     75.65001
 8.46   1437.4961  22.5744      154.964   1347.4993  44.96     0.505     0.495   0.2624        192     37.43918
 6.18   1406.2505  21.6861     351.1896    329.1994  37.89     1.346     1.177   0.2213        193     71.56513
 3.64    929.0269  20.5437     1005.797   1322.1683 -23.87     1.746     1.621   0.0604        194     55.91826
 3.50   1436.4323  15.6375     92255.96   1088.5930  46.50     3.156     2.110   0.0011        195      95.4866
 3.50    913.3269  20.8105     786.6788    838.5448 -74.58     1.717     1.401   0.0699        196     50.60419
 4.52    939.6163  19.9379      1757.22   1067.3986 -70.97     2.160     1.995   0.0532        197      86.0976
 3.50    947.4988  21.8631     298.3722    445.8224  20.29     1.299     0.861   0.1239        198     34.04544
 3.67   1411.3929  21.1197     591.7079    349.9223  61.00     1.809     1.631   0.1053        199     57.34619
 5.44    896.1943  19.9869     1679.767    538.6280 -19.69     2.337     2.200   0.0734        200     113.5112
 3.80   1435.3816  19.2456     3324.851    224.9037  54.77     2.253     2.167   0.0253        201     77.35727
 3.50   1393.5499  15.7870     80388.73    114.3857 -47.91     3.046     2.987   0.0013        202     96.85327
 3.50   1439.8126  19.5342     2548.702    619.3232 -57.27     2.162     2.065   0.0292        203      68.4856
 7.28   1434.3214  22.3603     188.7485    341.6860  45.38     0.564     0.340   0.1636        204      28.4371
 3.50   1415.5215  20.0625     1566.771   1386.5270 -14.68     1.947     1.825   0.0423        205     60.99078
 3.50   1388.9996  18.3966     7267.229   1428.3959 -75.23     2.420     2.373   0.0116        206      77.5313
 5.13   1412.6035  21.6726     355.6084      1.6324 -87.48     2.074     0.667   0.1418        207     46.43759
 4.45   1400.8259  20.5896     964.1671   1031.7983   3.31     1.904     1.602   0.0802        208     71.18748
 3.50   1408.4286  19.6079     2381.535    308.3497  -2.59     2.203     2.012   0.0311        209     68.28852
 3.50   1095.0238  16.8691     29673.38    778.4089  45.67     2.807     2.661   0.0032        210     88.64298
 5.85   1129.9960  20.8870     733.1423    547.0289  44.68     1.421     1.108   0.1006        211     67.89265
 3.50   1210.8080  17.6339     14669.78   1278.9933  83.25     5.901     3.811   0.0113        212     152.9623
 7.15   1093.4473  20.7989     795.1373    467.2916 -45.65     1.313     0.949   0.0998        213     73.05623
 4.03   1392.6481  20.1009     1512.314   1039.0205 -21.95     2.016     1.858   0.0514        214     71.56513
 3.50   1082.0333  18.1244     9338.115   1148.2734 -15.89     2.643     2.564   0.0097        215     83.39394
 5.64   1130.5193  21.0118     653.5782    219.9613  17.17     1.933     0.961   0.1180        216     70.99789
 7.51   1391.6624  22.0760     245.2443    808.3376  45.00     0.581     0.331   0.1379        217     31.15128
 5.69    951.7153  20.8547     755.3184    654.0699 -86.19     1.785     1.414   0.1190        218     82.74496
 7.26   1330.6422  21.7848     320.6957    386.4968  36.27     1.074     0.780   0.2065        219     60.99078
 3.50   1372.7461  18.1946     8752.795   1019.0373 -73.03     2.606     2.568   0.0103        220     82.74496
 3.83   1107.6849  18.4488     6926.134    428.1782 -77.45     2.603     2.456   0.0141        221       89.926
 3.50   1080.1910  16.7447      33275.2    512.2969 -69.69     2.969     2.859   0.0031        222     94.31519
 8.47   1353.4642  22.1774     223.3821    154.5137 -43.11     0.507     0.491   0.1855        223     38.15237
 3.50   1214.8149  17.6370     14628.03    513.1483 -46.75     2.788     2.685   0.0066        224     88.26196
 7.20   1229.4928  21.5120     412.2826   1154.1887 -88.33     1.005     0.740   0.1517        225     57.58074
 5.35   1333.0924  20.8477     760.2045    107.4512 -49.95     1.654     1.308   0.1041        226     72.87151
 8.03   1299.5083  22.0701     246.5735     52.5046  44.92     0.509     0.491   0.1649        227     37.43918
 3.50   1278.2858  19.0023     4159.905   1331.2653  19.66     2.364     2.226   0.0194        228     74.15488
 3.50   1293.0548  20.7854      805.108    412.8123 -59.79     1.963     1.671   0.0786        229     58.27871
 3.50   1273.0537  17.7190     13563.93    609.9025 -55.37     4.604     3.053   0.0097        230     120.9831
 3.67   1319.2821  21.3799     465.6372    264.3346 -41.09     1.342     1.081   0.0946        231     40.54988
 4.94   1259.4498  20.3321     1222.208    432.2961 -26.24     2.210     1.862   0.0817        232     92.00035
 5.35   1304.6052  20.8351     769.0889    892.9379 -82.97     1.731     1.354   0.1062        233      75.2375
 0.00   1299.5022  99.0000    -12.85022   1089.4468 -50.71     0.506     0.491  99.0000        234      17.9852
 6.74   1238.1829  21.7889     319.4772     48.1805  45.52     1.219     0.499   0.1646        235     48.42664
 7.27   1263.2919  21.6468     364.1345    855.0083  21.90     0.729     0.687   0.1428        236     47.86677
 4.26   1213.2944  20.0866     1532.365   1429.4351  61.87     2.704     1.979   0.0646        237     91.11713
 3.80   1202.2263  20.1850     1399.528    339.3524 -60.99     2.012     1.869   0.0525        238     67.69383
 6.35   1230.7163  20.6942     875.5927    598.6448 -26.31     1.728     1.210   0.1050        239       84.677
 3.50   1219.2191  18.0948     9595.846   1194.9174  56.23     2.692     2.610   0.0097        240     85.94091
 3.60   1234.5607  19.4937     2645.667    304.9623 -43.58     2.220     2.046   0.0289        241     70.42609
 6.85   1238.0038  22.3162     196.5686    856.8279 -34.98     1.279     0.435   0.2629        242     47.58437
 7.40   1204.6573  22.7430     132.6749   1217.3335  45.37     0.581     0.331   0.2328        243      28.4371
 3.50   1237.2053  20.0447     1592.576   1553.3928   3.72     1.978     1.901   0.0425        244     62.30256
 5.18   1195.3461  19.9661     1712.233    124.1042  88.39     2.276     2.069   0.0656        245     103.4475
 3.50   1138.7202  16.8106     31314.32    148.0385 -47.73     2.901     2.826   0.0032        246     92.00035
 3.50   1201.2911  20.5747     977.4951   1442.0563  25.89     1.754     1.557   0.0588        247       52.947
 4.84   1181.3904  21.2500     524.7908    549.5240 -82.69     1.735     1.003   0.1220        248     58.96842
 4.24   1207.9182  19.9300     1770.059    839.1417 -37.75     2.094     1.889   0.0478        249      77.8782
 4.95   1151.3420  20.0455     1591.433     99.5742 -31.94     2.041     1.732   0.0588        250      86.0976
 3.50   1165.4768  16.2923     50473.58   1299.7546 -45.06     2.966     2.895   0.0020        251     94.17218
 4.59   1120.3331  19.5506     2510.387    330.1281  55.50     2.861     2.131   0.0449        252     103.8376
 3.64   1158.1259  18.6536     5735.432    236.4268 -45.23     2.466     2.432   0.0156        253     82.25485
 3.50   1161.9113  21.6912     349.5726    887.8856 -23.63     1.513     1.254   0.1387        254     44.66224
 5.21   1153.7365  20.7054     866.6215   1352.9554  -1.42     1.817     1.304   0.0927        255     73.97291
 6.37   1111.0759  19.7202     2147.373    479.3346  60.00     2.765     1.746   0.0654        256     129.2768
 4.96   1072.4772  19.8550     1896.786   1218.9852 -66.57     2.589     2.211   0.0628        257     109.6458
 3.50   1130.2097  17.5067     16493.15    183.5254 -48.52     2.811     2.665   0.0058        258     87.80266
 7.36   1042.4810  22.9595     108.6899    468.0018  32.34     0.790     0.316   0.3441        259     34.43904
 3.50   1096.0061  20.8155     783.0597   1527.0216  17.14     1.634     1.463   0.0694        260     50.06868
 6.47   1065.9886  22.1217     235.1471   1596.7365  52.89     1.278     0.626   0.2325        261     50.33715
 3.50   1026.0679  17.3369     19286.62   1380.0214 -55.82     2.795     2.683   0.0050        262     88.10913
 7.21   1079.8993  21.9036     287.4485    329.8013  -2.51     1.332     1.111   0.3039        263     80.43226
 5.49   1065.5956  20.4550     1091.477   1562.7943 -48.93     2.215     1.456   0.0899        264     90.37451
 3.50   1010.0671  17.4967     16646.85    813.8275 -65.16     2.713     2.670   0.0057        265     87.03177
 7.01   1016.7502  22.2270     213.3965    454.1198 -29.65     1.034     0.653   0.2682        266     52.69183
 3.50   1038.8405  18.2153      8588.09    525.6727 -60.61     2.701     2.531   0.0107        267     84.51768
 3.50   1040.5190  16.4657     43026.61    633.2500 -61.44     3.027     2.929   0.0024        268     95.59265
 8.15   1042.3296  23.4021     72.30481   1096.3228 -45.32     0.571     0.337   0.5054        269     33.64723
 0.00   1049.0043  99.0000    -68.38037   1089.0000  90.00     0.836     0.289  99.0000        270     27.95913
 4.22   1030.0459  19.8689     1872.601    302.9783  66.56     2.899     2.088   0.0556        271     95.87422
 4.13   1011.6921  19.5440      2525.76    345.0459 -64.98     2.237     2.085   0.0354        272     82.41854
 5.76    980.8536  20.6675     897.4421    798.1853 -58.32     1.865     1.469   0.1064        273     87.95603
 4.52   1001.9209  19.4203     2830.547    542.7508  -3.52     2.292     2.245   0.0362        274     94.45798
 3.50   1001.7543  20.4468     1099.697   1555.5012 -25.15     1.812     1.612   0.0540        275     54.69985
 7.54    964.9527  21.4684     429.1638    415.9613 -36.71     1.450     0.971   0.2081        276     82.25485
 4.79   1000.3470  20.8064     789.6256   1273.7705 -15.75     1.937     1.514   0.1035        277      75.2375
 3.50    985.2017  16.8748     29518.05    558.6800 -34.57     2.937     2.855   0.0034        278     93.16496
