#   1 KRON_RADIUS            Kron apertures in units of A or B                         
#   2 Y_IMAGE                Object position along y                                    [pixel]
#   3 MAG_BEST               Best of MAG_AUTO and MAG_ISOCOR                            [mag]
#   4 FLUX_BEST              Best of FLUX_AUTO and FLUX_ISOCOR                          [count]
#   5 X_IMAGE                Object position along x                                    [pixel]
#   6 THETA_IMAGE            Position angle (CCW/x)                                     [deg]
#   7 A_IMAGE                Profile RMS along major axis                               [pixel]
#   8 B_IMAGE                Profile RMS along minor axis                               [pixel]
#   9 MAGERR_BEST            RMS error for MAG_BEST                                     [mag]
#  10 NUMBER                 Running object number                                     
#  11 FLUXERR_BEST           RMS error for BEST flux                                    [count]
 3.50    632.3937  11.5954      3818184   1391.4089 -65.63    51.892    22.597   0.0002          1     654.4033
 3.50    575.3050  13.6626     568775.4   1155.0331 -74.12    55.559    16.628   0.0014          2     726.9745
 3.50    207.1070  10.6039      9515674   1067.4913  64.57    86.042    43.977   0.0001          3     1231.203
 3.50    524.1910  15.0006     165870.8   1594.4073  89.81    80.108     7.698   0.0051          4     773.4161
 3.50    352.2237  11.3281      4883984    984.3736  88.58    41.879    20.017   0.0002          5     737.4728
 0.00    126.3779  12.4986      1661720   1185.1979  55.75    48.539    13.166   0.0003          6     469.6231
 0.00    285.1797  13.4557     688209.8    570.8029  80.12    56.676    25.347   0.0012          7     769.6449
 3.50    318.9498  16.0173     65027.62   1594.4489  89.59    31.029     7.833   0.0087          8     520.4937
 3.50    352.2987  10.6312      9279815    814.0750 -89.28    64.800    49.905   0.0001          9      1111.73
 3.50    342.9372  10.7543      8284564   1428.3341  72.77    85.366    33.560   0.0002         10     1214.885
 0.00    447.7484  13.4534     689641.6    470.5728   1.22    54.144    18.316   0.0010         11     660.1241
 0.00    263.0558  13.8833     464154.4    248.3368  45.12    31.376     6.123   0.0008         12     345.8888
 0.00    125.2031  14.3465     302969.3    248.7520 -45.13    28.544     5.633   0.0011         13     315.9516
 3.50    191.5973  13.8034     499633.4    130.8463 -89.70    37.344    13.863   0.0015         14     686.3232
 0.00    194.0387  13.1855       882702    933.5316  -7.13    47.106    23.697   0.0010         15     814.7007
 0.00    139.1184  14.4361     278979.5    499.9589  38.28    19.180    13.532   0.0018         16     469.5107
 3.50    314.1973  11.5700      3908453    540.2120  83.80    37.410    21.433   0.0002         17     589.6132
 0.00    190.8270  13.2506     831320.6   1314.4304   5.62    47.530    21.209   0.0010         18     793.2595
 3.50     73.4941  14.2332     336290.3   1208.6843  57.58    17.553    14.495   0.0015         19      460.973
 3.50    352.4911  11.1939      5526488   1253.1726 -87.21    45.599    22.246   0.0002         20     825.6721
 0.00     73.8024  14.3922     290493.9    437.4654  51.64    18.403    14.528   0.0018         21     472.0821
 3.92     54.0962  16.4523     43560.78     63.4768  10.66     5.140     4.701   0.0049         22     198.1672
 0.00     72.6345  14.3207     310252.1    200.0107 -48.39    17.614    14.668   0.0016         23     464.3827
 3.50     11.5145  13.7241     537479.8   1119.1783  -0.04    22.446     7.587   0.0007         24     357.3071
 3.50     11.5877  12.9706      1075899    319.0648   0.06    34.890     7.614   0.0004         25      442.019
 3.81     17.2858  18.4376     6998.081    984.7308 -89.73     4.479     2.062   0.0185         26     119.4993
 3.50      9.8526  17.6176     14892.67   1274.9840  -4.79    11.670     6.162   0.0195         27     267.0825
 3.50      9.5258  17.5863     15328.06    506.1042  -2.41    11.595     5.994   0.0186         28     262.5678
 3.50     15.4403  18.0461        10036   1445.5632 -61.17     1.758     1.659   0.0067         29     62.23453
 7.47     10.9179  18.5558     6275.937    130.1242  74.01     4.257     3.835   0.0451         30     260.7658
 3.50      4.6718  19.4144     2845.991    142.7690  14.30     5.023     2.291   0.0413         31     108.1054
 3.50     18.7919  19.0798     3873.438     91.0600 -77.47     1.663     1.588   0.0164         32     58.32345
 7.04      4.8132  18.8356     4850.357    962.0982  12.55     6.250     2.303   0.0418         33     186.8392
 0.00    124.5287  14.6552     227994.4    386.7240  44.79    26.261     5.015   0.0014         34     288.2813
 3.50    190.9418  14.8745     186291.3    318.1088 -77.50    16.404    15.465   0.0029         35     489.8751
 0.00    641.1682  11.7862      3202688   1240.7410 -89.87    71.011    27.165   0.0002         36     624.2603
 5.68     38.8928  21.7727      324.267   1521.2972  57.82     1.153     0.680   0.1728         37     51.58175
 3.83     43.2823  21.9292     280.7385    915.3445 -44.85     1.175     0.701   0.1420         38     36.70392
 0.00    704.9387  12.2970      2000751    235.0789  13.31    94.136    49.677   0.0005         39     928.6514
 3.50     80.9651  16.4335     44321.62    537.4864 -58.28     1.900     1.806   0.0016         40     66.16894
 3.50     60.6879  16.6886     35041.22   1078.1769 -51.63     1.417     1.359   0.0015         41     49.58427
 9.57     79.3353  18.6177     5928.248   1330.2224  82.95     2.702     1.161   0.0319         42     174.3919
 8.69     68.3901  20.3886     1160.293    586.4158  36.89     1.732     0.627   0.0874         43     93.39688
 8.92     72.4635  19.8042     1987.622   1322.3820 -67.34     1.330     1.134   0.0616         44      112.831
 9.56     77.4928  19.1321     3691.048   1341.5072  48.21     1.402     1.356   0.0400         45     135.8541
 9.34     72.8533  21.9905     265.3498   1343.9607 -39.94     1.264     0.721   0.1703         46     41.61255
 3.50     76.0080  20.6442     916.8997    127.7343  66.29     1.099     1.073   0.0456         47      38.4954
 9.05     73.3180  20.7353     843.1334    552.1580 -56.63     1.097     0.558   0.0937         48     72.71639
 9.10     77.1741  20.8906     730.7139    563.8197 -44.27     0.741     0.568   0.0909         49     61.14261
 3.50    122.5935  15.9751     67601.59    788.9167 -56.78     2.111     1.967   0.0012         50     72.94761
 9.56     94.5249  18.9083     4536.126   1341.6290  53.63     2.220     1.480   0.0428         51     178.5901
 3.50    413.3260  11.4972      4179447    441.3543   4.39    40.873    22.594   0.0002         52     682.7096
 3.51     97.3153  19.6431     2305.375     56.0121  -7.93     1.526     1.413   0.0252         53      53.5047
 0.00    260.6163  99.0000    -42680.58    387.8619 -44.50    16.932    13.828  99.0000         54     550.8952
 3.50    582.1075  11.8202      3104030    562.1657  56.58    49.145    18.093   0.0002         55     589.0803
 3.50    308.8604  14.3567     300130.8    202.0692  41.35    18.069    14.019   0.0017         56     469.0779
 9.23    142.8268  20.1141     1494.023    632.3856 -63.60     1.426     0.584   0.0630         57     86.66324
 9.40    131.8801  20.5489     1001.044    636.6458 -18.42     0.940     0.662   0.0828         58     76.33181
 3.50    163.1101  16.6117     37611.92   1468.1348 -54.43     1.940     1.845   0.0020         59     67.92706
 0.00    372.4954  14.4451     276677.6    266.7413  51.99    19.324    13.530   0.0018         60     465.2748
 3.50    171.3962  17.9576     10888.79    877.1403 -60.93     1.874     1.827   0.0054         61     53.93304
 9.27    162.4190  19.8243     1951.034    627.8748  55.17     2.083     0.761   0.0671         62     120.4817
 3.50    165.8175  21.0897      608.307   1445.4894  -6.25     1.304     1.095   0.0761         63     42.64611
 8.10    169.1277  21.6138     375.3997    651.5096 -36.47     0.877     0.672   0.1862         64     64.36282
 7.42    211.6741  19.8078     1980.953    684.4976 -80.75     1.939     1.415   0.0693         65     126.4822
 3.50    204.2756  23.1508     91.13275   1498.3649 -40.47     0.564     0.337   0.1694         66     14.21537
 3.50    266.7211  15.7088     86389.23     67.3803 -77.58     2.086     1.969   0.0009         67     72.71639
 3.50    223.3653  21.3867     462.7238    774.7476 -14.32     1.202     0.965   0.0914         68     38.93039
 3.50    573.6757  12.1860      2216239    403.0563 -47.65    48.613    11.129   0.0002         69     472.3317
 3.50    865.1097  13.4258     707454.5   1092.7350  89.92    57.242    13.600   0.0012         70     776.9897
 3.50    282.7665  19.4269     2813.336   1522.1582 -48.32     1.232     1.175   0.0166         71     43.03917
 3.50    639.7369  13.9670     429753.7    636.6946  89.96    32.245    13.487   0.0016         72     634.5895
 3.50    859.5725  11.5756      3888223   1129.1223  89.97    38.850    19.198   0.0002         73     609.9481
 3.50    509.1489  13.8249     489816.8    895.3687   0.10    38.367    13.637   0.0016         74     703.1323
 3.55    322.8381  18.0346      10143.3    697.1180 -79.82     1.881     1.792   0.0072         75     67.42941
 6.85    309.7195  20.8787     738.7856     85.3593 -81.01     1.954     0.903   0.1376         76     93.57701
 3.50    781.9080  11.8458      3031671    485.7255 -48.43    65.520    11.232   0.0002         77     497.5313
 3.50    522.9290  14.2355     335576.4    567.1746  54.40    17.765    15.573   0.0015         78     456.2053
 3.50    527.7264  14.5664     247413.2    393.2644 -53.62    18.499    12.799   0.0019         79     437.9273
 5.31    332.8576  21.4622     431.6218     93.4360  -7.84     1.068     0.836   0.1330         80     52.87149
 3.50    350.8567  20.7309     846.5143     54.4748 -39.34     1.290     1.224   0.0572         81     44.57676
 5.17    348.6103  22.4320     176.6792     42.2832 -59.05     0.983     0.545   0.2419         82     39.36057
 3.50    396.0051  16.2838     50871.77    231.3760 -58.46     1.942     1.870   0.0017         83     81.89452
 3.50    585.5182  14.2768     323071.2    330.9813 -38.39    18.651    14.146   0.0016         84     465.4663
 6.49    371.1452  21.6408     366.1622     71.4294 -16.35     1.203     0.716   0.1838         85     61.96336
 5.04    376.6147  22.1826     222.3068     86.3850  23.02     1.364     0.457   0.1964         86     40.20713
 8.13    381.0482  20.9358     700.9702    125.7678 -10.18     1.120     0.731   0.1169         87      75.4442
 3.50    394.6075  21.7129     342.6292   1088.4695 -30.59     0.822     0.814   0.0956         88     30.15535
 3.50    399.1318  20.1659     1424.459    354.2560 -28.33     0.799     0.753   0.0217         89     28.43074
 3.50    714.4188  12.6224      1482694    303.3004  88.46    27.358     8.482   0.0002         90     337.8065
 6.88    415.6718  21.7647     326.6722      2.5615  35.62     1.257     0.741   0.1861         91     55.96596
 0.00    755.6658  14.1237     371976.1    564.8073  42.18    42.460    18.615   0.0014         92     487.3317
 5.03    421.8590  20.6564     906.6325    158.7348  50.62     1.661     1.444   0.0958         93     79.99435
 3.50    438.7731  17.6604      14316.3    251.8895 -55.52     1.557     1.482   0.0042         94     54.74916
 6.58    428.0669  21.1455     577.8181   1179.5779  41.70     1.584     1.054   0.0988         95     52.55952
 0.00    684.9614  16.4585     43309.72    431.2805 -44.76    21.649     7.025   0.0105         96     419.5487
 4.98    434.8953  21.3510     478.1762    150.9790  14.89     1.133     0.954   0.1194         97     52.55202
 9.45    439.4756  19.0409     4014.745    213.9344  26.41     2.816     1.188   0.0480         98      177.455
 3.50    451.1122  18.7781     5114.053     21.1383 -39.37     1.703     1.572   0.0126         99      59.1833
 8.92    445.1351  20.7284     848.4399    173.6788  62.28     1.158     0.773   0.1112        100     86.85734
 8.90    441.7845  19.7975     1999.864    191.4113 -42.32     1.738     0.873   0.0611        101     112.5321
 9.07    449.4420  20.9829     671.1542    216.0844  81.33     1.722     0.653   0.1145        102     70.74911
 4.29    446.1316  20.9315     703.7119    122.0628 -30.18     1.614     1.155   0.0939        103     60.86657
 3.50    458.6750  18.6701     5648.938     34.3959 -60.50     1.679     1.537   0.0112        104       58.034
 7.31    443.7499  21.5029     415.7603    654.7517 -41.15     1.067     0.696   0.1688        105     64.62392
 8.62    442.4369  21.6601     359.7175    201.3327  -2.79     2.058     0.593   0.1447        106     47.93698
 0.00    821.4017  13.5125     653141.4    500.6896  21.91    56.082    29.660   0.0009        107     535.5578
 9.39    449.4447  19.9121     1799.593    209.1287 -30.97     1.580     0.771   0.0646        108     107.0094
 3.50    702.3883  13.3347     769324.3   1214.1130 -10.86    40.390    15.963   0.0009        109     610.4815
 5.13    461.9187  21.2865     507.4421   1096.1533  54.86     1.155     1.064   0.1248        110     58.32345
 8.69    457.6320  21.6653     357.9949    191.1938 -17.46     0.749     0.447   0.1575        111     51.90719
 3.50    472.2132  20.4324     1114.363    254.0892 -66.29     1.294     1.173   0.0442        112       45.326
 3.50    472.9614  19.7202     2147.427    734.7808 -38.05     1.497     1.347   0.0258        113     50.92463
 3.50    484.9312  20.3322     1222.126   1070.4175 -73.22     1.375     1.240   0.0413        114      46.4272
 4.93    496.9196  19.6092     2378.686     82.5440  53.24     2.411     2.061   0.0517        115     113.2778
 9.04    505.2596  19.2596     3282.018    273.7545  88.54     4.083     0.894   0.0587        116      177.455
 3.75    479.8637  22.1365       231.95    682.6153  17.84     1.030     0.720   0.1537        117     32.82899
 9.21    500.6920  19.9935     1669.626    283.2000  37.45     1.793     0.676   0.0678        118     104.2999
 0.00    810.9186  12.7453      1323922    133.0255 -31.63    47.365    13.212   0.0004        119     496.9715
 9.23    526.1752  18.1299     9290.095    694.2490 -27.92     3.296     2.344   0.0308        120     263.6558
 3.50    505.1145  21.6934     348.8408    762.6562 -79.74     1.163     0.994   0.1198        121      38.4954
 0.00    641.2502  99.0000    -1232.955    476.6158 -79.36    13.750     3.894  99.0000        122     263.7197
 3.50    692.1136  14.3681     297015.4   1398.1703 -60.67    17.147    14.697   0.0016        123     437.2716
 3.50    944.3112  11.9360      2789891    246.3104 -45.39    41.608    12.270   0.0002        124     558.2143
 8.95    507.0856  20.4982     1048.845    260.3371  12.07     1.069     0.737   0.0843        125      81.4546
 3.50    781.5032  11.7399      3342186   1272.6615  27.83    50.395    18.300   0.0002        126      597.377
 5.17    510.6264  20.9385     699.1932    164.3679  -2.91     2.218     0.986   0.1223        127     78.72115
 8.70    507.3418  21.9101     285.7252    268.3015 -47.00     0.567     0.338   0.1480        128     38.93039
 8.71    518.8856  20.9317     703.5712    268.1570  44.51     0.859     0.654   0.1037        129     67.17921
 3.98    541.0534  19.9481     1740.787    999.7314 -53.86     1.536     1.387   0.0366        130     58.61147
 3.50   1086.1444  11.5306      4052869    113.0638 -43.47    43.848    19.960   0.0002        131     824.7405
 0.00    778.3478  14.3015     315803.7     72.2978 -46.22    18.900    14.405   0.0016        132     471.7772
 4.41    559.8713  19.4993     2632.083   1041.5114 -29.66     1.619     1.540   0.0294        133     71.31337
 6.59    597.2618  17.6663     14238.54    782.3675 -80.93     4.117     3.888   0.0207        134      271.274
 4.75    556.4932  22.0505     251.0805    778.7437  88.30     0.943     0.724   0.1702        135     39.36057
 4.30    571.6570  20.0846     1535.156     45.6160  59.60     1.985     1.429   0.0529        136     74.77158
 3.50    581.4247  18.1103     9459.338    144.8221 -84.10     1.781     1.655   0.0070        137     60.86657
 7.57    577.1076  19.9368     1759.099   1001.6425  83.04     1.986     1.377   0.0793        138     128.4637
 4.01    565.5809  21.5133     411.7812    139.6904 -53.97     1.148     1.009   0.1145        139     43.42867
 3.50    688.0392  16.9611     27262.95   1531.5134 -68.20    11.349     9.754   0.0151        140     379.0469
 3.50   1130.6683  11.1723      5637473   1002.3871  18.04    53.799    25.909   0.0002        141     990.7057
 3.50    585.4980  20.9207      710.744     75.9933  34.11     1.282     1.160   0.0675        142     44.19738
 9.28    631.6955  18.2414     8383.665    888.2980  24.32     4.520     2.942   0.0320        143     246.6707
 4.97    631.7404  20.9285     705.6605    805.9729 -80.14     1.209     1.117   0.0915        144     59.46716
 3.50   1590.4493  16.8139     31220.21   1264.6968   0.49    16.219     6.541   0.0113        145     325.6116
 3.50   1590.7308  17.2854     20221.89   1040.8645  -1.14    14.188     6.315   0.0161        146      299.424
 5.51   1597.8674  20.4814     1065.248    655.1654 -32.36     1.909     1.388   0.0778        147     76.33181
 5.62   1595.9124  20.9124     716.1792    374.0342  41.13     1.272     1.258   0.1038        148     68.42107
 7.28   1593.8699  21.2237     537.6727   1385.1064 -26.16     1.529     0.605   0.1464        149     72.48444
 6.78   1592.7118  22.1573     227.5579    566.9949  -0.12     0.742     0.669   0.2334        150     48.90032
 3.50   1567.4852  19.7762     2039.552     22.0536 -35.08     1.501     1.336   0.0276        151     51.90719
 5.14   1562.8250  22.4986     166.1672   1566.5303 -28.41     1.365     0.524   0.2913        152     44.57676
 9.43   1541.4967  20.5296     1018.945   1335.9891 -62.71     1.220     0.491   0.0797        153     74.77158
 3.50   1558.8717  16.1199     59162.99    487.7101 -42.21     1.947     1.877   0.0013        154     68.42107
 3.50   1543.5160  19.6830     2222.252    654.6883 -42.49     1.462     1.341   0.0249        155     50.92463
 9.25   1535.3124  21.8759     294.8643   1348.3517 -63.75     2.402     0.634   0.1652        156     44.84942
 8.51   1539.5172  22.3737     186.4258    263.4748  45.53     0.509     0.490   0.2530        157     43.42867
 3.98   1536.8153  21.5911      383.311   1429.5057 -56.02     1.521     0.861   0.1315        158      46.4272
 9.54   1526.1257  19.4565      2737.84   1331.2883  21.41     1.867     0.783   0.0470        159     118.5088
 4.68   1533.0137  21.1426     579.3569    415.7943 -28.03     1.657     1.117   0.1211        160     64.62392
 9.12   1529.5067  22.3201     195.8595   1347.5441   0.16     1.073     0.500   0.2020        161     36.42358
 9.26   1539.9883  21.3304     487.3636   1328.1267  88.66     1.927     0.942   0.1345        162     60.35006
 9.34   1525.5417  21.9672     271.0988   1345.9468  -5.04     1.939     0.470   0.1727        163     43.11887
 8.15   1522.5964  20.8978     725.9252   1351.9432 -27.01     1.152     0.557   0.1005        164     67.17921
 3.50   1523.4836  23.1037     95.17743     14.4995  44.60     0.509     0.490   0.2294        165     20.10357
 4.89   1519.6189  21.3576     475.2899     84.3915  80.11     1.501     0.882   0.1313        166     57.45073
 3.50   1515.7332  18.2858     8048.182    392.7216 -44.48     1.718     1.630   0.0083        167     61.41741
 5.28   1516.1360  21.3548     476.5065   1547.0355  59.83     1.453     1.003   0.1479        168     64.88399
 6.55   1489.0808  22.0396     253.6122     77.8817 -75.42     0.962     0.688   0.2371        169     55.36091
 9.30   1483.9883  20.7768     811.4562    719.4960  81.08     1.026     0.479   0.0896        170     66.92807
 3.50   1483.3834  21.3700     469.8981    574.9792 -28.65     1.719     0.975   0.1073        171      46.4272
 9.64   1478.2308  19.5397     2535.831    900.7378 -20.34     1.489     0.931   0.0501        172     116.9353
 6.84   1479.4894  22.8390     121.4509    638.4888  45.18     0.501     0.499   0.2936        173     32.82899
 3.50   1228.1251  14.4566     273754.2   1203.4050  43.48    20.405    12.790   0.0018        174     458.7238
 3.50   1162.7111  14.3384     305226.5   1141.9341  50.36    18.799    14.810   0.0017        175     480.8056
 3.50   1292.3013  14.5385     253874.6   1267.3623  34.38    18.372    13.367   0.0018        176     431.5327
 0.00   1441.1346  12.0325      2552745   1187.0475  -1.86    66.004    26.536   0.0003        177     607.4259
 3.50   1299.1519  11.8257      3088242   1220.6118  42.28    41.197    13.262   0.0002        178      567.532
 9.07   1477.2031  19.8071     1982.337    885.5872  -8.84     2.068     0.801   0.0655        179     119.4993
 9.44   1478.0537  21.4772     425.7302    722.8747  22.58     1.701     0.797   0.1428        180     55.96558
 9.83   1476.3031  19.8224     1954.495    731.0191  45.61     1.303     0.793   0.0573        181     103.1635
 7.77   1477.7635  22.3708     186.9259    198.9817  -0.83     0.693     0.425   0.2523        182     43.42867
 9.43   1465.1912  17.9472     10993.14    904.0582  25.35     3.658     1.843   0.0249        183     251.8301
 9.43   1464.7893  19.5127     2599.604   1395.1271 -34.00     1.519     0.967   0.0492        184     117.7962
 9.23   1460.5853  20.5475     1002.279    915.2717 -45.20     1.857     1.037   0.0909        185     83.91788
 9.79   1463.9978  19.3977     2890.263    699.5295 -18.24     2.162     1.160   0.0543        186     144.5385
 9.16   1454.0039  18.5190     6492.384   1402.2007 -85.69     3.563     1.301   0.0339        187     202.7871
 9.25   1456.9183  19.0028     4157.799    922.8077 -17.63     2.316     1.531   0.0468        188      179.155
 9.69   1460.7695  20.0322     1611.125    719.2363  87.98     1.144     0.727   0.0615        189     91.20759
 9.42   1470.7407  19.4633     2720.749    710.3171   7.57     3.978     1.619   0.0561        190     140.4415
 9.57   1455.1587  19.9680     1709.216    713.7659 -47.24     1.304     0.746   0.0619        191     97.45566
 9.09   1463.7483  19.9100     1802.997    671.4412  43.80     2.069     1.411   0.0693        192     115.0817
 9.25   1453.0215  20.5363     1012.688    727.1985 -25.12     1.005     0.607   0.0797        193     74.31978
 9.42   1471.0719  20.7175     857.0278    921.7286  88.21     2.594     1.026   0.0987        194     77.87031
 8.87   1451.7554  19.2719     3245.103   1412.1362  28.62     1.702     1.305   0.0456        195      136.349
 8.21   1450.7781  22.0064     261.4914     88.3629 -73.92     0.748     0.452   0.2045        196     49.24348
 3.50   1338.4729  13.9472     437654.7    703.8652  -0.43    33.273    13.830   0.0016        197     641.5569
 3.50   1321.0859  16.6625     35893.25    660.0273  -7.16     2.198     2.114   0.0024        198     78.07299
 5.52   1380.3505  22.0340     254.9221    318.5949  -4.36     1.034     0.628   0.1978        199      46.4272
 3.50   1373.5349  20.9175     712.8273   1018.6105 -61.87     0.503     0.483   0.0293        200      19.2477
 9.30   1352.4690  19.0773     3882.198     22.3088 -52.61     2.452     1.012   0.0422        201     150.7767
 6.96   1347.6276  22.9799     106.6684    194.3124  47.32     0.584     0.328   0.3070        202     30.15535
 8.84   1345.5441  20.6056      950.049     42.4559 -44.84     1.313     0.543   0.0885        203     77.42701
 8.84   1330.7704  19.7773     2037.369     23.8794 -49.78     4.066     1.853   0.0639        204     119.9177
 9.00   1339.3022  21.8966      289.311     41.6419  42.50     0.574     0.334   0.1509        205     40.20713
 0.00   1273.1378  11.9752      2691070    918.7911  62.76    53.910    18.260   0.0002        206     582.3423
 7.56   1581.7024  21.4402     440.4644   1414.5466  62.67     1.328     0.705   0.1860        207      75.4442
 0.00   1271.0294  14.3579     299818.6    585.0091  40.03    18.069    14.600   0.0017        208     473.4676
 0.00   1271.0796  16.9719     26991.54   1052.5012  64.12    15.278     5.819   0.0140        209     346.9239
 3.50   1250.6091  17.7311     13413.53   1022.3518   9.62    10.229     3.946   0.0199        210     245.9928
 3.50   1299.3434  14.9790     169204.7    724.8917 -39.61     1.589     1.506   0.0004        211     55.66426
 3.50   1300.3915  22.7054      137.351     53.7671 -17.83     0.729     0.456   0.1654        212     20.92446
 8.23   1420.7406  20.9334     702.4643    808.8787  53.53     1.098     0.522   0.0999        213     64.62392
 9.31   1291.8372  18.6138     5949.382   1405.3654  41.47     2.210     1.521   0.0321        214     176.0258
 8.89   1290.8167  21.6127     375.7634    132.5928  70.67     0.783     0.442   0.1537        215     53.18904
 3.50   1293.9078  20.7659     819.6779    412.7369  23.44     1.287     1.129   0.0565        216     42.64611
 3.50   1278.8903  19.3543     3007.957   1331.3972 -59.58     1.267     1.244   0.0161        217     44.57676
 9.16   1280.6970  20.8806     737.4641    100.3643  46.89     0.882     0.512   0.0932        218     63.30762
 5.98   1278.3992  22.1444     230.2787    343.4082  -1.17     0.918     0.658   0.2257        219     47.85606
 5.25   1331.2352  21.0787     614.4773    386.9081   1.03     1.305     0.996   0.1071        220     60.58928
 8.74   1276.5033  21.3509     478.2319   1389.9438   0.88     0.781     0.500   0.1257        221     55.36091
 8.82   1275.2897  20.2719     1291.913   1398.0015 -12.05     1.631     0.641   0.0776        222     92.30872
 9.31   1273.4030  20.1944     1387.527    108.7167  40.49     1.332     0.612   0.0674        223     86.07833
 0.00   1219.9700  99.0000    -928345.9    766.7654 -44.70    24.401     4.485  99.0000        224      376.506
 0.00   1221.3524  13.4921     665490.4    623.5469  46.46    33.633     7.980   0.0006        225     376.7535
 0.00   1081.9011  13.5153     651457.2    624.0259 -46.22    34.046     7.891   0.0006        226     377.3999
 4.62   1260.2467  20.0895     1528.274    432.4418 -72.52     1.945     1.826   0.0635        227     89.34221
 3.74   1263.1615  22.6689     142.0456    215.8582 -41.48     0.728     0.566   0.1882        228     24.62174
 7.37   1257.6351  22.4783     169.3137    117.3232  46.58     0.586     0.327   0.2039        229     31.78653
 7.36   1330.3666  19.4870     2661.951      6.2546 -71.43     4.388     2.964   0.0555        230      136.113
 3.50   1213.0958  15.4288     111814.6     24.3401  -0.83    16.616    13.501   0.0045        231     468.4246
 3.58   1238.0472  20.0549     1577.756   1553.5116  -2.39     1.426     1.354   0.0353        232     51.25424
 3.50   1081.0017  16.5719     39016.79    512.1863 -82.90     2.284     2.127   0.0023        233     82.95612
 3.50   1215.2073  17.3407     19219.08    513.1233 -25.85     2.153     2.055   0.0038        234     66.38164
 3.50   1152.2145  13.8080     497529.9    516.2152  89.98    36.739    14.182   0.0015        235     683.1168
 9.56   1233.4443  19.5417     2531.263   1333.0906 -89.31     2.040     0.717   0.0505        236     117.6531
 6.16   1237.6780  22.8437     120.9243   1466.3071  45.80     0.561     0.341   0.2553        237     28.43074
 3.50   1210.1932  18.4138     7153.141   1278.8367 -83.80     3.976     2.554   0.0174        238     114.4609
 5.27   1213.5974  19.8321       1937.1   1429.3523  77.51     2.567     2.024   0.0692        239      123.382
 9.38   1218.3741  21.2523     523.7173   1352.8376 -19.13     0.757     0.440   0.1135        240     54.74916
 9.40   1216.5959  22.3554     189.6025    174.3251  19.32     1.035     0.580   0.1905        241     33.26037
 9.45   1212.2876  21.1618     569.2082    173.5368 -40.10     2.519     1.058   0.1225        242     64.20356
 9.07   1203.7200  18.1415     9191.647    172.2448 -39.70     3.970     2.269   0.0331        243     280.0704
 4.87   1201.8153  20.3442     1208.654   1442.1543 -87.61     1.660     1.491   0.0711        244     79.14782
 9.04   1213.3105  21.6208     372.9784    186.9452 -63.64     1.240     0.937   0.1526        245     52.39776
 8.38   1210.0212  21.8868     291.9323    192.0014   1.50     1.071     0.732   0.1723        246     46.31726
 3.50   1208.6954  21.8567     300.1502    839.0273  22.78     0.732     0.646   0.0866        247     23.92803
 3.50   1195.6948  20.9353     701.2513    124.2415  74.65     1.352     1.205   0.0713        248     46.06306
 0.00   1151.6442  14.6305     233243.6    703.1186 -59.74    16.038    15.992   0.0022        249     471.4167
 3.50   1165.9685  16.2696     51543.14   1299.7094 -35.48     2.229     2.198   0.0017        250      79.3603
 3.50   1157.2181  17.2726     20462.83   1265.8628  51.98    11.987     7.165   0.0177        251     333.9351
 3.50   1149.0831  16.8802     29370.22    242.2076 -56.71    11.372     8.380   0.0130        252     350.9978
 3.57   1182.7021  21.6466     364.2075    176.3932  26.62     1.109     0.886   0.1094        253     36.70392
 0.00   1396.6760  14.4180     283650.5    971.9562  46.58    19.850    13.480   0.0018        254     463.3565
 3.50   1130.7552  17.7266     13469.64    183.5531 -38.10     1.455     1.386   0.0042        255     51.58175
 4.75   1130.9902  20.8188     780.7114    219.8634 -13.93     1.614     1.227   0.0952        256     68.42107
 3.50    946.3853  14.6824     222361.3    308.0498 -45.87    21.060    11.579   0.0022        257     450.0172
 5.17   1120.8633  19.5079     2611.274    329.8810  59.12     2.526     1.694   0.0456        258      109.652
 9.62   1096.1908  21.5713     390.3751   1331.2026  80.78     1.208     0.841   0.1425        259     51.23565
 7.00   1065.1592  21.1060     599.2254    292.9378   9.28     1.676     1.191   0.1120        260     61.80476
 8.28   1080.4398  19.6921     2203.711    328.6945 -72.00     3.049     2.649   0.0557        261     113.0979
 3.50   1081.0870  17.5770     15460.19    307.6408  64.52     8.444     7.179   0.0197        262     280.2507
 0.00   1036.4943  14.4543     274342.7    818.0593  25.28    17.815    15.400   0.0018        263     459.7228
 3.50   1010.8022  16.7571     32897.53    813.6567  87.78     3.428     3.381   0.0034        264     101.8204
 3.50   1029.6986  16.0515     63009.24     13.2465 -85.54    15.967     8.586   0.0063        265     367.7268
 4.84    913.5717  20.4943     1052.626    838.4923 -17.21     1.376     1.260   0.0680        266     65.91396
 3.50    913.1987  21.5286     406.0173   1000.9146  -6.85     1.181     0.913   0.1006        267     37.61033
 3.50    861.7495  14.6424     230686.8   1404.6814  88.54    21.677    13.539   0.0025        268     539.4244
 9.02    902.5340  21.7090     343.8785    568.4938 -40.39     1.522     0.721   0.1586        269     50.23047
 3.50    901.3380  20.4741     1072.358    302.8036 -83.37     0.750     0.696   0.0263        270     25.95359
 9.21    893.9054  18.6560     5722.649    565.5446 -24.99     4.120     1.016   0.0368        271     193.8718
 8.03    898.5092  22.2676     205.5696    987.5131  45.24     0.505     0.495   0.2211        272     41.84891
 8.91    897.4534  21.7763     323.2151    572.3585 -29.94     1.575     0.827   0.1593        273     47.40826
 5.98    896.8118  19.5359     2544.806    539.5288  -5.71     2.641     1.765   0.0568        274     133.0992
 3.50    881.0759  15.4169     113043.7   1592.5049 -56.25     1.987     1.897   0.0007        275     69.88219
 3.50    848.4968  13.8367     484546.9     12.8695 -79.91    17.505     8.679   0.0007        276     324.6897
 8.63   1548.3546  20.5610     989.9286   1349.1603 -29.71     1.386     0.593   0.0880        277     80.20458
 3.50    886.5872  20.8045     791.0667   1500.6064   5.99     1.450     1.204   0.0657        278     47.85606
 9.28    879.7710  21.2586     520.6511   1525.5931  71.89     0.754     0.454   0.1148        279     55.05589
 4.64    878.4140  20.9553     688.4719    960.6356 -57.99     1.281     1.223   0.0956        280     60.58928
 8.72    878.4334  20.5756     976.6652   1546.1151  80.21     1.155     0.655   0.0861        281     77.42701
 7.75    877.6039  20.6671     897.7845    541.8500 -70.07     1.086     0.989   0.0990        282     81.86703
 5.37    868.6851  20.3176     1238.736    939.5447  25.11     1.996     1.412   0.0812        283     92.67287
 5.01    870.4651  22.0312     255.5681    643.7474 -89.02     0.947     0.732   0.1829        284     43.03917
 9.52    865.0172  18.7165     5412.647   1533.7903  78.30     1.984     1.478   0.0337        285     167.7976
 9.01    865.0939  19.8950     1828.176   1549.0342  72.47     1.672     0.717   0.0605        286     101.8493
 5.76   1453.8417  21.6995      346.902    391.7621  21.98     1.190     0.813   0.1826        287     58.32345
 3.50   1416.3937  20.2654     1299.664   1386.5273 -18.78     1.274     1.233   0.0372        288     44.57676
 9.26   1306.9023  21.2166     541.2186   1408.4688 -14.78     2.930     0.708   0.1270        289     63.30167
 3.50   1021.1459  13.8710     469463.7   1211.0929  -0.08    35.541    13.639   0.0015        290     666.9651
 3.50   1308.6776  20.4569     1089.523    669.5552 -83.29     1.073     0.973   0.0366        291     36.70392
 8.27   1101.7528  20.7990      795.087   1322.8984 -64.74     1.404     0.471   0.0941        292     68.91156
 8.62    861.2194  20.1763     1410.831   1554.1023  29.92     1.217     0.968   0.0741        293      96.2385
 9.61    857.0324  19.5643         2479   1527.4960 -88.31     1.727     0.761   0.0494        294      112.831
 9.02    854.6339  19.5292     2560.489   1539.3744  37.83     1.817     0.882   0.0500        295     117.7962
 8.32    859.5079  22.1605     226.8789   1511.5182 -46.21     0.503     0.497   0.2003        296     41.84891
 9.10    847.6993  20.2372     1333.935   1536.0651 -12.83     1.457     0.553   0.0683        297     83.89878
 8.20    846.9483  21.9553     274.0803   1543.3126  62.47     0.920     0.209   0.1490        298     37.61033
 3.50    824.1008  17.8585     11929.25    633.3284 -72.99     9.598     5.388   0.0236        299     258.7562
 3.50    819.5099  22.4804     168.9755    702.6320  89.96     0.862     0.482   0.1582        300     24.62174
 3.81    836.5144  21.6511     362.7141    819.0197  -0.58     1.080     0.929   0.1153        301      38.4954
 4.66    823.6076  18.1718     8938.544    654.1924 -65.82     2.347     2.274   0.0135        302     110.7218
 8.10    837.8586  20.0198     1629.568   1520.9513   6.96     1.824     0.953   0.0730        303     109.4983
 3.50    799.2351  17.4465     17433.95    695.5537 -86.84     2.572     1.818   0.0048        304      76.9908
 3.50    776.2728  17.1120     23724.91   1466.9751 -46.84    11.086     9.151   0.0166        305     362.9794
 3.81    762.0475  18.4561     6879.291   1458.2954 -50.19     7.542     3.547   0.0346        306     219.0994
 9.09    758.4329  21.4790     425.0165    693.4379 -62.79     2.156     0.538   0.1437        307     56.25365
 9.15    754.6756  19.4614     2725.496    704.2519 -75.57     1.763     0.952   0.0487        308     122.2852
 8.52    746.3088  18.8390     4834.845    688.7577  12.23     4.892     2.012   0.0618        309     275.3406
 9.79    742.6965  18.9046      4551.59    701.7830 -63.50     1.947     1.227   0.0372        310     155.7216
 3.50    775.1511  20.9601     685.3992   1427.5464 -89.59     1.753     1.134   0.0796        311     50.25892
 3.50    738.2763  22.2569     207.6008   1157.9346 -87.31     0.884     0.740   0.1548        312     29.59165
 3.50    736.8547  22.2666     205.7542    649.7581 -50.28     0.761     0.658   0.1335        313     25.29643
 3.50    727.4363  15.9601     68539.52    848.3000 -43.03     2.120     2.002   0.0012        314     73.86522
 9.20   1467.4762  18.1229     9350.484    681.2125 -70.47     3.802     1.910   0.0296        315     254.9536
 3.50   1508.0370  16.7830     32121.66    269.3830 -51.48     1.875     1.773   0.0022        316     65.65797
 8.87   1013.9460  20.4252     1121.841   1403.2648  53.73     1.424     0.585   0.0802        317     82.88913
 9.74   1233.3134  18.7881      5067.13   1340.6998 -50.10     2.237     1.300   0.0365        318     170.4857
 8.60    710.5964  19.9928     1670.601      6.8903  42.39     2.814     1.789   0.0702        319     107.9984
 3.50   1389.6118  18.5062     6569.481   1428.5465 -17.12     1.500     1.436   0.0088        320      53.5047
 0.00   1459.8372  14.4554     274050.1   1034.9799  52.33    19.289    13.462   0.0018        321     464.4571
 8.28    718.3022  20.1542     1439.895      2.4396  66.26     2.860     1.240   0.0754        322     99.95467
 4.07    716.7413  20.2414     1328.755    808.2568 -60.92     1.452     1.252   0.0462        323     56.56454
 4.78   1407.2278  21.1550     572.8101    329.8878  77.17     1.283     1.109   0.1127        324     59.46716
 4.95   1566.7643  20.0469     1589.491    784.6987 -84.10     1.822     1.377   0.0555        325      81.2476
 9.54   1398.7017  19.3058     3145.365    576.6944  73.00     2.105     1.038   0.0502        326      145.317
 3.50    707.8694  22.4455     174.5018    794.7460 -47.14     0.788     0.663   0.1615        327     25.95359
 3.50    703.4992  19.5626     2482.982    952.2971 -33.52     1.574     1.510   0.0241        328     55.05589
 8.65    701.9511  20.1262     1477.485      5.4039 -12.76     1.652     1.432   0.0756        329     102.7899
 9.35   1223.8857  18.7940     5039.803    169.2935  51.35     2.498     1.309   0.0375        330     174.0052
 8.87    681.9581  21.7357     335.5282    762.0000  90.00     0.855     0.289   0.1467        331       45.326
 8.94    670.0867  20.5155     1032.283    753.8028  83.56     1.182     0.592   0.0819        332     77.86078
 8.74    662.1073  19.5652     2476.944    755.1058  -3.28     2.845     0.760   0.0578        333     131.8279
 4.14   1014.2682  22.6038     150.8284    453.4106  72.89     0.737     0.462   0.1773        334     24.62174
 3.50   1012.0101  19.7149     2157.899    344.7848 -49.49     1.446     1.294   0.0244        335     48.55473
 9.37    647.8962  20.9931     664.9087    870.2870  35.53     1.483     0.853   0.1128        336     69.07563
 8.92    629.2739  21.3478     479.6017    932.0801 -56.37     1.164     0.798   0.1354        337     59.80696
 9.19    649.0441  20.9533     689.7372    904.4324 -73.88     2.767     1.088   0.1129        338     71.72028
 8.79    629.2703  19.6720     2244.972    941.1840  17.76     1.380     1.258   0.0577        339     119.3583
 9.55    628.9660  19.3148     3119.476    762.4835  13.03     1.843     1.000   0.0463        340     133.0992
 9.62    638.7851  19.5689     2468.464    768.3699 -40.92     1.842     0.720   0.0501        341     113.8709
 9.31    636.1537  20.5567     993.8403    918.9972 -58.37     2.692     1.010   0.0930        342     85.13333
 9.41    623.7247  19.6095     2377.862    754.1238  60.67     1.665     0.886   0.0539        343     118.0817
 3.50   1026.5682  17.3123     19727.57   1380.0906 -81.58     2.011     1.939   0.0039        344     71.07684
 8.76    623.3637  21.4560     434.1035    929.7933 -17.93     0.753     0.443   0.1315        345     52.55202
 9.18    640.5320  19.2165     3415.134    899.0284 -27.10     2.290     2.022   0.0502        346     158.0137
 8.13   1362.3119  22.5336     160.9034     34.3481 -43.38     0.574     0.335   0.2538        347     37.61033
 9.19   1311.4592  19.1783     3537.284   1398.4458 -13.49     1.766     1.370   0.0454        348     147.8444
 9.29    618.4379  20.8960     727.1068    906.4913 -71.25     0.982     0.409   0.0913        349     61.14261
 8.42    619.5538  21.0108     654.1782    767.3188   7.89     0.995     0.483   0.0992        350     59.74966
 9.37    604.4602  19.9983     1662.179    764.5001  65.57     1.263     0.752   0.0615        351     94.11533
 7.54    610.1809  21.7723     324.3948    944.9125  40.80     0.837     0.663   0.1904        352     56.86147
 3.50    608.4712  22.6927      138.968   1011.9170   4.11     0.786     0.497   0.1814        353      23.2136
 3.50   1546.9423  20.7994     794.7953    863.4241  79.09     1.443     1.276   0.0668        354     48.90032
 8.30    593.1091  20.3903     1158.474    757.4379 -26.17     2.061     0.577   0.0872        355     93.03558
 3.50   1564.5637  16.1102      59691.3    304.2770 -45.70     1.968     1.875   0.0013        356     69.15549
 3.50   1553.6222  17.1086      23798.2    682.1025 -31.03     4.532     3.774   0.0068        357     149.3178
 3.50   1534.8031  13.6592     570575.2   1150.8794   0.14    32.439    13.932   0.0012        358     621.2756
 3.50   1562.1373  20.5684     983.1895    861.4928   5.36     1.262     1.158   0.0471        359     42.64611
 8.06   1565.3141  21.9731     269.6362    386.6744  64.22     0.775     0.483   0.2038        360     50.59287
 9.36   1549.8151  19.7944     2005.588   1336.8875 -37.82     1.557     0.872   0.0609        361     112.5321
 8.04   1534.7887  18.1502     9118.836    976.6499  47.53     5.444     4.575   0.0492        362     412.8987
 3.50   1292.4410  19.7962     2002.317    761.8278 -22.49     0.974     0.894   0.0186        363     34.33338
 5.85   1525.2084  21.8005     316.0849    378.9753  80.66     1.380     0.702   0.2043        364     59.46716
 4.15   1002.4464  20.2410     1329.235   1555.2872 -75.02     1.478     1.320   0.0493        365      60.3107
 7.87   1484.6893  22.1462     229.8795    741.6561 -43.46     0.572     0.336   0.1734        366     36.70392
 4.13   1515.3909  21.3677      470.908    483.6698 -45.91     1.145     1.021   0.1045        367       45.326
 3.53   1542.6790  19.1693     3566.725    135.1461 -57.07     1.585     1.524   0.0173        368     56.86147
 5.37   1499.3737  21.7691     325.3434    844.5955   4.40     1.100     0.812   0.1743        369      52.2306
 3.50   1333.8763  14.3814     293381.2    905.4968  40.36    18.717    14.448   0.0018        370     475.3476
 9.48    652.7346  19.2446     3327.923    762.0944 -63.47     1.746     0.969   0.0414        371      126.881
 7.72   1502.3036  22.4878     167.8347   1412.6636  43.35     0.565     0.339   0.2315        372     35.77456
 3.75   1002.5121  19.4519     2749.472    542.5883  33.88     1.653     1.478   0.0238        373      60.3107
 9.06   1485.1320  20.6591     904.4136    708.6357  27.78     1.456     0.441   0.0901        374     74.99645
 7.37   1483.0637  21.7876     319.8592   1404.5073  89.84     0.782     0.500   0.1625        375     47.85606
 9.35   1532.1033  20.8533     756.2822   1331.0404 -35.70     2.417     0.965   0.1074        376      74.8064
 8.83   1487.4854  21.7587     328.4838    899.5071 -44.60     0.506     0.494   0.1486        377     44.95294
 3.50    963.1656  13.7892     506188.3    703.1440   0.09    37.333    13.877   0.0015        378     691.1158
 3.50   1436.1300  19.1791     3534.812    224.7949 -34.44     1.604     1.459   0.0171        379     55.66426
 9.00   1471.6594  21.8223     309.7993   1411.3051  46.73     0.568     0.338   0.1409        380     40.20713
 7.57   1447.4856  22.2300      212.804    887.4802 -45.19     0.513     0.486   0.2052        381     40.20713
 9.34   1454.9799  20.4730      1073.48    662.5688 -16.47     1.153     0.706   0.0873        382     86.27374
 6.66   1399.2949  22.9339     111.2832     84.6467  42.18     0.568     0.337   0.2943        383     30.15535
 7.24   1497.3956  22.2955     200.3638    930.7852 -17.07     0.742     0.458   0.2333        384     43.03917
 3.50   1391.2734  20.2685     1296.023    713.2599 -12.89     1.082     1.036   0.0319        385     38.05544
 0.00   1369.9697  99.0000    -20509.55   1140.3528  23.34    12.816     6.032  99.0000        386     316.6977
 3.51   1440.6383  19.5800     2443.362    619.1754   4.23     1.451     1.347   0.0226        387     50.92463
 5.55    981.7678  20.6220     935.8562    797.6724 -35.62     1.377     1.273   0.0875        388      75.4442
 3.50   1376.0826  14.7238     214041.4   1340.4283  89.83    20.923    13.372   0.0027        389      534.679
 3.50   1338.8129  17.4098     18033.33   1119.4067  69.05    11.342     4.767   0.0165        390      273.272
 5.85   1439.6113  22.0839     243.4608    646.9755  52.05     1.028     0.634   0.2135        391     47.85606
 7.30   1432.6862  20.9230     709.2709    341.5507  -7.52     1.510     1.030   0.1433        392     93.57701
 8.23   1389.9377  20.0672     1560.054    806.9468 -48.91     2.784     2.426   0.0696        393     99.99602
 3.50   1409.1057  19.5361     2544.332    308.4275  -7.78     1.522     1.467   0.0228        394      53.5047
 4.36   1400.4852  17.6816     14040.34    822.7569  -5.64    10.958     3.864   0.0225        395     291.1549
 9.45   1468.2737  20.0099     1644.526   1404.7246 -69.33     1.322     0.652   0.0594        396     89.90588
 7.57   1369.4689  22.2819     202.8851    149.4739  16.77     0.499     0.499   0.2107        397     39.36057
 0.00    888.6989  13.9622     431643.1    384.8170   4.89    25.039    14.206   0.0014        398     541.1517
 9.20   1333.9382  20.0308     1613.125     12.8231 -48.15     2.518     2.227   0.0732        399     108.7849
 3.50    953.1061  14.3091     313601.8   1333.3123 -34.03    17.831    14.367   0.0016        400     474.0017
 3.50   1394.2666  15.7785     81018.77    114.4724 -47.27     2.050     1.946   0.0010        401     72.25175
 4.26    979.2180  21.7916     318.6882    452.8211  82.90     1.065     0.855   0.1398        402     41.03624
 9.33   1398.8148  19.5999     2398.948    592.9052 -12.65     1.660     0.805   0.0502        403     110.8738
 6.02   1388.9945  22.5067     164.9418   1584.9908 -89.90     0.625     0.602   0.2563        404     38.93039
 8.92   1381.4778  20.7549     827.9863   1465.7286  68.24     1.172     0.537   0.0954        405     72.71639
 0.00   1311.7633  17.4395     17547.55   1083.2775  21.31    13.331     4.772   0.0171        406     277.0904
 9.18   1339.4218  20.2833     1278.437     26.8916  75.23     2.163     1.997   0.0820        407     96.48602
 7.61   1353.2745  20.7551      827.852    152.0115  17.63     1.232     1.095   0.1204        408     91.75981
 3.62   1333.6460  20.8198     779.9805    107.4609 -30.00     1.312     1.082   0.0621        409     44.57676
 9.49   1303.9924  19.4209      2829.02   1393.5569  -4.08     1.961     0.837   0.0478        410     124.6043
 3.50   1263.0856  13.9082     453638.2    829.2162 -58.42    21.734    14.247   0.0012        411     508.7634
 8.04    972.4922  22.4467     174.3096   1499.4548 -53.72     0.502     0.496   0.2607        412     41.84891
 3.51    987.4823  20.4849     1061.781    453.9948 -86.61     1.621     1.406   0.0550        413     53.81852
 3.50   1108.2145  18.4846      6701.35    427.9351 -44.26     1.629     1.554   0.0094        414      57.7431
 8.63   1283.1097  20.7959     797.3511    113.6242  27.41     1.465     0.438   0.0955        415     70.12275
 0.00   1083.0526  99.0000    -937965.9    765.7274  44.98    24.620     4.416  99.0000        416     375.3414
 8.93    651.0060  20.0309     1613.024    750.0740  81.68     1.735     0.623   0.0642        417     95.35959
 7.66    960.0193  21.2215     538.7757    892.4959   1.69     1.096     0.798   0.1475        418     73.17809
 3.50    772.1874  14.0170     410395.3   1327.1403  33.52    19.731    13.706   0.0012        419     446.5367
 9.47   1537.5121  21.3647     472.1956   1344.5120  76.73     1.562     0.826   0.1364        420     59.31261
 7.57   1167.6774  21.9801     267.8967   1599.3638  46.37     0.885     0.518   0.1664        421     41.03624
 7.32   1169.5348  22.9512     109.5303    385.4903  41.87     0.504     0.494   0.3817        422      38.4954
 3.50   1154.4567  20.7989     795.1264   1353.0251 -81.36     1.376     1.236   0.0654        423     47.85606
 3.50   1011.6140  14.6661     225704.8    242.5962 -45.65    20.766    11.716   0.0021        424     441.7854
 3.50   1091.4695  21.2721     514.2208    468.4520 -71.85     1.782     0.937   0.0996        425     47.14705
 9.41    637.7620  18.7318     5336.911    912.0629  76.65     2.170     1.332   0.0335        426     164.5548
 9.40    956.0786  20.1636     1427.495   1463.8234  72.75     1.430     0.589   0.0672        427     88.39475
 7.34   1131.8109  20.9463     694.1838    358.9647  29.21     1.197     1.030   0.1313        428     83.89878
 3.94   1235.1169  19.3666     2974.213    304.8742 -62.91     1.610     1.518   0.0233        429      63.8374
 9.09   1461.2129  19.8992     1821.003    729.2758 -35.84     1.381     0.720   0.0556        430     93.21641
 6.38   1178.4945  22.5887     152.9407   1597.7561  72.38     1.154     0.262   0.2540        431     35.77456
 9.31   1085.1967  17.6218     14835.15   1330.1581 -33.19     6.518     2.287   0.0270        432     369.5085
 3.50    937.5668  12.0328      2552046   1277.4124 -29.44    49.225    17.050   0.0002        433     551.0321
 9.25    946.1678  18.6623     5689.808   1457.0416 -61.40     3.562     1.282   0.0387        434     202.7871
 9.07   1076.8246  18.1225     9354.316   1329.2543   8.77     5.609     1.407   0.0303        435     261.4108
 6.72   1085.8264  21.8541      300.848   1452.5999  76.24     0.931     0.622   0.1885        436      52.2306
 6.47   1291.7079  21.8833     292.8859    546.5757 -45.27     1.218     0.690   0.1340        437      36.1299
 3.50    948.7310  22.0361     254.4339    445.2476 -63.91     0.926     0.851   0.1357        438     31.78653
 8.54   1340.3853  18.6810     5592.589      7.8460  38.26     4.679     3.222   0.0389        439     200.2073
 3.50   1031.3615  22.3481      190.879    302.8225  74.09     0.904     0.678   0.1684        440     29.59165
 3.50   1041.0522  16.9579     27343.57    632.9598 -36.99     1.278     1.215   0.0018        441     46.06306
 9.21   1081.9329  20.3925     1156.069   1323.0161 -19.60     2.738     1.396   0.0857        442     91.25524
 3.50   1072.7146  21.7033     345.6734   1219.0363 -76.40     1.023     0.924   0.1124        443     35.77456
 3.50   1033.0406  14.3359       305945    584.4959 -45.17    17.968    14.504   0.0017        444     468.9778
 5.62   1412.1394  20.9587     686.3007    350.1121  23.37     1.424     1.101   0.1147        445     72.48444
 3.50   1082.5852  18.3168     7821.169   1148.1748 -59.90     1.419     1.385   0.0071        446     51.25424
 4.61   1066.7268  21.4108     452.5502   1597.1134  48.73     1.170     1.013   0.1157        447     48.20666
 9.45    636.7541  18.0582     9924.558    870.2198  43.55     5.191     1.404   0.0287        448     262.5678
 4.58   1096.1309  20.5523     997.9068   1526.4139 -79.62     1.383     1.253   0.0671        449     61.69099
 7.10    655.4304  19.9361     1760.214    870.9616  15.19     1.485     1.226   0.0612        450     99.16854
 4.55   1202.6334  19.9569     1726.832    339.0734 -83.90     1.520     1.399   0.0432        451     68.66676
 9.23    946.6023  21.9399     278.0057   1473.0059  61.28     1.551     0.695   0.1735        452     44.41411
 6.11   1066.0018  20.0480     1587.883   1562.7301 -64.62     2.577     1.374   0.0810        453     118.3666
 5.12   1504.8602  20.5768     975.5787    723.3845 -23.65     1.272     1.148   0.0705        454     63.30762
 3.51   1571.3455  19.9966     1664.743     92.7359 -46.28     1.463     1.342   0.0332        455     50.92463
 3.50   1039.5012  18.4013     7235.911    525.3767 -47.36     1.488     1.422   0.0078        456      52.2306
 8.75   1223.2148  21.1104     596.8143   1325.7870 -45.34     0.764     0.557   0.1051        457      57.7431
 8.67   1214.8281  20.3929     1155.657    193.9691 -29.74     1.713     0.527   0.0800        458     85.09454
 9.57   1466.1084  19.1227     3723.384    732.9359  37.92     1.736     1.145   0.0406        459     139.1606
 5.36   1320.0234  20.8635     749.2158    264.0423 -45.50     1.309     1.037   0.0933        460     64.36282
 3.50   1014.1033  17.1132     23698.57    376.6012 -48.55    11.381     8.909   0.0166        461     362.4687
 9.16    944.3784  20.6886      880.166   1466.2745 -55.53     1.271     1.149   0.0998        462     80.90128
 9.17    939.9785  20.2002     1380.192   1481.1689  46.20     2.038     0.499   0.0749        463     95.18284
 6.62    938.9758  20.6127     943.9233    515.9395  66.85     1.781     1.068   0.1081        464     93.93623
 9.36    938.7798  20.3508     1201.355   1472.5092  50.46     1.102     0.667   0.0747        465     82.68572
 3.50    959.7786  17.9441     11024.31     88.1875 -72.37    13.793     7.331   0.0356        466     361.8177
 8.89    930.5770  20.5012         1046   1471.3201 -56.81     1.074     0.771   0.0867        467     83.49638
 6.07    929.3521  22.9670     107.9414   1498.6949  47.15     0.573     0.335   0.2800        468     27.83213
 3.50    985.6996  16.9026     28772.18    558.4406 -57.78     1.796     1.710   0.0024        469     63.04106
 0.00    918.0497  99.0000    -247548.2     29.6284  -3.10    15.365     3.807  99.0000        470     250.7579
 3.50   1465.2289  14.3079     313931.9   1269.4102 -33.34    17.918    14.324   0.0017        471     479.0974
 7.58    982.7303  21.8089     313.6519   1487.4005 -32.83     0.953     0.547   0.1917        472     55.36091
 9.05    633.5892  20.0032     1654.721    928.2348  57.00     1.851     0.564   0.0620        473      94.4725
 0.00    883.3680  99.0000    -35672.91    170.2144 -48.77    18.634     7.004  99.0000        474     411.2232
