#   1 NUMBER                 Running object number                                     
#   2 EXT_NUMBER             FITS extension number                                     
#   3 FLUX_BEST              Best of FLUX_AUTO and FLUX_ISOCOR                          [count]
#   4 FLUXERR_BEST           RMS error for BEST flux                                    [count]
#   5 MAG_BEST               Best of MAG_AUTO and MAG_ISOCOR                            [mag]
#   6 MAGERR_BEST            RMS error for MAG_BEST                                     [mag]
#   7 X_IMAGE                Object position along x                                    [pixel]
#   8 Y_IMAGE                Object position along y                                    [pixel]
#   9 A_IMAGE                Profile RMS along major axis                               [pixel]
#  10 B_IMAGE                Profile RMS along minor axis                               [pixel]
#  11 THETA_IMAGE            Position angle (CCW/x)                                     [deg]
         1   1     11614.35     72.71211  17.8923   0.0068    657.0477     30.1164     1.724     1.669  73.64
         2   1      9149.43     158.3234  18.1513   0.0188    661.1644     14.7657     3.278     2.949 -73.80
         3   1      88125.7     82.44778  15.6920   0.0010    837.4538     20.6302     1.968     1.874 -18.43
         4   1     1840.284     77.12284  19.8926   0.0455   1653.3259     12.4910     1.509     1.350  10.54
         5   1      953.089     88.52211  20.6069   0.1009   1721.7688     10.4390     1.464     1.410  61.26
         6   1     470.7905     65.90095  21.3727   0.1520   1801.2411      6.1348     1.098     0.917   6.15
         7   1     290.4613     53.66148  21.8971   0.2006    478.2751      3.4211     0.955     0.547  57.56
         8   1      449.536      43.4538  21.4229   0.1050   1942.3970      2.5429     1.063     0.900  36.00
         9   1     270.1156      52.3253  21.9759   0.2104   1695.1222      3.2975     0.858     0.605 -27.07
        10   1     259.5739     50.48875  22.0191   0.2112    567.0191      3.5096     0.776     0.499  -3.13
        11   1     488.2999     84.70705  21.3331   0.1884   1171.0249     22.1657     1.287     0.869  18.75
        12   1     377.7833     42.90718  21.6117   0.1233    780.9230     26.7447     1.187     0.857  29.09
        13   1     427.9142     47.60125  21.4764   0.1208    596.0016     36.8438     1.318     0.958 -40.07
        14   1      881.395     51.41523  20.6919   0.0634    404.6731     39.2936     1.265     1.121  20.12
        15   1     359.2115     63.71577  21.6664   0.1926   1584.7249     33.9998     1.468     0.557 -13.29
        16   1     58541.63     81.58443  16.1361   0.0015   1269.9762     85.8547     1.911     1.891 -32.46
        17   1     129.3541      52.3253  22.7753   0.4393    845.2280     51.6162     0.768     0.447 -17.91
        18   1     172.6917     29.14969  22.4616   0.1833   1402.5680     58.2227     0.750     0.448 -69.38
        19   1     385.7476     61.45295  21.5890   0.1730    649.4369     60.9814     1.024     0.777   5.00
        20   1     907.4559     52.77445  20.6602   0.0632     71.5008     74.4120     1.279     1.234  58.09
        21   1     315.4662     58.29939  21.8074   0.2007     64.1719     70.1390     0.831     0.660 -45.43
        22   1     582.3693     59.50156  21.1418   0.1110   1290.6321     77.2234     1.244     1.003 -78.63
        23   1     512.8978     69.72947  21.2797   0.1476   1001.5175     76.9517     1.291     0.939  64.15
        24   1     239.2755     48.09454  22.1075   0.2183    652.4154     71.8037     0.763     0.448 -70.53
        25   1     895.5339     60.67992  20.6746   0.0736    133.9682     82.6870     1.507     1.137  31.72
        26   1     532.7295     54.53408  21.2385   0.1112   1473.5616     79.9842     1.548     1.032  31.92
        27   1     3080.418     117.4057  19.3333   0.0414    772.3903     96.4296     2.120     1.936 -80.16
        28   1     2191.624      76.5083  19.7029   0.0379    251.7277     94.5454     1.899     1.702 -26.42
        29   1     667.8483     72.38677  20.9931   0.1177    948.5580     92.5731     1.430     1.148  51.62
        30   1     2125.722     61.06766  19.7360   0.0312    271.4473     96.4131     1.493     1.361  33.63
        31   1     218.4159     53.21981  22.2066   0.2646   2037.4921     87.4975     0.502     0.498 -45.40
        32   1      2367.08     69.72947  19.6192   0.0320   1127.0879    108.9810     1.441     1.405   6.96
        33   1     1568.241     83.86695  20.0662   0.0581    242.1315    116.6449     2.145     1.787  69.61
        34   1     594.7469     60.67992  21.1189   0.1108   1288.2830    105.4231     1.213     0.972 -11.92
        35   1     162.2878     42.35352  22.5291   0.2834    657.9792    103.0334     0.615     0.610  84.03
        36   1     367.5714     64.81757  21.6414   0.1915    570.9848    102.9928     0.804     0.762  49.96
        37   1     383.1583     66.25813  21.5963   0.1878   1649.9435    108.8997     1.146     0.730  81.22
        38   1     759.6328     75.57713  20.8533   0.1080    311.4669    110.5352     1.650     1.055   3.46
        39   1     105.4048     23.80062  22.9976   0.2452    441.3784    105.2929     0.577     0.331 -41.39
        40   1     372.0851      66.9668  21.6282   0.1955    972.8634    109.1258     0.824     0.668  45.65
        41   1     432.2726     62.59459  21.4654   0.1573    838.3733    119.3548     1.267     0.899 -79.67
        42   1     838.9603     83.86695  20.7454   0.1086   2000.0966    120.3068     1.831     1.086  -2.21
        43   1     733.8123     78.33745  20.8908   0.1159   1180.5775    124.2795     1.506     1.117  39.60
        44   1     1959.259      60.2897  19.8246   0.0334   1288.7102    130.7124     1.481     1.379  20.00
        45   1     213.4421     47.10279  22.2316   0.2397   1215.8219    119.4008     0.732     0.455 -18.46
        46   1      55481.7     92.69012  16.1944   0.0018   1976.2317    158.3168     2.401     1.944   9.85
        47   1     531.7189     81.58443  21.2406   0.1666   1916.5909    129.5671     1.153     0.668 -49.59
        48   1     179.8805     53.66148  22.4173   0.3240     63.7818    127.8242     0.758     0.564  49.04
        49   1     50911.91     81.00375  16.2877   0.0017   1461.8472    165.6276     1.929     1.892 -22.42
        50   1     1490.615     68.36209  20.1214   0.0498   1304.9430    139.7430     1.343     1.290 -29.87
        51   1     756.9406     94.70535  20.8571   0.1359   1966.9725    137.6151     1.321     1.288 -54.24
        52   1     188.4401     37.63209  22.3668   0.2169     20.3309    134.1930     1.106     0.411 -77.12
        53   1     464.3478     78.33745  21.3877   0.1832    986.2656    146.3166     1.187     0.719 -82.02
        54   1     618.2355     87.17876  21.0769   0.1531   1535.4261    141.8608     1.258     0.713  18.99
        55   1     627.4093     83.58504  21.0609   0.1447    360.2078    150.0241     1.370     1.172 -89.79
        56   1     586.5728     80.71185  21.1340   0.1494     67.5159    151.2527     1.396     0.915  35.17
        57   1      1553.25     73.35845  20.0767   0.0513    580.5296    154.2880     1.459     1.214   0.53
        58   1     211.8652     49.54495  22.2396   0.2540   1893.7662    149.7461     0.846     0.350  72.00
        59   1     164.7325     43.99361  22.5128   0.2900   1522.4130    150.7870     0.772     0.445 -70.51
        60   1     356.4833     62.21637  21.6747   0.1895     17.5781    152.7524     0.752     0.451  70.54
        61   1     1820.816      108.417  19.9041   0.0647   1337.5020    172.4573     3.121     1.353  30.61
        62   1     478.2567     73.35845  21.3556   0.1666    661.2181    160.9331     1.295     0.938   8.43
        63   1     140.7004     36.35606  22.6840   0.2806   1246.4838    157.5224     0.522     0.476  44.85
        64   1     649.8591     77.12284  21.0227   0.1289    659.8331    169.0938     1.132     1.036 -69.07
        65   1     545.7574     70.06714  21.2123   0.1394    958.2466    169.9537     1.165     0.952 -25.39
        66   1     454.0267     68.70648  21.4121   0.1643    715.0145    173.3420     1.580     0.956 -73.92
        67   1     738.4915     56.23868  20.8839   0.0827    431.3717    173.1398     1.338     1.270  57.67
        68   1     2613.468     74.63435  19.5117   0.0310   1134.8331    183.0281     1.584     1.535 -81.50
        69   1     545.2834     51.87226  21.2132   0.1033    260.0934    176.3581     1.318     1.135 -89.79
        70   1     2177.524     89.84539  19.7099   0.0448   1444.7770    185.9651     1.870     1.499 -80.31
        71   1       228501     87.44908  14.6576   0.0004   1391.9797    225.8214     2.076     2.018 -31.00
        72   1     342.9865     68.01595  21.7166   0.2154   1544.3652    178.4478     0.992     0.633  84.63
        73   1     995.6309     82.73357  20.5595   0.0902   1046.6633    186.6141     1.310     1.246 -46.16
        74   1     501.8872      60.2897  21.3033   0.1305     55.9127    184.2463     1.283     1.081 -16.26
        75   1     276.3827     56.23868  21.9510   0.2210   1694.4958    180.2119     0.981     0.723   0.98
        76   1     271.5088     53.66148  21.9703   0.2146    794.7919    180.2352     0.867     0.345 -18.02
        77   1     162.4462     38.86626  22.5280   0.2598    773.5096    189.5328     0.513     0.486 -43.97
        78   1      593.088     89.31843  21.1220   0.1636   1160.1317    197.7422     1.550     0.646 -47.53
        79   1     749.0242     90.63008  20.8685   0.1314   1409.7397    203.5404     1.412     1.227 -85.04
        80   1     1989.107     144.9365  19.8081   0.0791   1651.0963    226.7756     3.330     1.323 -57.42
        81   1     2129.923     61.83583  19.7339   0.0315   1742.2407    213.3405     1.417     1.367 -62.89
        82   1     606.4199      85.2625  21.0978   0.1527   1978.4481    205.9597     1.165     0.922 -85.80
        83   1     524.5907     54.53408  21.2552   0.1129    280.5000    206.2904     1.303     1.142 -20.73
        84   1     218.3608     53.21981  22.2068   0.2647   1333.4835    199.4880     0.501     0.498  46.14
        85   1     153.4121     29.14969  22.5901   0.2063   1355.4971    203.1218     0.717     0.500 -88.97
        86   1     368.0233     65.90095  21.6401   0.1945    944.3311    202.8714     0.773     0.657  29.64
        87   1     514.4814     73.35845  21.2764   0.1548   1764.7341    206.5332     1.147     0.975 -30.08
        88   1     272.7856     54.96519  21.9652   0.2188   2043.0558    204.0677     0.923     0.530  45.76
        89   1     499.6415     64.45239  21.3081   0.1401    162.1348    210.1978     1.176     0.803 -68.72
        90   1     31868.02     77.42828  16.7964   0.0026   1916.0420    238.9135     1.829     1.783  54.74
        91   1     391.0715     77.42828  21.5741   0.2150    451.0806    220.1382     1.505     0.634 -81.82
        92   1      467.963     70.73766  21.3793   0.1642    970.7880    222.4314     1.005     0.806 -59.15
        93   1     628.6964     69.39015  21.0587   0.1199    697.9222    234.9033     1.420     0.989 -75.19
        94   1     185.5125     48.58282  22.3838   0.2844   1615.3931    225.7760     0.754     0.454 -72.57
        95   1     555.7388     74.94993  21.1926   0.1465    961.8195    226.0213     0.935     0.763   7.19
        96   1     171.3867     45.05386  22.4698   0.2855    676.6063    226.7995     0.766     0.445  71.03
        97   1      858.125     83.30219  20.7209   0.1054   1333.7733    236.5676     1.270     1.197 -30.66
        98   1     267.5698     47.10279  21.9862   0.1912    472.3334    231.4575     1.051     0.640  85.61
        99   1     83122.86     84.42794  15.7555   0.0011   1791.5062    272.8190     1.998     1.950  12.69
       100   1     884.9061     86.36271  20.6875   0.1060   1786.9636    238.4249     1.618     1.137  22.56
       101   1     1115.893     126.3153  20.4357   0.1229   1185.5620    238.6721     1.873     1.089  -3.63
       102   1     472.0753     69.39015  21.3698   0.1596    724.0305    238.9028     1.110     0.931   5.14
       103   1     577.9773     80.12484  21.1500   0.1506   1318.6328    243.8862     0.964     0.673 -19.82
       104   1     148.8391     24.77248  22.6230   0.1808     67.2316    234.9470     0.663     0.421  87.31
       105   1     699.2047     86.90759  20.9433   0.1350     66.0397    248.1083     2.154     1.118  29.50
       106   1     511.1317     80.12484  21.2834   0.1702   1173.2386    243.7088     1.006     0.875 -68.59
       107   1     304.0388     53.66148  21.8475   0.1917   1517.1223    246.8216     0.816     0.680  43.61
       108   1     197.4423     44.52689  22.3162   0.2449   1597.3138    244.3388     0.571     0.337 -46.17
       109   1     113.0145     31.48527  22.9219   0.3026      4.3211    244.6735     0.569     0.338  45.26
       110   1     959.8967     105.7723  20.5992   0.1197    241.5711    255.3616     1.360     1.102 -89.87
       111   1     1526.526     77.12284  20.0955   0.0549   1766.4785    261.0949     1.375     1.281  79.82
       112   1     238.8284     46.08971  22.1096   0.2096    852.0000    251.0366     0.849     0.289  90.00
       113   1     314.4896     65.90095  21.8108   0.2276    947.3411    253.8339     0.739     0.641  20.92
       114   1     249.4375     54.53408  22.0624   0.2374    506.9341    254.1414     0.857     0.666  41.18
       115   1     393.2681     78.63817  21.5681   0.2172   1742.8967    259.5561     1.197     0.721 -80.43
       116   1     244.6506     50.95409  22.0834   0.2262    459.0115    273.9989     0.877     0.539 -46.04
       117   1     7434.942     70.06714  18.3766   0.0102   1943.3281    293.8185     1.687     1.577  23.91
       118   1     756.2297     56.65682  20.8581   0.0814    709.2502    290.8177     1.405     1.243 -45.90
       119   1     5092.832     68.36209  18.7874   0.0146   1460.3346    298.8077     1.606     1.559 -80.84
       120   1       1433.4     60.67992  20.1639   0.0460   1756.3074    298.8064     1.458     1.391 -13.53
       121   1     799.2576     86.63558  20.7981   0.1177   1995.5612    294.7017     1.478     1.374 -16.66
       122   1     210.0007     45.57473  22.2492   0.2357   1505.1132    286.8722     0.833     0.653  49.53
       123   1     1686.099     65.54181  19.9876   0.0422   1625.9421    300.8787     1.507     1.357   6.11
       124   1     61088.95     81.58443  16.0899   0.0015    288.5573    331.0763     1.949     1.904  26.13
       125   1     872.3916     89.05378  20.7030   0.1109   1962.8390    313.1156     2.152     0.923  89.33
       126   1     1112.215     83.58504  20.4393   0.0816   1282.1536    318.4441     1.484     1.235 -58.44
       127   1     521.8929     75.57713  21.2608   0.1573   1911.7090    316.7584     1.168     1.106 -87.82
       128   1     291.5514     56.23868  21.8930   0.2095    528.1438    315.9109     0.942     0.719 -77.66
       129   1     356.6844     58.29939  21.6741   0.1775   1145.5018    313.0070     0.798     0.313 -57.91
       130   1     1740.411     126.8747  19.9532   0.0792   1109.8745    341.3083     1.953     1.493 -80.64
       131   1     457.5658     66.61341  21.4036   0.1581   1205.6371    329.5369     1.181     0.768 -53.21
       132   1     3408.457     128.9048  19.2234   0.0411    165.0791    349.5454     2.390     1.893 -29.32
       133   1     297.2987     47.60125  21.8718   0.1739   1312.0833    341.1891     1.135     0.729  80.55
       134   1      932.915     90.63008  20.6302   0.1055   1995.2061    348.7218     1.366     1.291 -11.00
       135   1     845.7898      99.0899  20.7366   0.1272   1440.8413    345.6767     1.360     1.180 -23.12
       136   1     262.7476     54.53408  22.0059   0.2254   1267.7454    341.1177     1.105     0.521 -36.23
       137   1     223.4772     49.06625  22.1817   0.2384    719.7139    343.0191     1.013     0.298 -39.29
       138   1     262.3458     44.52689  22.0076   0.1843    246.9862    340.6752     0.916     0.210 -28.01
       139   1     43373.35     78.93774  16.4617   0.0020    500.7349    376.8674     1.881     1.828   2.82
       140   1     2285.988     68.01595  19.6571   0.0323   1438.6000    360.7376     1.570     1.483  31.16
       141   1     3130.307     110.7859  19.3158   0.0384   1583.4813    369.3422     3.161     1.535  29.53
       142   1     265.7419     53.66148  21.9936   0.2193    592.6671    354.5836     1.064     0.711  26.93
       143   1     439.9862     68.36209  21.4462   0.1687   1705.4504    355.7302     1.031     0.986 -24.63
       144   1     1692.324     130.9034  19.9836   0.0840   1942.5688    367.5784     2.363     1.439 -27.20
       145   1      603.549     68.36209  21.1030   0.1230    919.4589    359.7424     1.336     1.091 -20.04
       146   1     14369.31     197.2247  17.6612   0.0149   1606.8030    424.1392     5.085     2.774  89.18
       147   1     4849.471      70.4032  18.8405   0.0158   1989.5961    372.3214     1.705     1.599  26.74
       148   1     327.6301     42.35352  21.7663   0.1404   1031.4125    360.3186     1.028     0.799  26.79
       149   1     259.5742     49.54495  22.0191   0.2073     89.5146    357.4748     0.503     0.497 -42.96
       150   1     1736.623     106.4396  19.9555   0.0666   1928.3552    373.1256     1.814     1.633  25.72
       151   1      549.061     67.66804  21.2057   0.1338   1721.2968    365.7494     1.186     0.936  45.13
       152   1     328.5846     64.08514  21.7632   0.2118    529.9297    364.6712     1.040     0.749  75.44
       153   1     212.7144     51.87226  22.2353   0.2648    691.5233    359.5166     0.507     0.492  45.48
       154   1     538.7694     80.12484  21.2263   0.1615    521.9629    369.0598     0.979     0.695 -14.24
       155   1     619.1504     65.54181  21.0753   0.1150   1303.9401    375.3856     1.196     1.004  30.35
       156   1     10069.77     131.9809  18.0472   0.0142   1470.3716    405.4355     3.156     2.824  58.82
       157   1     1523.539     95.94338  20.0976   0.0684   1866.7634    390.2851     2.486     1.550  41.25
       158   1     221.7695     53.66148  22.1900   0.2628    699.2410    373.2453     0.865     0.353  72.18
       159   1     136.6802     38.86626  22.7155   0.3088    789.5173    370.4958     0.514     0.486  45.29
       160   1     223.5945     51.41523  22.1811   0.2497   1899.3389    379.8829     0.943     0.676  23.98
       161   1     132.3081     35.70094  22.7508   0.2930    643.6630    378.6522     0.585     0.329 -45.41
       162   1     262.4111     57.48397  22.0073   0.2379   1935.1663    384.1840     0.770     0.566  42.44
       163   1      324.735     63.71577  21.7760   0.2131    873.4873    388.1184     0.873     0.662  41.71
       164   1     272.8423     61.45295  21.9650   0.2446   1670.0043    392.7554     0.698     0.430   0.20
       165   1     307.0452      60.2897  21.8368   0.2132   1330.2388    399.4329     0.742     0.454  19.79
       166   1     338.8032      66.9668  21.7299   0.2147   1432.3708    408.1239     0.921     0.688 -20.83
       167   1     186.7838     43.99361  22.3764   0.2558   1727.4209    409.2238     0.755     0.449  70.19
       168   1     439.3058     61.83583  21.4479   0.1529    705.1246    412.3467     1.267     0.780 -11.00
       169   1     4765.559     105.5489  18.8595   0.0241   1856.6848    435.7943     2.169     2.092 -24.67
       170   1     5389.082     69.04916  18.7260   0.0139   1700.6196    429.3987     1.621     1.611  63.78
       171   1     460.1073     55.39294  21.3976   0.1307   1422.8912    418.3457     1.114     0.846  82.67
       172   1     391.7443     59.10355  21.5723   0.1638   1623.0413    418.9967     0.990     0.834 -66.21
       173   1     648.1328      85.2625  21.0256   0.1429     62.5122    420.2853     1.329     1.052   4.40
       174   1     346.2775     71.07054  21.7062   0.2229    854.8422    418.8747     1.118     0.595  68.12
       175   1     833.4852     79.23618  20.7525   0.1032   1011.1845    428.5244     1.693     1.122  54.05
       176   1     311.5858     56.23868  21.8208   0.1960    701.4626    424.4333     1.361     0.719  50.99
       177   1     2759.579     64.08514  19.4527   0.0252   1557.9625    433.1103     1.500     1.469  -1.75
       178   1     2758.359     62.97054  19.4532   0.0248    937.3679    436.2614     1.513     1.441  18.86
       179   1      145.657     36.35606  22.6465   0.2711   1941.9811    422.4938     0.752     0.328 -33.90
       180   1     169.2919     42.90718  22.4832   0.2752    222.6564    423.3264     0.579     0.332  44.28
       181   1     591.0027       73.036  21.1258   0.1342    560.9773    432.0177     1.199     0.895  45.34
       182   1     29756.37     78.33745  16.8708   0.0029    463.2641    454.1831     1.845     1.812 -15.01
       183   1     333.7914      60.2897  21.7461   0.1962   1762.6920    431.4838     1.098     0.642  53.05
       184   1     27319.41     78.03557  16.9636   0.0031   1477.9938    467.4877     1.871     1.788  26.43
       185   1     205.5438     30.72647  22.2725   0.1623    951.9218    440.1067     0.883     0.533 -44.77
       186   1     13790.69     81.32178  17.7058   0.0064   1465.0348    468.1483     1.849     1.735   8.11
       187   1     1622.618     85.81437  20.0292   0.0574   1742.4468    458.2050     2.217     1.789  40.28
       188   1      492.368     53.21981  21.3241   0.1174   1949.6693    447.2857     1.082     0.938 -10.69
       189   1     1288.049     57.89311  20.2799   0.0488   1830.6917    459.7993     1.373     1.294  12.52
       190   1     180.6167     41.79252  22.4129   0.2513    397.9411    459.9945     0.630     0.597  -0.47
       191   1      129.384     35.03357  22.7751   0.2941    782.6672    461.3093     0.566     0.339  43.83
       192   1     6570.759     169.6925  18.5107   0.0280    210.0894    495.6961     3.073     2.568 -45.46
       193   1     81.24768     16.82958  23.2803   0.2250    217.6788    465.3430     0.576     0.334  45.95
       194   1     5807.792     124.4327  18.6448   0.0233    443.7485    514.7799     4.196     2.027 -77.70
       195   1     284.4962     63.34425  21.9196   0.2418    652.2589    477.0916     1.258     0.696 -84.28
       196   1     242.8188     55.39294  22.0916   0.2477   1414.0051    472.7780     0.810     0.499 -58.24
       197   1     1805.634     62.21637  19.9132   0.0374    727.0894    483.9638     1.474     1.416  56.92
       198   1     756.7202     104.4248  20.8574   0.1499    357.0614    476.5950     1.739     0.898  14.36
       199   1     1036.518     80.12484  20.5158   0.0839   1305.7965    976.6807     2.143     1.672  35.10
       200   1     107.4384     30.72647  22.9769   0.3106   1874.3319   1488.3065     0.565     0.340 -43.71
       201   1     105.1348     29.14969  23.0004   0.3011   1552.6958   1488.3466     0.570     0.337  47.01
       202   1     13315.62     75.88879  17.7439   0.0062   1247.0494   1480.4878     1.786     1.771  72.29
       203   1     270215.5      89.5823  14.4755   0.0004    121.2621    857.6118     2.124     2.073 -27.89
       204   1     457.6873     58.70285  21.4034   0.1393   1741.4495    859.9935     0.786     0.497  89.18
       205   1     1378.981     83.86695  20.2059   0.0660     85.4805    856.6960     1.546     1.278  42.66
       206   1     2517.378     67.31833  19.5524   0.0290    637.3966    855.4093     1.666     1.391 -13.05
       207   1     2106.654     122.9059  19.7458   0.0634    527.7172    857.5827     2.560     1.403  58.27
       208   1     880.5485     102.1395  20.6929   0.1260   1544.1006    848.8823     1.512     1.404 -13.19
       209   1     352.2142     65.18069  21.6878   0.2010    523.0676    849.0048     0.942     0.871 -37.04
       210   1     1139.984     59.10355  20.4125   0.0563    227.4001    847.5123     1.363     1.272  72.37
       211   1     16418.08     80.71185  17.5165   0.0053    611.0890    840.9406     1.937     1.823  36.72
       212   1     482.6035     76.81618  21.3458   0.1729   1725.1685    844.4649     1.174     0.806  27.56
       213   1     18006.62     77.42828  17.4162   0.0047   1088.9332    836.5092     1.867     1.778 -27.95
       214   1      317.578     56.65682  21.8002   0.1937   1980.7881    841.4241     0.984     0.475   9.02
       215   1     537.1947     82.73357  21.2295   0.1673    553.1557    836.2301     1.700     0.724 -89.56
       216   1     78183.59     82.73357  15.8220   0.0011   1834.8438    830.1402     1.977     1.947  16.42
       217   1     105193.7     87.17876  15.4998   0.0009   1612.9946    824.9916     2.036     2.025  84.55
       218   1      3440.69     64.08514  19.2132   0.0202   1535.7393    832.1414     1.604     1.446   2.62
       219   1     1190.632     131.8019  20.3653   0.1202    619.7073    828.8594     1.878     1.129  87.70
       220   1     463.0966     82.73357  21.3906   0.1940   1684.2382    831.1649     1.093     0.678  18.33
       221   1     203.7382      43.4538  22.2821   0.2316      3.6771    829.3472     0.579     0.332  46.03
       222   1     124.3562     24.77248  22.8181   0.2163    774.7745    827.0352     0.678     0.418  88.40
       223   1     369.5483     71.07054  21.6356   0.2089    972.9039    832.1427     0.843     0.660  47.09
       224   1     328.5665     62.97054  21.7632   0.2081    592.6786    825.0306     0.737     0.670 -76.91
       225   1     312.1493     65.90095  21.8189   0.2293   1718.1299    822.7625     1.220     0.577  88.71
       226   1     1646.994     139.2896  20.0131   0.0918   1277.7004    814.1165     2.026     1.453 -42.18
       227   1     109.6315     23.80062  22.9549   0.2358   1021.3134    807.3359     0.570     0.337 -46.08
       228   1     798.7351     75.26418  20.7988   0.1023    319.7578    805.4943     1.321     1.285  84.57
       229   1     816.7988     105.1007  20.7745   0.1397    868.5899    803.2313     1.600     1.027 -84.11
       230   1     274.4878     62.59459  21.9585   0.2477   1667.2573    804.0374     0.977     0.604  26.34
       231   1     676.5571     97.65026  20.9790   0.1567   1407.1467    802.7488     1.455     1.025  -9.78
       232   1     366.6992     59.89692  21.6440   0.1774    341.9875    800.4988     1.576     0.646  74.47
       233   1     399511.9     92.17942  14.0510   0.0003    430.0692    780.7782     2.200     2.124 -24.31
       234   1     261.3536     54.53408  22.0117   0.2266     47.1915    798.5186     0.948     0.721  84.63
       235   1     816.7388     94.20559  20.7746   0.1253    563.9799    795.9099     1.247     1.223  73.94
       236   1     164153.2     87.17876  15.0167   0.0006   1585.0125    782.3035     2.044     2.007 -29.55
       237   1     686.5602     92.94441  20.9631   0.1470   1608.8694    782.6259     1.277     0.896 -46.50
       238   1     584.6089      66.9668  21.1376   0.1244    347.5333    781.7327     1.239     1.025  89.53
       239   1     266.2848     57.48397  21.9914   0.2344    577.9418    782.5356     0.788     0.499  -0.12
       240   1     5339.188      166.746  18.7361   0.0339    595.3005    774.7914     3.487     2.260  40.73
       241   1     376.8068     64.45239  21.6145   0.1858    756.2791    776.9598     1.025     0.832  64.38
       242   1     5979.258     70.06714  18.6132   0.0127   1619.0391    771.4084     1.662     1.596  67.37
       243   1     678.8142     54.53408  20.9754   0.0872    382.0158    772.5896     1.237     1.197 -85.87
       244   1     3993.139     74.42059  19.0515   0.0202    166.9351    771.2142     1.879     1.656 -73.58
       245   1     3500.728     64.93493  19.1944   0.0201    169.6867    762.0839     1.762     1.623  55.84
       246   1     1006.295     44.32336  20.5480   0.0478    167.1938    757.1794     1.301     1.088 -23.98
       247   1     426.2225       73.036  21.4807   0.1861   1750.2328    766.2906     1.420     0.923  31.06
       248   1     10091.14       73.036  18.0449   0.0079   1593.8470    760.7899     1.718     1.715 -59.34
       249   1     330.3739     64.08514  21.7573   0.2107   1930.2080    762.7665     0.946     0.460 -45.60
       250   1     240.1167     36.99957  22.1037   0.1673    474.8808    759.7953     1.113     0.652 -20.20
       251   1     1085.094     100.5089  20.4661   0.1006    180.2345    756.9724     1.522     1.246 -19.94
       252   1     783.3783     78.33745  20.8199   0.1086   1212.8365    752.4793     1.403     1.299  87.07
       253   1     699.1259     77.12284  20.9434   0.1198   1107.2268    752.6030     1.262     1.182 -23.69
       254   1      1334.09     89.84539  20.2418   0.0731    345.4479    752.4622     1.826     1.307  12.96
       255   1      168.743     29.94846  22.4867   0.1927    230.2787    751.6101     0.939     0.543 -57.19
       256   1     3065.707     65.54181  19.3385   0.0232    334.3738    747.9770     1.615     1.448 -18.42
       257   1     13753.18      76.5083  17.7088   0.0060   1893.4276    743.9561     1.789     1.724  79.67
       258   1      477.968     48.09454  21.3563   0.1093    273.6540    745.5428     1.168     0.939  62.85
       259   1     8179.541      70.4032  18.2730   0.0093    769.5753    738.8239     1.709     1.609   4.74
       260   1     136.5742     25.70761  22.7164   0.2044   1354.7622    737.7332     0.842     0.352  71.70
       261   1     51032.56     547.1125  16.2852   0.0116   1616.1727    710.9867    10.186     8.212  33.81
       262   1     328.6691     59.10355  21.7629   0.1953    469.3814    723.8606     1.136     0.666  38.39
       263   1      1102.66     102.1395  20.4487   0.1006   2019.6849    717.3448     1.427     1.236  20.21
       264   1     175.4578     24.77248  22.4443   0.1533   1153.3344    719.4205     0.671     0.472  17.50
       265   1     8683.393      70.4032  18.2081   0.0088    895.0796    713.1541     1.690     1.623 -14.95
       266   1     290.6364      52.3253  21.8964   0.1955    409.7729    715.6962     0.948     0.772 -41.96
       267   1     3592.112     90.36927  19.1664   0.0273   1653.2609    731.7333     1.772     1.526  88.20
       268   1     255.8871     54.53408  22.0347   0.2314    457.8059    714.6000     0.743     0.451  19.02
       269   1     344.8013     46.59901  21.7109   0.1468    853.5102    710.2457     0.948     0.718  -0.11
       270   1     451.2131     72.71211  21.4188   0.1750      8.7509    705.1041     1.175     0.563 -66.97
       271   1     215.3702     54.09954  22.2218   0.2728   1044.3846    705.5820     1.088     0.315  21.37
       272   1     371.3997     65.90095  21.6302   0.1927    155.1600    701.6838     0.905     0.792 -29.20
       273   1     1610.206     59.89692  20.0376   0.0404    831.3130    698.9149     1.505     1.368  -7.38
       274   1      604.799     65.18069  21.1008   0.1170   1448.5201    698.0894     1.094     0.991  55.42
       275   1     1390.217      66.9668  20.1971   0.0523   1263.9969    696.2515     1.335     1.314 -31.55
       276   1     621.0018     97.16564  21.0720   0.1699   1491.3716    733.5869     1.364     0.948  -1.82
       277   1      142.712     29.14969  22.6686   0.2218    415.8042    732.6180     0.736     0.453  17.70
       278   1     363.8477     71.40187  21.6525   0.2131    750.6205    694.8663     0.767     0.661 -34.12
       279   1     1738.679     62.97054  19.9542   0.0393   1328.0120    690.7485     1.420     1.368  49.47
       280   1      921.782      89.5823  20.6432   0.1055    119.4679    690.6841     1.774     1.029 -23.58
       281   1     262.5708     55.39294  22.0067   0.2291    969.4551    690.5224     0.510     0.488  46.96
       282   1     787.8149      93.9547  20.8137   0.1295   1589.0049    687.9185     1.265     1.144  22.75
       283   1     162.1471     42.35352  22.5300   0.2837   1926.6725    687.6711     0.573     0.336 -45.06
       284   1      560.458     98.13249  21.1834   0.1902   1890.3695    685.7142     1.693     0.729  20.83
       285   1      332.125     49.06625  21.7515   0.1604    590.6482    685.1538     0.894     0.689  21.79
       286   1      1576.73     135.8583  20.0604   0.0936   1023.7321    722.0519     1.988     1.614  88.31
       287   1      415.858     52.77445  21.5074   0.1378    294.6501    682.8345     1.394     1.133 -52.17
       288   1     204.7368     43.99361  22.2768   0.2334    335.7801    679.5836     0.754     0.452  19.02
       289   1     256.0155     53.21981  22.0341   0.2258   1805.0956    677.3090     0.889     0.597 -31.14
       290   1     626.9517     81.00375  21.0617   0.1403    462.0313    674.0822     1.263     1.000 -44.55
       291   1     173262.8     87.17876  14.9580   0.0005   1346.4088    664.3974     2.057     2.025   3.65
       292   1     433.7399     68.01595  21.4617   0.1703     37.2766    673.8781     0.866     0.614  64.94
       293   1     191.8796     47.60125  22.3472   0.2694    665.4983    671.5118     0.512     0.488  44.83
       294   1     496.7721     71.40187  21.3144   0.1561    358.0074    670.5412     1.314     0.876 -25.73
       295   1     353.9629     54.53408  21.6824   0.1673   1533.7321    665.6383     1.119     0.856  66.84
       296   1     969.5155     51.87226  20.5884   0.0581    964.0042    665.1097     1.308     1.147  13.45
       297   1     1290.678     73.35845  20.2777   0.0617   1419.3176    663.5815     1.382     1.283  35.21
       298   1     2985.967     89.05378  19.3671   0.0324    573.7516    659.8990     2.116     1.772  50.38
       299   1     393.9508     67.66804  21.5662   0.1865     41.6922    662.6627     1.158     0.812 -89.74
       300   1     202.2588     36.99957  22.2900   0.1987   1493.2593    660.6784     0.971     0.755  46.38
       301   1     551.8517     75.57713  21.2002   0.1487     36.1967    659.5892     0.977     0.723  84.84
       302   1     154915.6     87.44908  15.0795   0.0006    314.9764    650.7102     2.052     2.008  -4.27
       303   1     6016.291     68.36209  18.6065   0.0123   1657.1337    652.7261     1.634     1.580 -51.76
       304   1     27331.49     78.33745  16.9631   0.0031   1708.5229    648.9091     1.852     1.807  88.30
       305   1     185.0247     56.23868  22.3867   0.3301    114.3047    650.8981     0.874     0.589  60.65
       306   1     272.6829     49.06625  21.9656   0.1954   1241.6887    650.2435     0.957     0.635   5.62
       307   1     298.0586     54.96519  21.8690   0.2003    772.4747    644.2242     0.927     0.740  -5.41
       308   1       423.89     68.36209  21.4866   0.1751     54.3891    643.6185     1.029     0.633  -7.32
       309   1      208.613     44.52689  22.2564   0.2318   2045.5133    641.9957     0.813     0.307 -58.43
       310   1     6706.709     69.39015  18.4885   0.0112      9.1623    638.3727     1.641     1.594 -68.77
       311   1     221.7626     57.48397  22.1901   0.2815    457.2312    641.4296     0.757     0.448  20.22
       312   1     299.3909     49.54495  21.8642   0.1797   1832.5128    640.5020     0.501     0.499 -48.72
       313   1     289.6337     47.60125  21.9002   0.1785   1209.1537    635.9004     0.919     0.749   0.26
       314   1     358.6309     59.10355  21.6682   0.1790   1414.4031    633.7849     1.048     0.898 -82.35
       315   1     1166.714     73.35845  20.3874   0.0683    202.5469    631.6851     1.355     1.243  16.27
       316   1     620.6201     54.09954  21.0727   0.0947   1900.8058    631.2309     1.166     1.033  41.74
       317   1     251.6506      52.3253  22.0528   0.2258   1595.5081    630.3370     0.875     0.473   0.81
       318   1     618.4243       73.036  21.0766   0.1283    322.5434    615.2980     1.394     1.010  77.14
       319   1     418.0752     64.81757  21.5016   0.1684   1603.0981    605.4709     1.005     0.889  35.57
       320   1     2829.965     65.18069  19.4253   0.0250   1660.8282    601.8800     1.502     1.441  29.09
       321   1     1367.495     109.0682  20.2150   0.0866   1989.5983    591.1534     2.200     1.507  23.20
       322   1     1427.382     68.70648  20.1684   0.0523    572.4492    586.4175     1.599     1.450  53.18
       323   1     5731.762     128.3543  18.6591   0.0243    487.1105    581.7554     2.678     2.173 -84.91
       324   1     3393.395     69.04916  19.2282   0.0221   1052.5668    578.7342     1.572     1.491  34.92
       325   1     353.2555     53.66148  21.6846   0.1650   1148.4794    577.5395     0.505     0.493 -42.46
       326   1     290.8076     49.54495  21.8958   0.1850    446.4885    576.4519     0.501     0.497 -29.54
       327   1     1244.522      76.5083  20.3173   0.0668     61.8487    573.0876     1.905     1.553 -63.61
       328   1     183.4412     46.08971  22.3960   0.2729   1018.4665    575.5107     0.501     0.498  58.01
       329   1     380.2004     69.39015  21.6047   0.1982   1153.4840    574.1637     1.067     0.471  30.86
       330   1      169.999     44.52689  22.4787   0.2844    867.9647    564.2357     0.678     0.424   1.70
       331   1     15022.66     73.99915  17.6129   0.0053    244.5744    559.5173     1.750     1.709  44.66
       332   1     568.5239     65.18069  21.1679   0.1245   1148.0962    560.7908     1.159     0.971 -39.69
       333   1      644.157     94.95425  21.0323   0.1601    731.1918    558.9682     1.413     0.955  40.82
       334   1     776.1595     90.89014  20.8299   0.1272    441.3138    557.3320     1.528     1.045  87.40
       335   1     9846.982     72.38677  18.0715   0.0080    191.2848    552.0312     1.754     1.689  14.88
       336   1     14387.63     73.35845  17.6598   0.0055    552.8276    548.8745     1.745     1.707  11.88
       337   1     1149.607     66.25813  20.4034   0.0626   1782.7758    548.3447     1.416     1.293  -7.20
       338   1     194.7108     47.60125  22.3313   0.2655   1035.7212    539.7291     0.847     0.352  20.57
       339   1     201.4459     41.22389  22.2944   0.2222    513.6846    537.3396     0.572     0.336  46.11
       340   1     999.9692     55.81741  20.5548   0.0606    328.8484    534.4813     1.424     1.235  -3.35
       341   1       708.99     88.25508  20.9282   0.1352    924.7245    530.7896     0.990     0.845  22.79
       342   1      373.444     69.39015  21.6242   0.2018   1864.9928    529.4879     1.102     0.792 -87.88
       343   1     202.1112     50.95409  22.2908   0.2738    782.5144    527.3228     0.963     0.467  -0.87
       344   1     3262.762     100.9775  19.2708   0.0336   1675.5068   1475.4752     2.652     1.652  17.68
       345   1     1568.918     73.99915  20.0658   0.0512   1500.2378    517.2322     1.437     1.345   8.57
       346   1     3609.117     66.61341  19.1613   0.0200    354.2382    515.9642     1.591     1.470  59.97
       347   1      1289.92     54.09954  20.2784   0.0455    256.5854    516.7878     1.320     1.224  -8.74
       348   1     3230.749      99.0899  19.2815   0.0333    478.1413    509.8516     2.162     1.837 -77.89
       349   1     2285.101     153.0166  19.6575   0.0727    212.0165    512.3491     2.083     1.655 -53.29
       350   1     3660.667     65.54181  19.1459   0.0194   1807.1006    498.8923     1.527     1.508 -46.43
       351   1     429037.7     133.9336  13.9735   0.0003    630.4145   1443.7451     3.180     3.085 -43.58
       352   1     261.4449     52.77445  22.0113   0.2192    679.2037    500.0514     1.023     0.596 -22.95
       353   1     450.0151     75.57713  21.4217   0.1824    529.2865    488.3777     1.063     0.760 -22.05
       354   1     990.7928     113.1051  20.5648   0.1240    342.4666   1263.8542     1.463     1.195  44.19
       355   1     266.1201     50.01908  21.9921   0.2041    794.8756    484.7766     1.046     0.624  29.98
       356   1     402.6606     69.04916  21.5424   0.1862    803.1987    480.7498     1.151     0.838  46.94
       357   1     5071.156     68.70648  18.7920   0.0147   1051.8718   1476.0890     1.646     1.597  24.68
       358   1     124.6853     35.70094  22.8152   0.3110   1651.3291    477.6581     0.579     0.332  45.54
       359   1     496.4833     70.73766  21.3150   0.1547    435.5724    869.8578     1.549     0.909  59.61
       360   1     222.1436     44.52689  22.1882   0.2177   1843.6776   1447.6866     0.564     0.340 -44.54
       361   1     157.0587     36.99957  22.5646   0.2558   1900.0337   1451.0000     0.842     0.289   0.00
       362   1      3949.38       73.036  19.0635   0.0201    825.3566   1475.3678     1.721     1.559   2.24
       363   1      2854975     537.7572  11.9158   0.0002    623.9698   1345.7749    13.139    12.128  -2.57
       364   1     358.7275     55.81741  21.6679   0.1690   1880.5961   1458.9760     1.281     0.776  62.23
       365   1     494.9163     96.18908  21.3185   0.2111   1163.4294   1382.7717     2.002     0.664  16.52
       366   1     2964.836      150.998  19.3748   0.0553    907.1419   1460.1033     4.213     1.521  48.88
       367   1     270.7745     44.52689  21.9733   0.1786   1958.3296   1466.3241     0.572     0.336 -44.75
       368   1     370.8024     62.59459  21.6319   0.1833   2031.6062   1382.1923     0.740     0.450 -71.16
       369   1     251.8579     53.66148  22.0519   0.2314    386.3843   1445.2150     0.742     0.454  72.78
       370   1     4992.867     158.0249  18.8089   0.0344   1526.3351   1333.9558     2.765     2.301  26.28
       371   1     240.0026     43.99361  22.1042   0.1991    530.0529   1447.0071     0.795     0.791 -47.97
       372   1     714.4606     87.71857  20.9198   0.1333    959.5200   1429.5979     1.449     1.305  86.03
       373   1     1008.883     96.18908  20.5452   0.1035   1156.0831   1336.5703     1.590     1.334   5.52
       374   1     202.8286     47.60125  22.2870   0.2549    453.4897   1337.0121     0.814     0.307 -58.46
       375   1     2758.672     115.5822  19.4530   0.0455   1944.3317   1328.6653     2.787     1.628   0.25
       376   1      371.887     65.18069  21.6288   0.1903    983.6313   1407.7438     0.895     0.740  14.22
       377   1     1718.328      137.069  19.9670   0.0866    539.8561   1405.1459     1.535     1.366  19.88
       378   1     203.7073     45.57473  22.2823   0.2430   1679.0463   1426.4702     0.799     0.312 -31.99
       379   1     3632.542     148.3169  19.1543   0.0443    526.0445   1421.6385     2.389     1.918 -66.60
       380   1     631.1455     68.36209  21.0545   0.1176    827.3137   1423.0297     1.325     0.948 -84.31
       381   1     682.9724     62.97054  20.9688   0.1001    222.8250   1323.4425     1.605     1.326 -39.39
       382   1     549.5623     82.73357  21.2047   0.1635   2027.8324   1322.5959     1.176     0.759 -21.25
       383   1     2027.431     163.1689  19.7874   0.0874    184.1190   1402.7673     2.352     1.547  38.66
       384   1     1070.685     115.7862  20.4806   0.1174    604.1602   1459.6631     1.675     1.104  12.22
       385   1     365.4813     65.18069  21.6476   0.1937   1737.3658   1423.4951     1.038     0.650 -80.52
       386   1     399.6232     59.50156  21.5507   0.1617    120.7027   1373.1029     0.987     0.755  -8.98
       387   1     322380.7     92.69012  14.2839   0.0003    327.4197   1405.2700     2.214     2.119 -15.17
       388   1     187.5017     49.54495  22.3723   0.2870   1962.2462   1310.9725     0.706     0.431  88.76
       389   1     1062.432     90.10771  20.4890   0.0921   1728.6670   1414.0135     1.691     1.403 -12.33
       390   1     961.3817     84.70705  20.5975   0.0957   1375.3168   1406.9541     1.661     1.408 -73.26
       391   1     186.2793      43.4538  22.3794   0.2533   1296.2416   1307.7671     0.854     0.349 -17.77
       392   1     313.4475      52.3253  21.8144   0.1813   1342.2688   1402.2258     0.840     0.351  17.30
       393   1     701.4017     83.30219  20.9399   0.1290   1561.2748   1392.5465     1.341     0.862 -64.77
       394   1     49610.02     83.86695  16.3159   0.0018   1041.4136   1300.4263     1.965     1.920  23.45
       395   1     439.1002     63.34425  21.4484   0.1567    811.1932   1354.5856     0.775     0.448 -18.80
       396   1     19935.03     81.00375  17.3057   0.0044   1979.1235   1436.1272     1.888     1.854  47.96
       397   1      6936.26     70.06714  18.4520   0.0110   1921.0703   1306.4175     1.664     1.641  14.22
       398   1     274.4095     41.79252  21.9588   0.1654   1500.6027   1368.3903     0.924     0.788 -48.96
       399   1     268.6847     58.70285  21.9817   0.2373    931.0923   1401.1001     0.836     0.675 -40.51
       400   1     553.9103     74.63435  21.1962   0.1463    759.2819   1360.6915     0.930     0.744  44.47
       401   1     5993.537     70.73766  18.6106   0.0128   1208.7743   1353.8638     1.693     1.594   2.21
       402   1     131.7083     35.70094  22.7557   0.2944    775.6901   1352.3153     0.559     0.342  45.30
       403   1     421.1939     52.04162  21.4936   0.1342    322.3339   1284.9409     1.504     0.760  34.29
       404   1     1202.227      112.687  20.3548   0.1018    316.8012   1280.5167     1.699     1.153  52.11
       405   1     1418.948     87.44908  20.1749   0.0669    450.1255   1372.2094     1.775     1.345  40.77
       406   1     269.6544     50.95409  21.9778   0.2052   1258.5924   1356.0747     1.083     0.738 -12.96
       407   1     691.0088     65.90095  20.9561   0.1036     10.6966   1354.5916     1.349     1.208  65.93
       408   1     159.2179     33.65916  22.5498   0.2296   1692.4755   1355.9780     0.802     0.311  58.10
       409   1     656.3053     84.70705  21.0120   0.1402   1527.5411   1364.4301     1.315     1.155 -62.05
       410   1     277.8779     51.41523  21.9451   0.2009   1541.4933   1360.9972     0.785     0.318  57.49
       411   1     181.4471     35.70094  22.4079   0.2137    771.3366   1353.6970     0.565     0.339  43.30
       412   1     309.8933     58.29939  21.8267   0.2043    371.8386   1357.3757     0.758     0.440 -19.12
       413   1     1679.537     124.4327  19.9918   0.0805   1759.8209   1358.5464     2.103     1.466 -51.92
       414   1      176.376     41.79252  22.4387   0.2573   1992.9348   1406.2876     0.722     0.682  -5.41
       415   1     2926.476     158.6212  19.3889   0.0589   1732.7307   1333.3351     2.541     2.380  54.15
       416   1     193.6318     42.35352  22.3373   0.2375     52.5230   1349.4979     0.507     0.493  46.09
       417   1     17860.23     77.73251  17.4251   0.0047   1446.9720   1342.3345     1.836     1.771  62.45
       418   1     509.5638     78.03557  21.2868   0.1663   1208.0920   1331.6342     1.149     0.929  35.16
       419   1     14542.27      76.5083  17.6482   0.0057   1078.1390   1346.6617     1.810     1.769  -3.82
       420   1     1679.048     130.9034  19.9921   0.0847    518.8781   1340.0308     2.738     1.001  14.44
       421   1     378.0988     64.81757  21.6108   0.1862   1343.7583   1346.5935     1.017     0.570 -71.41
       422   1     1049.912     57.89311  20.5019   0.0599    913.0439   1349.0236     1.349     1.237   0.93
       423   1     8682.941     138.2691  18.2081   0.0173   1769.2988   1296.6616     3.215     2.295  84.35
       424   1     4015.877     64.81757  19.0453   0.0175   1257.3917   1332.5922     1.614     1.494  35.17
       425   1     8944.565     156.2223  18.1759   0.0190   1733.7694   1272.5105     3.860     2.848  16.55
       426   1     1899.431     148.1577  19.8582   0.0847   1279.6735   1314.8275     2.398     1.933  68.25
       427   1     3209.339     83.65787  19.2887   0.0283   1720.4739   1265.0841     2.287     1.788  19.23
       428   1     899.3975     114.5566  20.6699   0.1383   1734.0930   1319.0564     1.529     1.291 -58.39
       429   1     478.8583     63.34425  21.3543   0.1437   1453.7574   1313.4874     0.979     0.937  73.40
       430   1     282.7045     57.89311  21.9264   0.2224    464.1783   1440.1365     1.261     0.534  18.58
       431   1     381.2632      73.6795  21.6017   0.2099    456.7399   1280.2571     0.916     0.640   8.38
       432   1     1292.553      99.0899  20.2762   0.0833    659.6785   1291.8364     1.318     0.703  26.40
       433   1     256.0153     51.41523  22.0341   0.2181    879.1799   1285.8912     0.831     0.658  47.67
       434   1     123.8007     35.70094  22.8230   0.3132   1276.3135   1293.3300     0.567     0.339 -45.82
       435   1     1777.347     127.4315  19.9303   0.0779   1746.3593   1290.1451     3.273     1.387 -46.95
       436   1     886.9537      116.801  20.6850   0.1430    364.8494   1291.2089     1.852     1.036 -48.41
       437   1     98.88843     33.65916  23.0669   0.3696    700.3270   1238.2913     0.556     0.343 -42.95
       438   1     344.7308     53.21981  21.7111   0.1677    917.7132   1281.4771     0.962     0.959 -41.79
       439   1     7059.587     157.5762  18.4328   0.0242    499.7464    894.7275     2.777     2.430  58.56
       440   1     2968.565     64.81757  19.3734   0.0237    841.0269    875.2987     1.571     1.446   4.12
       441   1     867.2189     85.81437  20.7095   0.1075    182.0255   1255.2578     1.544     1.294 -18.25
       442   1     127.6792     25.70761  22.7895   0.2187   1209.6863   1262.3413     0.572     0.336  46.27
       443   1     334.8125      43.4538  21.7428   0.1409    466.0504    888.2872     1.001     0.976 -18.86
       444   1     3033.145     65.18069  19.3500   0.0233     17.1018    891.0225     1.538     1.454  30.66
       445   1     1169.052     72.71211  20.3852   0.0675    234.9559   1246.4012     1.425     1.270  87.57
       446   1     423.6207     72.38677  21.4873   0.1856    439.6964    908.1312     0.934     0.678  18.48
       447   1      184.134     48.09454  22.3919   0.2837   1958.8564    935.6120     0.762     0.438  19.97
       448   1     155.0525     43.99361  22.5786   0.3081   1862.7780    903.8027     0.977     0.349 -45.35
       449   1     15946.11     176.6438  17.5481   0.0120    757.4822    915.2711     4.656     3.282 -28.20
       450   1     133.1837     38.86626  22.7437   0.3169    645.5240    902.5012     0.503     0.497 -47.87
       451   1     187.7808     47.60125  22.3707   0.2753     16.6831   1225.6699     0.569     0.338 -45.63
       452   1     6249.448     71.07054  18.5652   0.0124   1818.0731    910.0283     1.748     1.606  17.64
       453   1     3921.168     65.90095  19.0712   0.0183    186.3064    931.7455     1.623     1.492  -6.29
       454   1     202.7277     38.86626  22.2875   0.2082   1643.1846    931.6093     1.004     0.380  85.20
       455   1      198.171     49.54495  22.3122   0.2715   1629.7903   1236.4060     0.746     0.454 -18.43
       456   1     1958.024     109.0682  19.8252   0.0605    320.7361   1178.5270     2.400     1.733   6.13
       457   1     229.3802     44.52689  22.1534   0.2108     30.6486   1233.3224     0.580     0.331  43.81
       458   1     510.6292     80.41888  21.2845   0.1710    826.1887    921.1747     1.077     0.746  84.39
       459   1     477.7968     71.40187  21.3567   0.1623   1788.2089   1205.7863     1.225     0.822 -45.16
       460   1     2067.625       73.036  19.7661   0.0384   1099.0498   1227.9127     1.531     1.400 -65.06
       461   1     256.9911     53.66148  22.0300   0.2268   1219.8164   1229.8291     0.752     0.562  44.25
       462   1     609.9347     75.26418  21.0916   0.1340   1446.3246   1232.8790     1.250     1.107  53.84
       463   1     394.8337     64.81757  21.5637   0.1783    122.0529   1389.4462     1.082     0.644 -62.85
       464   1      324.871     72.71211  21.7755   0.2431   1692.5385   1264.4694     1.134     0.644  30.46
       465   1     453.9094     68.01595  21.4124   0.1627    323.0289   1214.4385     1.144     0.759 -89.58
       466   1     3816.036     65.90095  19.1007   0.0188     33.6419   1206.4779     1.593     1.575  -2.19
       467   1     1232.729     63.34425  20.3276   0.0558   1412.6184    934.2328     1.346     1.246  40.75
       468   1     265.6307     46.85163  21.9941   0.1915   1791.6644   1202.6782     0.948     0.699 -25.98
       469   1      225.374     56.23868  22.1725   0.2710     71.0051   1197.2815     0.731     0.671   2.03
       470   1      152.873     33.65916  22.5940   0.2391    513.4724   1206.4818     0.503     0.496  46.60
       471   1     283.3676     59.50156  21.9239   0.2280   1265.0192   1203.0009     0.900     0.532 -45.14
       472   1     27152.95     78.93774  16.9702   0.0032    370.0410   1183.4153     1.870     1.834  40.33
       473   1     716.9375     88.25508  20.9161   0.1337    770.2255   1196.8881     1.626     1.046  58.02
       474   1     495.0212     48.09454  21.3182   0.1055   1687.5990   1196.2190     1.171     1.058  75.00
       475   1     288.8076     42.35352  21.9033   0.1593    992.8710   1209.6487     0.947     0.680 -68.43
       476   1     5774.005     72.38677  18.6511   0.0136    108.1813   1197.4594     1.772     1.624  -4.71
       477   1     4152.339      147.359  19.0090   0.0385   1869.9702   1172.3374     3.200     2.932 -53.79
       478   1     2988.979     68.01595  19.3660   0.0247    482.4189   1196.5828     1.593     1.544  84.75
       479   1     12636.43     75.26418  17.8007   0.0065    152.2783   1179.3778     1.804     1.777 -39.77
       480   1     533.7488     84.70705  21.2364   0.1724   1942.6174    941.6089     1.020     0.882  44.59
       481   1     238.4387     48.09454  22.1113   0.2191    880.3934    941.7828     0.771     0.445 -71.34
       482   1      2151.91     75.57713  19.7227   0.0381   1121.5709    936.3296     1.621     1.395   1.86
       483   1     118.1733     24.77248  22.8735   0.2277   1025.7666   1189.9944     0.682     0.423 -89.74
       484   1     12877.05     75.26418  17.7802   0.0063    824.3876   1177.5063     1.796     1.764 -17.81
       485   1     256.7976     53.21981  22.0308   0.2251   1041.5256   1177.5011     0.500     0.499 -57.51
       486   1     116.2365     23.80062  22.8914   0.2224    512.5361   1150.4998     0.506     0.493  47.87
       487   1     1032.875     79.82972  20.5197   0.0839     20.4219    956.1572     1.907     1.126 -57.02
       488   1     331.3613     68.01595  21.7540   0.2229   1043.2994    942.2877     1.175     0.925  84.82
       489   1     2062.441     129.0878  19.7688   0.0680    388.9316   1135.1583     1.864     1.643 -14.17
       490   1     3973.426     69.72947  19.0569   0.0191    100.5457   1163.8937     1.644     1.615   3.41
       491   1     965.2537     66.61341  20.5932   0.0749    731.9751   1167.3137     1.597     1.337   7.23
       492   1     272.2903     59.10355  21.9672   0.2357   1697.2814   1133.5819     1.001     0.473   9.12
       493   1     4743.311     101.4439  18.8646   0.0232    765.2091    952.0165     2.441     2.326 -85.58
       494   1     5964.431      70.4032  18.6159   0.0128   1524.3571   1164.7450     1.713     1.569  26.84
       495   1     596.4232     72.71211  21.1159   0.1324   1431.2294   1149.4158     1.526     1.226 -74.90
       496   1     1545.505     71.07054  20.0821   0.0499   1870.7827   1157.8746     1.526     1.329  64.50
       497   1     3524.078     64.81757  19.1872   0.0200   1689.4849   1148.4818     1.608     1.506  37.92
       498   1     228.0289     52.77445  22.1598   0.2513   1403.4709   1151.9792     0.800     0.312  58.07
       499   1     2202.881     77.42828  19.6973   0.0382    590.5256   1148.0117     1.545     1.502 -48.18
       500   1     1216.382     123.2894  20.3421   0.1101    956.4805   1152.3102     2.789     1.063 -58.90
       501   1     2957.521     81.29461  19.3775   0.0299    771.4671   1139.3488     1.644     1.547  51.74
       502   1     9436.468     76.19918  18.1178   0.0088   1495.9723   1145.5283     1.788     1.735  16.87
       503   1     1907.478     68.01595  19.8536   0.0387   1318.8042   1123.9133     1.541     1.436   4.66
       504   1     26431.36     80.71185  16.9995   0.0033   1753.1223   1118.1731     1.894     1.868 -78.39
       505   1     242.2323     54.53408  22.0942   0.2445    227.4807   1139.9956     0.778     0.499  87.96
       506   1     2597.024     104.6506  19.5186   0.0438   1562.0618   1122.6794     3.397     1.495 -88.03
       507   1     47087.49     84.14792  16.3725   0.0019   1737.8889   1128.5802     1.986     1.935  -6.45
       508   1     449.8905     58.29939  21.4220   0.1407   1646.3203   1133.7789     1.409     0.887 -43.97
       509   1     257.0101     57.07189  22.0299   0.2412   1143.4855   1125.0928     0.798     0.500 -89.23
       510   1     26528.35     78.93774  16.9955   0.0032   1977.1598    956.0066     1.856     1.843 -62.30
       511   1      27774.9     80.71185  16.9457   0.0032    641.3931    957.5377     1.966     1.830   0.58
       512   1     374.3179     62.97054  21.6217   0.1827     72.3295   1107.4104     1.002     0.863  47.40
       513   1     49828.99     85.53889  16.3111   0.0019    751.3432   1122.1097     2.000     1.981 -15.72
       514   1      436.226     68.70648  21.4555   0.1710   1095.1700   1103.3842     1.017     0.786  57.64
       515   1     156.7394     47.10279  22.5668   0.3264   1446.2334   1113.7013     0.835     0.357 -72.45
       516   1     8318.342     71.40187  18.2547   0.0093   2031.7438   1107.9958     1.720     1.663  59.90
       517   1     469.9463     69.04916  21.3747   0.1596   1592.9565    963.9461     0.803     0.797  60.44
       518   1      730.973     66.61341  20.8950   0.0990   1576.8228   1105.7799     1.514     1.179  36.92
       519   1     751.6068     68.36209  20.8648   0.0988    562.8087    964.2063     1.317     1.241   4.41
       520   1     3160.544     108.8515  19.3054   0.0374   1887.3671   1100.6522     2.820     1.862 -89.63
       521   1      342.495     57.89311  21.7181   0.1836   1047.9834   1100.0121     0.896     0.530 -45.57
       522   1      8138.49     72.05997  18.2784   0.0096   1055.1305   1044.2196     1.689     1.663   4.79
       523   1     7019.119     71.73167  18.4391   0.0111    677.1440    967.6239     1.744     1.626 -51.98
       524   1       911.08     113.5217  20.6559   0.1353    588.2567   1083.7263     1.657     1.230 -36.49
       525   1     580.1101     72.38677  21.1460   0.1355   1755.4863   1044.0205     1.408     1.026  29.81
       526   1     782.9827     88.52211  20.8204   0.1228   1431.9976   1055.7113     1.300     1.244  72.22
       527   1      2128.85      76.5083  19.7344   0.0390   1605.2759    966.2393     1.530     1.383  14.14
       528   1     2067.797     110.9987  19.7660   0.0583   1469.9968   1078.7230     1.996     1.556  76.45
       529   1     940.5347     105.7723  20.6213   0.1221    515.3638   1078.6431     2.040     1.264 -86.52
       530   1     810.3809     101.9082  20.7831   0.1366    392.6722   1053.1486     1.546     1.248 -46.90
       531   1     653.7236     51.87226  21.0163   0.0862   1867.5787   1051.9703     1.294     1.177  13.67
       532   1     1711.423     111.6348  19.9714   0.0708   1982.5552   1072.1456     2.129     1.682 -59.70
       533   1     128.6431     32.95047  22.7813   0.2782   1218.0000   1048.0205     0.847     0.289  90.00
       534   1     544.0414     90.10771  21.2157   0.1799   1133.6921   1075.3447     1.499     0.807  89.24
       535   1     16408.74      76.5083  17.5171   0.0051    584.3824   1062.9615     1.834     1.760   6.59
       536   1     2210.032     154.2457  19.6938   0.0758    987.3730   1056.5775     2.761     1.905  19.32
       537   1     165.6571     50.95409  22.5068   0.3340    258.6206   1062.2325     0.744     0.453 -72.93
       538   1     298.2723     56.65682  21.8682   0.2063   1852.4094   1030.2338     0.736     0.455  71.19
       539   1     651.1934     51.87226  21.0205   0.0865   1269.0984   1034.2898     1.252     1.071  26.83
       540   1     3328.065     117.8071  19.2493   0.0384    860.4559   1011.9247     2.372     2.150  50.10
       541   1     267.3789     54.96519  21.9870   0.2232    704.5506   1002.4131     1.123     0.583  44.99
       542   1     174889.8     88.52211  14.9479   0.0005   1216.2828    959.6619     2.101     2.060 -20.40
       543   1     667.5897     87.44908  20.9935   0.1423   1750.2216   1000.2983     1.341     0.918  81.64
       544   1     194.2723     42.35352  22.3338   0.2368   1971.0127   1030.4843     0.789     0.500   0.03
       545   1      5535.65     70.73766  18.6969   0.0139   1252.8024   1020.9841     1.726     1.600   0.37
       546   1     395.3444     81.58443  21.5623   0.2241   1004.8298    997.2391     1.094     0.659 -70.34
       547   1     8797.591     74.63435  18.1939   0.0092    883.0483    992.8112     1.792     1.698 -15.11
       548   1     1663.105     59.10355  20.0025   0.0386   1567.4962    993.7725     1.425     1.350  -1.46
       549   1       337.41     43.99361  21.7344   0.1416    495.6017    994.0570     1.436     0.735   4.47
       550   1      223.181     54.96519  22.1831   0.2675   1082.4191    990.7915     0.763     0.450 -70.83
       551   1      402.884     55.39294  21.5418   0.1493   1853.9639    997.4199     1.085     0.882  28.25
