#   1 KRON_RADIUS            Kron apertures in units of A or B                         
#   2 Y_IMAGE                Object position along y                                    [pixel]
#   3 MAG_BEST               Best of MAG_AUTO and MAG_ISOCOR                            [mag]
#   4 FLUX_BEST              Best of FLUX_AUTO and FLUX_ISOCOR                          [count]
#   5 X_IMAGE                Object position along x                                    [pixel]
#   6 THETA_IMAGE            Position angle (CCW/x)                                     [deg]
#   7 A_IMAGE                Profile RMS along major axis                               [pixel]
#   8 B_IMAGE                Profile RMS along minor axis                               [pixel]
#   9 MAGERR_BEST            RMS error for MAG_BEST                                     [mag]
#  10 NUMBER                 Running object number                                     
#  11 FLUXERR_BEST           RMS error for BEST flux                                    [count]
 3.50      6.7833  18.1007     9543.646    753.4195 -26.31     1.693     1.620   0.0099          1     86.70982
 3.50     32.0168  20.2758     1287.293    450.2256  86.65     1.260     1.155   0.0532          2     63.02449
 7.42     94.5299  18.8968     4584.471   1126.0465 -61.25     3.501     1.728   0.0644          3     271.8624
 8.02     67.8408  20.3817     1167.624   1463.0812 -33.83     1.259     0.872   0.1172          4      126.049
 3.81     94.1452  18.5062     6569.193    917.4310  14.88     1.585     1.534   0.0145          5     87.92828
 4.50     93.6758  21.0455      633.605    347.4099  46.39     1.140     1.015   0.1267          6     73.90276
 5.09    105.6125  21.1125     595.6501     47.7606 -12.90     1.107     0.945   0.1416          7     77.64702
 6.29    125.2587  21.2311     534.0085    301.4771  41.24     1.148     0.796   0.1813          8     89.13009
 6.91    124.6718  22.5872     153.1558    357.6577 -44.41     0.579     0.332   0.3103          9       43.762
 4.09    150.3836  19.2800     3220.937     46.1507  65.34     1.635     1.429   0.0312         10     92.64202
 7.57    158.5237  20.4453     1101.281     50.8306  18.38     1.181     1.093   0.1265         11     128.2801
 7.31    172.0959  21.0873     609.6665    556.8343  72.46     1.420     0.587   0.1762         12     98.93612
 3.80    184.3493  20.1598     1432.451    378.5194 -34.85     1.375     1.236   0.0568         13     74.85639
 6.48    182.9585  20.9252     707.8431   1263.3208  14.54     1.401     1.073   0.1818         14     118.5081
 3.50    211.2733  15.9355     70115.41    967.4832 -69.18     1.866     1.833   0.0015         15      96.0256
 5.44    192.6844  22.7834     127.8328    838.6912 -45.38     0.559     0.342   0.3119         16     36.71066
 6.27    205.2547  20.3704     1179.833     21.8521  59.72     1.337     1.165   0.1069         17     116.0893
 6.37    203.8773  21.0444     634.2185    986.0157  -0.32     1.075     0.834   0.1533         18     89.52711
 3.50    200.5236  22.6196     148.6498    185.5447 -71.37     0.500     0.498   0.2131         19     29.17467
 3.50    236.1223  16.5109     41270.62   1389.8429 -39.31     1.833     1.777   0.0025         20     94.53674
 3.59    223.8233  19.3445     3035.307   1093.4978 -34.27     1.495     1.464   0.0281         21     78.55521
 6.28    216.7570  22.3994     182.0747   1197.7780  72.53     0.841     0.346   0.3056         22     51.22904
 7.59    225.2516  19.9830     1685.792    975.8773  34.29     1.765     1.157   0.1041         23      161.562
 5.97    216.5507  21.9944     264.3912   1020.3140   9.96     1.056     0.470   0.2589         24     63.02449
 6.91    217.5131  22.2740     204.3674   1562.4775  46.05     0.504     0.495   0.2532         25     47.64204
 4.80    225.0000  22.3357     193.0803    860.9987   0.00     0.861     0.289   0.2065         26     36.71066
 4.91    235.9795  22.4613      171.983    837.2560  88.88     0.678     0.436   0.2494         27     39.50269
 4.28    241.9200  20.5823     970.6648    566.7307  26.17     1.232     1.101   0.0816         28     72.93668
 4.84    246.7146  20.9604     685.2673    577.7823  -1.83     1.243     0.938   0.1231         29     77.64702
 4.08    257.7660  19.8798     1853.835   1426.8837  -6.92     1.391     1.253   0.0468         30     79.89812
 6.75    269.4035  21.3063     498.2731    140.1496  52.59     1.628     0.415   0.1808         31      82.9471
 4.58    277.9707  21.3949     459.2537   1129.1667 -87.78     1.246     0.759   0.1581         32     66.84756
 6.09    284.9347  19.6854     2217.387   1328.3116 -42.84     1.663     1.477   0.0696         33     142.1797
 6.03    280.2587  21.2322     533.4788    955.4565 -53.81     1.023     0.798   0.1644         34     80.78101
 6.90    285.3190  21.7748     323.6587    744.0028   9.08     0.730     0.652   0.2364         35     70.46352
 6.04    312.6142  20.8808     737.3519    792.7368  -8.48     1.104     0.991   0.1398         36     94.91114
 4.48    331.6496  20.3420     1211.132    789.4247  -1.93     1.296     1.194   0.0740         37     82.51842
 3.67    337.3596  19.2438     3330.383    596.4562 -52.84     1.529     1.487   0.0265         38     81.21884
 3.50    372.8106  16.4658     43021.21   1263.0996  51.75     1.814     1.786   0.0024         39     95.28407
 5.42    359.9631  21.1103     596.8838    709.0217 -60.39     1.220     0.868   0.1525         40     83.79786
 5.23    362.7189  22.0686     246.9243    504.8946  20.82     0.716     0.677   0.2372         41     53.92712
 4.36    374.2651  20.4507      1095.82   1364.6586  -2.92     1.905     1.283   0.0998         42     100.7125
 7.38    371.2976  22.4046     181.2068    469.3978 -41.33     0.586     0.324   0.2765         43      46.1292
 5.01    388.0258  20.5373     1011.788   1463.8275  77.41     1.123     1.099   0.0895         44     83.37357
 3.95    391.6115  21.8333     306.6821   1318.2032 -75.10     0.974     0.844   0.1933         45     54.58081
 5.02    399.9806  20.6989     871.8846    825.2182 -61.04     1.582     1.146   0.1272         46     102.1113
 3.50    415.9862  19.1865      3510.83   1308.2938  23.66     1.516     1.425   0.0237         47     76.72809
 3.50    413.0386  19.5000     2630.152     67.7270  -3.32     1.569     1.337   0.0311         48     75.32867
 3.50    457.3289  17.8041        12542     12.9412  -7.96     1.701     1.582   0.0073         49     84.64007
 6.87    451.0990  20.6436     917.4034   1221.0300  71.70     1.343     1.036   0.1438         50     121.4638
 3.50    465.0982  18.4522     6904.145   1075.2172 -80.28     1.645     1.546   0.0130         51      82.9471
 7.01    461.7713  22.2817     202.9099    276.7593  17.23     0.858     0.350   0.3057         52      57.1208
 3.76    487.6075  20.3908     1157.923    574.5292  73.91     1.267     1.190   0.0647         53     68.93706
 3.94    504.3406  20.3932     1155.378   1142.3790  15.74     1.277     1.171   0.0676         54     71.95762
 3.50    498.6908  23.0829     97.01807    626.3044  45.28     0.554     0.344   0.2309         55     20.62961
 8.30    509.6959  22.0402     253.4548    999.3185  44.19     0.558     0.343   0.2339         56     54.58081
 6.56    535.8053  20.6405     920.0575    353.8041 -26.05     1.334     1.153   0.1444         57     122.3366
 3.87    546.8795  19.5617     2484.935    374.2849  16.25     1.446     1.339   0.0349         58     79.89812
 8.24    540.3218  22.0052      261.776    674.3281 -44.70     0.570     0.337   0.2264         59     54.58081
 4.03    556.1749  19.4784     2683.004   1456.4642 -66.60     1.402     1.392   0.0343         60     84.64007
 3.66    560.6160  18.8970     4583.639    583.1944  -2.44     1.676     1.468   0.0201         61     84.64007
 3.50    565.6235  19.2583     3285.995    956.4192  86.61     1.451     1.440   0.0251         62     75.79802
 3.50    572.0057  19.2979      3168.33   1028.6418   6.28     1.523     1.419   0.0255         63      74.3811
 6.55    578.5235  21.2863     507.5659   1366.3136  41.35     1.239     0.645   0.1864         64     87.11787
 6.26   1010.3064  22.8327     122.1522    374.6631  43.49     0.567     0.339   0.3744         65     42.11001
 7.92   1574.3383  22.2750     204.1696   1374.2750 -48.75     0.553     0.343   0.2798         66     52.59538
 3.50    849.2397  18.5458     6334.061    215.1507 -35.43     1.576     1.543   0.0141         67     82.08752
 3.50    838.9365  16.4535      43510.5    275.7407  12.96     1.854     1.814   0.0024         68      96.0256
 5.02    804.9051  22.1980      219.188   1082.0669 -46.54     0.833     0.527   0.2504         69     50.53201
 3.53    786.1812  19.2529     3302.329    527.8295   6.34     1.471     1.427   0.0252         70     76.72809
 3.50    775.8160  17.1819     22245.76    728.0626  -9.56     1.744     1.684   0.0044         71     89.52711
 7.07    779.6011  21.7265     338.3737    993.2560 -17.31     0.715     0.462   0.1930         72     60.14512
 3.50    770.0457  18.5742     6170.582    369.6897   1.33     1.599     1.516   0.0144         73     81.65434
 7.65    721.8531  18.2185     8562.786    199.0433  75.96     2.871     2.045   0.0351         74     276.7752
 4.23    708.5518  21.1210     591.0336   1354.6356  66.38     1.128     0.938   0.1199         75     65.23655
 4.59    701.5817  21.6431     365.3857   1040.1263 -76.81     0.999     0.737   0.1770         76     59.55255
 3.93    697.5711  20.1770     1409.975     97.0785  28.15     1.454     1.222   0.0609         77     79.00538
 3.50    663.3879  16.0939     60595.62   1486.9547   9.77     1.838     1.819   0.0017         78     95.65556
 4.01    667.5025  20.1302     1472.041   1090.4330  32.70     1.378     1.265   0.0573         79     77.64702
 4.55    653.2896  21.1489     576.0106    312.6598  48.80     1.221     0.914   0.1366         80      72.4488
 5.20    651.9135  21.1983     550.3931     16.6718  60.98     1.201     0.847   0.1559         81     79.00538
 3.65    641.6756  22.7627     130.2942    211.3024  46.20     0.560     0.342   0.1985         82     23.82102
 5.63    634.6196  20.7271     849.4919    871.5801 -59.79     1.504     1.136   0.1412         83     110.4535
 7.01    611.2307  21.4007     456.7892    572.0879  65.10     0.972     0.774   0.2147         84     90.31591
 7.53    611.0481  20.9121     716.3868    590.2112  -5.04     0.933     0.751   0.1427         85     94.16084
 7.31    601.3771  21.3405     482.8331   1580.3748   7.31     1.020     0.633   0.1978         86     87.92828
 8.15   1580.3208  21.7157     341.7726    831.3478 -43.85     0.578     0.333   0.1734         87     54.58081
 4.31   1566.1853  20.9980     661.9297     19.7813  -0.54     1.283     1.104   0.1251         88     76.26447
 5.97   1558.3076  20.4360     1110.714   1362.1667  63.44     1.218     1.134   0.1025         89     104.8531
 3.50    861.1357  15.1346     146602.6   1395.7646 -56.72     1.942     1.924   0.0007         90     100.3597
 3.50    873.0208  21.1620     569.1373    448.2745 -57.95     1.157     0.986   0.1054         91     55.22676
 6.92   1529.4631  22.6404       145.83   1221.4849  41.20     0.503     0.495   0.3548         92     47.64204
 3.50    874.2851  21.8206     310.2709     39.7706  45.02     0.911     0.731   0.1560         93     44.56504
 4.73   1533.4241  20.3854     1163.661    875.5878 -34.95     1.433     1.359   0.0917         94     98.21658
 3.50   1509.1296  18.1729     8929.874   1282.0568  28.22     1.736     1.614   0.0105         95     86.29984
 4.16    878.1899  19.8881      1839.73   1341.2797 -81.45     1.308     1.265   0.0472         96     79.89812
 3.50   1460.5002  18.9384     4411.847    251.2835   5.61     1.654     1.493   0.0202         97     82.08752
 4.55   1486.6885  22.7924     126.7786    719.2939  46.09     0.550     0.346   0.2499         98     29.17467
 3.50   1414.7927  18.9250     4466.978    953.8018  16.79     1.588     1.463   0.0194         99     79.89812
 3.50   1464.8256  17.9752     10712.73    533.8793   8.77     1.726     1.631   0.0089        100     87.92828
 5.26   1438.3132  22.7369     133.4222    478.3628 -42.98     0.581     0.330   0.2908        101     35.73153
 5.59   1418.5559  21.1626     568.8104   1050.3850   9.61     1.122     0.961   0.1640        102      85.8879
 4.76   1397.2233  20.5363     1012.683    899.5108  86.80     1.274     1.107   0.0899        103     83.79786
 3.50    879.0897  17.2943     20058.46    166.0865  41.27     1.744     1.670   0.0048        104     89.13009
 3.50    918.1933  18.1620     9019.625    620.4602 -10.14     1.669     1.561   0.0103        105     85.47398
 6.55    922.6434  22.7249     134.9037    508.3062  47.22     0.575     0.334   0.3523        106       43.762
 3.50   1383.8290  18.2650     8203.281    907.5646 -29.03     1.679     1.625   0.0114        107     86.29984
 3.71   1227.7982  19.3787     2941.084   1333.7915 -23.30     1.488     1.402   0.0297        108     80.34077
 3.50    941.8470  18.7668     5167.593    690.0891 -31.36     1.585     1.524   0.0173        109     82.51842
 4.04    935.6761  20.7285     848.4255    841.9122 -69.53     1.312     1.290   0.1000        110     78.10243
 3.54   1365.7184  19.5660     2475.032   1439.2535  28.65     1.470     1.353   0.0331        111     75.32867
 3.50   1228.1296  21.3898     461.4095    319.4973  63.77     1.038     0.938   0.1206        112     51.22904
 3.50   1306.8788  21.0092     655.1051    133.7601 -10.61     1.269     1.098   0.1016        113      61.3131
 3.50   1327.5264  22.7532     131.4426    458.5125  43.70     0.505     0.494   0.2410        114     29.17467
 3.50   1310.4937  17.6535      14407.5    923.8976   5.28     1.759     1.659   0.0068        115     89.92237
 7.57   1274.4218  21.8523     301.3485    570.1992  20.91     0.731     0.449   0.2371        116     65.77794
 3.50   1243.2957  18.1193      9381.98    570.4771   9.31     1.672     1.605   0.0099        117      85.8879
 4.70   1261.3463  22.6129     149.5685    470.3010 -47.19     0.568     0.337   0.2118        118     29.17467
 5.46   1276.7207  21.3545     476.6366    260.7224  42.87     1.013     0.864   0.1738        119     76.26447
 5.93   1267.5327  22.5015     165.7263   1562.4994 -42.84     0.507     0.492   0.3023        120      46.1292
 3.82   1247.6710  20.1765     1410.647     37.7784 -52.31     1.430     1.332   0.0598        121     77.64702
 5.63   1250.2047  21.2166     541.1918    492.4627  10.30     0.966     0.929   0.1576        122     78.55521
 6.24   1026.8057  20.8419     764.2598    607.6187 -18.49     1.433     0.855   0.1456        123     102.4581
 4.21   1236.0446  20.4159     1131.498    384.5432 -13.80     1.431     1.158   0.0767        124     79.89812
 7.43   1240.2915  21.1255     588.5886    865.0969  29.76     1.030     0.649   0.1659        125     89.92237
 3.50   1005.1924  21.6090     377.0414   1353.6735 -21.24     1.020     0.834   0.1414        126     49.10829
 3.50   1212.9338  17.1925     22029.03   1194.9965  44.05     1.804     1.776   0.0046        127     93.02405
 3.50   1237.0681  20.8029     792.2216   1246.3134 -29.54     1.381     1.191   0.0931        128     67.90035
 5.60   1041.7002  21.0662     621.6207    424.0800  32.55     1.245     0.990   0.1625        129     93.02405
 4.72    994.4263  20.1513     1443.649    145.0579 -12.80     1.464     1.253   0.0720        130     95.65556
 4.51   1020.4490  20.9601     685.4337    106.6252   5.18     1.232     0.958   0.1140        131     71.95762
 3.50   1000.2596  19.2388     3345.518    998.0823  45.51     1.490     1.421   0.0245        132     75.32867
 6.29   1039.7605  22.2708     204.9657     23.4234 -72.32     0.740     0.462   0.2892        133     54.58081
 5.97   1039.4113  21.9054     286.9709   1084.2495  -6.75     0.992     0.481   0.2385        134     63.02449
 7.23   1036.2368  22.2650     206.0607    208.0035  -0.16     0.690     0.425   0.3075        135     58.34934
 3.68   1192.5526  19.5738     2457.471   1031.3252 -22.69     1.501     1.366   0.0347        136     78.55521
 5.54   1178.3993  21.0880     609.2692      6.1971  20.57     1.178     0.869   0.1486        137     83.37357
 8.66   1045.3119  21.5131     411.8745   1382.3235 -44.40     0.564     0.340   0.1506        138      57.1208
 3.50   1170.3538  22.8298     122.4873    839.3178 -46.50     0.579     0.332   0.1829        139     20.62961
 3.61   1153.1121  20.9018     723.2648    195.4326  50.02     1.116     0.999   0.0848        140     56.49651
 3.50   1089.1863  20.5263     1022.084    792.4478   6.83     1.352     1.074   0.0670        141     63.02449
 8.62   1124.4893  21.7201     340.3651     68.4893  44.98     0.502     0.498   0.2011        142     63.02449
 3.50   1129.4515  19.0579     3952.189    620.8256  15.83     1.581     1.485   0.0220        143     79.89812
 5.30   1109.7222  21.3307     487.1925   1267.4922  39.20     1.053     0.958   0.1761        144     79.00538
 6.27   1069.3116  22.5762     154.7109     62.6478  43.23     0.576     0.334   0.3014        145     42.94395
 6.97   1049.0215  22.2225     214.2982   1382.5255  58.33     0.809     0.309   0.2414        146     47.64204
 3.50   1093.9700  20.2954     1264.228     16.2002   9.75     1.396     1.187   0.0574        147     66.84756
 4.11   1056.9001  20.5941     960.2208    239.6890  15.82     1.196     1.107   0.0819        148      72.4488
 5.90   1029.4553  21.5360     403.2648    766.3513 -70.12     0.929     0.814   0.2054        149     76.26447
