#   1 KRON_RADIUS            Kron apertures in units of A or B                         
#   2 Y_IMAGE                Object position along y                                    [pixel]
#   3 MAG_BEST               Best of MAG_AUTO and MAG_ISOCOR                            [mag]
#   4 FLUX_BEST              Best of FLUX_AUTO and FLUX_ISOCOR                          [count]
#   5 X_IMAGE                Object position along x                                    [pixel]
#   6 THETA_IMAGE            Position angle (CCW/x)                                     [deg]
#   7 A_IMAGE                Profile RMS along major axis                               [pixel]
#   8 B_IMAGE                Profile RMS along minor axis                               [pixel]
#   9 MAGERR_BEST            RMS error for MAG_BEST                                     [mag]
#  10 NUMBER                 Running object number                                     
#  11 FLUXERR_BEST           RMS error for BEST flux                                    [count]
 3.87     54.0606  16.4655     43031.22     63.4906  10.24     5.079     4.642   0.0049          1      193.874
 3.50     17.6089  18.6427     5793.242    984.8857 -88.11     4.179     1.842   0.0189          2     100.5898
 3.50     18.7909  19.0751      3889.92     91.0583 -77.68     1.665     1.590   0.0165          3     59.13771
 3.50     15.4372  18.0445     10050.32   1445.5699 -58.56     1.765     1.663   0.0068          4     62.48773
 8.71      7.7679  21.9630     272.1539   1469.4524 -68.75     0.745     0.449   0.2054          5     51.46277
 5.20      4.5160  21.6079     377.4186    145.3089  44.41     1.257     0.896   0.1564          6     54.35074
 7.14     10.4944  22.3944     182.9064   1183.4982  44.88     0.503     0.497   0.2295          7     38.65202
 3.50     60.5870  16.3520     47777.05   1078.2454  78.89     2.101     1.994   0.0017          8     73.70651
 7.81     14.3362  22.8350      121.897    839.6812  45.80     0.572     0.336   0.3200          9     35.92011
 3.71     25.5086  20.7714     815.5618    367.0246 -44.58     1.386     1.224   0.0658         10     49.44383
 3.96     17.9751  21.8106     313.1539    384.0876  -6.21     1.065     0.750   0.1212         11     34.96207
 3.50    182.7325  13.5540     628639.9   1107.3342 -33.02     5.842     5.048   0.0003         12     196.4835
 7.95     24.5880  21.5114     412.5127    383.1618  87.82     1.000     0.715   0.1822         13     69.19193
 7.77     35.5278  21.5152     411.0596   1110.5074  83.69     1.018     0.640   0.1714         14     64.88685
 6.92     34.3293  21.3252     489.6743    326.4466 -55.26     1.064     0.824   0.1490         15     67.20037
 5.72     38.8936  21.7549     329.6283   1521.2977  57.82     1.154     0.680   0.1717         16     52.11837
 5.84     39.8461  21.8358     305.9594   1170.4801  -0.97     0.941     0.732   0.1767         17     49.78601
 5.61     45.8528  21.6095     376.8821    440.1219 -39.18     1.403     1.002   0.1972         18     68.45188
 3.50     43.2799  21.9853     266.6208    915.3459 -44.82     1.174     0.700   0.1300         19     31.91586
 3.50     80.9598  16.4075     45395.29    537.4124 -67.89     2.020     1.918   0.0017         20     71.36602
 6.79     40.5038  22.8249     123.0419   1225.9862 -32.64     0.782     0.319   0.2909         21     32.96255
 6.55     51.1657  22.3382      192.621    265.9854  36.65     0.939     0.465   0.2566         22     45.51041
 6.43     51.0299  22.4865     168.0422   1435.2108 -33.32     0.788     0.497   0.2609         23     40.37072
 6.80     49.3377  23.0656     98.57642   1233.6754  45.58     0.575     0.334   0.3336         24     30.27804
 3.50     75.9613  20.1514     1443.583    127.6706  65.46     1.365     1.260   0.0351         25     46.61609
 5.75     82.8388  21.5227     408.2594    421.4473 -51.35     1.212     0.808   0.1565         26     58.84993
 5.12     91.5345  20.6048     950.8154    376.7948 -74.03     1.886     1.573   0.1037         27     90.83411
 3.50    122.5929  15.9755     67575.17    788.9210 -57.93     2.107     1.961   0.0012         28     73.24439
 3.64     97.3432  19.6457     2300.057     55.9943  -9.78     1.501     1.385   0.0257         29     54.35074
 6.18     92.9185  21.7422     333.5238    495.8493  75.14     1.341     0.684   0.1972         30     60.55608
 6.08     98.7693  21.0154      651.375    452.5781 -24.86     1.703     0.981   0.1353         31     81.16087
 4.43     96.5883  22.5793     154.2637   1075.8324  21.36     0.766     0.435   0.1880         32     26.70272
 8.01    114.3489  22.6161     149.1322    270.3333 -45.61     0.584     0.329   0.2717         33     37.31108
 7.06    117.8673  22.5234     162.4226     66.8318  46.85     0.748     0.562   0.3165         34     47.33886
 6.06    118.7044  23.0158     103.2026    990.6282 -41.71     0.576     0.332   0.2876         35      27.3311
 8.28    118.5058  22.6757     141.1593    154.4909  45.33     0.502     0.498   0.3233         36     42.01918
 4.24    235.9001  16.3224     49095.18    403.1562 -56.45     6.429     5.300   0.0057         37     255.5262
 3.50    194.4204  14.3847     292492.9    317.8754 -62.51     2.391     2.159   0.0003         38       81.786
 3.50    163.1395  16.5986     38067.35   1468.1359 -60.49     1.999     1.918   0.0020         39      70.1665
 5.04    132.4922  22.3697     187.1254    418.0420   0.54     0.804     0.500   0.1913         40     32.96255
 3.50    171.1363  18.2266     8498.897    877.1224 -68.32     1.766     1.710   0.0080         41     62.48773
 5.36    147.2958  22.3186     196.1323    353.1507 -30.05     0.879     0.605   0.2235         42     40.37072
 6.86    152.5081  22.5231     162.4594   1279.9960  -1.46     0.803     0.500   0.2915         43     43.60536
 4.82    172.3745  20.3006     1258.237    325.0115 -64.12     1.467     1.346   0.0606         44      70.1665
 3.59    165.8674  20.9474     693.4874   1445.5350  -0.27     1.320     1.134   0.0713         45     45.51041
 4.17    167.5935  21.2441     527.6473    104.3067 -28.86     1.173     1.010   0.0944         46     45.88193
 5.09    170.4302  22.1836     222.1099   1368.2188 -47.27     1.080     0.717   0.2261         47     46.25047
 5.71    169.4399  22.9382     110.8446    651.5150 -35.83     0.503     0.493   0.2911         48     29.71204
 4.46    181.2359  21.8745     295.2533    574.8821  23.27     1.275     0.773   0.1688         49     45.88193
 4.36    193.3881  20.6514     910.8036   1350.3933 -35.33     1.357     1.132   0.0663         50     55.58614
 8.45    186.9876  21.5054     414.7947   1354.0366 -74.11     0.796     0.783   0.1799         51     68.69945
 3.72    211.5532  18.9606     4322.574    827.4822  -7.29     3.936     1.949   0.0266         52     105.6924
 3.50    207.5034  19.9392     1755.155    548.9205 -81.30     1.549     1.369   0.0318         53     51.46277
 7.58    196.0324  22.2360     211.6431    267.5382  56.83     0.765     0.324   0.2072         54     40.37072
 4.87    229.8139  19.7710     2049.233    414.8996 -19.48     1.967     1.652   0.0308         55     58.04004
 3.50    211.4506  21.3038     499.4551    684.4574 -82.33     1.680     1.042   0.1068         56     49.09927
 4.07    209.4233  20.6121     944.3723    349.7025  43.13     1.598     1.217   0.0690         57     59.99275
 3.50    204.3587  21.9811     267.6458    250.6058 -42.34     0.981     0.848   0.1358         58     33.47363
 3.50    212.9739  20.0106       1643.4   1305.9009  53.84     1.403     1.346   0.0320         59     48.40279
 4.51    231.0750  18.9798     4246.785    562.2184  -9.41     3.381     2.852   0.0369         60     144.3876
 3.50    204.4280  23.0584     99.23352   1498.4841 -36.27     0.505     0.489   0.2209         61     20.18536
 7.06    205.7527  22.4535     173.2189    937.2287 -19.28     0.855     0.346   0.2478         62     39.52071
 3.57    224.5217  19.7379     2112.648   1225.8657 -53.97     1.548     1.416   0.0281         63     54.66221
 3.50    260.5782  15.5206     102743.3    997.2145 -60.88     2.174     2.033   0.0008         64      75.5267
 3.50    266.7132  15.7061     86609.15     67.3777 -78.85     2.116     1.998   0.0009         65     73.70651
 5.20    223.1785  20.7912     800.7629    345.6050 -22.38     1.579     1.463   0.1098         66     80.95142
 3.50    223.2261  21.2242     537.4136    774.7524 -19.32     1.202     1.068   0.0833         67     41.20319
 7.24    219.2476  22.3000     199.5187    740.7268 -18.84     0.845     0.353   0.2220         68     40.78908
 4.32    244.2684  20.1776     1409.202    112.8208  77.16     2.123     1.544   0.0619         69     80.31981
 4.49    256.2215  19.1196     3733.852    612.7909 -37.89     2.503     1.802   0.0287         70     98.71583
 6.09    239.9036  21.2565     521.6777    838.4949 -37.93     1.369     1.007   0.1544         71     74.16574
 5.00    240.0472  22.6188     148.7583   1478.8186 -53.93     0.940     0.464   0.2480         72     33.97702
 3.50    313.2080  14.1634     358609.2    439.2092 -58.52     2.401     2.209   0.0003         73     83.22636
 6.70    252.6677  21.2288     535.1672   1372.6152 -44.30     1.226     0.877   0.1453         74     71.60352
 6.94    251.4614  21.2589      520.522    107.4959 -45.23     1.084     0.836   0.1428         75     68.45188
 5.43    254.3471  22.4383     175.6583   1352.5072   0.00     0.868     0.476   0.2278         76     36.85326
 3.50    288.3375  17.2908     20123.32   1486.2755 -55.67     1.869     1.782   0.0036         77     66.18213
 3.50    282.7324  18.9869     4219.441   1522.1934 -43.42     1.561     1.489   0.0143         78     55.58614
 6.94    271.2609  21.2774     511.7219   1273.5472 -11.08     1.161     0.926   0.1584         79     74.62215
 3.57    290.6129  19.9978     1663.002    514.7311 -61.03     1.859     1.552   0.0412         80     63.02876
 3.50    319.4862  16.1166     59340.31    905.2509 -61.70     2.069     1.942   0.0013         81     72.31131
 3.50    303.9936  17.6248     14794.44    201.5941 -73.78     1.829     1.708   0.0047         82     64.62468
 5.16    297.8686  20.4923     1054.587   1413.5083 -39.26     2.150     1.549   0.1000         83     97.15569
 3.56    294.7549  19.9191     1787.919   1327.3584 -23.02     1.400     1.322   0.0307         84      50.4634
 3.50    352.2489  14.3402     304744.2   1345.7200 -52.96     2.313     2.158   0.0003         85     80.31981
 3.50    352.2323  14.2997       316302    890.5778 -52.57     2.350     2.174   0.0003         86       81.786
 6.19    294.2966  21.0743     617.0115   1475.4912 -66.12     1.171     0.977   0.1196         87     67.95404
 3.50    302.8696  20.9291     705.2452    563.5292  64.37     1.321     1.261   0.0701         88     45.51041
 3.50    322.8518  18.0956     9588.647    697.1324 -67.39     1.711     1.657   0.0068         89     60.27507
 6.40    309.7060  21.1138     594.9465     85.4069 -81.45     1.983     0.885   0.1610         90     88.17868
 5.00    322.1810  20.8739     742.0648    641.0074 -76.22     2.195     1.269   0.1256         91     85.83723
 4.49    328.1170  19.9584      1724.36    595.2689 -50.18     1.627     1.559   0.0471         92     74.84931
 5.36    317.8036  22.7052     137.3737    226.3809 -71.76     0.752     0.447   0.2481         93     31.37942
 3.66    347.0935  18.5106     6542.492    866.9109 -38.15     1.821     1.669   0.0110         94     66.43815
 5.35    332.8581  21.4647     430.6477     93.4377  -7.83     1.068     0.836   0.1339         95      53.0866
 4.20    330.3324  22.2134     216.0994   1545.6162  -6.15     0.994     0.631   0.1732         96     34.47306
 4.50    335.7877  21.7008     346.4821   1440.3218 -48.97     0.986     0.855   0.1330         97     42.42128
 3.79    356.5633  18.7126     5431.816    431.6613 -76.63     1.957     1.739   0.0144         98     71.84022
 3.50    350.8575  20.7319     845.7324     54.4747 -39.25     1.290     1.224   0.0575         99     44.75812
 5.14    348.6108  22.4368     175.9059     42.2829 -59.05     0.983     0.545   0.2440        100     39.52071
 3.50    368.9762  18.0596      9911.62    760.8817 -55.02     1.739     1.636   0.0066        101     59.99275
 7.08    351.1112  21.8716     296.0448    920.2661 -17.72     0.939     0.676   0.2127        102     57.97803
 3.50    362.0320  19.9861     1681.042   1500.1698  10.15     1.428     1.398   0.0326        103      50.4634
 3.61    368.2886  19.1189     3736.442    442.6443 -44.79     1.606     1.455   0.0166        104     57.09282
 6.16    353.6877  22.8332     122.0979    350.3493  43.36     0.575     0.334   0.2539        105     28.54641
 3.50    396.0084  16.3053     49872.85    231.2756 -59.51     2.003     1.932   0.0015        106      70.1665
 6.26    360.5867  21.5921     382.9711    533.2850  21.62     1.031     0.915   0.1795        107     63.29754
 3.53    361.4968  21.6572     360.6892   1033.7421 -34.22     1.094     0.910   0.1067        108     35.44432
 5.96    363.8832  22.3793     185.4641   1415.6968 -78.20     1.038     0.416   0.2364        109     40.37072
 3.50    373.7502  21.2234     537.8372    992.1270 -58.62     1.191     1.021   0.0789        110     39.08878
 4.95    373.9765  21.4487     437.0312   1083.8434 -45.30     1.443     1.000   0.1519        111     61.11421
 6.12    369.9420  22.4069     180.8215    210.5096  87.58     0.786     0.499   0.2374        112     39.52071
 6.59    371.1455  21.5941     382.2458     71.4292 -16.36     1.204     0.716   0.1806        113     63.56519
 6.58    376.9810  21.1286     586.8914    753.9877  38.43     1.723     0.867   0.1544        114     83.43011
 3.50    397.8752  18.4889     6674.975   1461.0035 -57.54     1.678     1.607   0.0096        115     58.84993
 5.17    376.6144  22.0463     252.0526     86.3840  23.01     1.364     0.457   0.1810        116     42.01918
 3.50    398.9585  18.2919     8002.958    354.4046 -56.82     1.759     1.641   0.0084        117     61.94198
 5.97    380.9103  22.1786     223.1406    125.6369 -22.70     0.902     0.682   0.2373        118     48.75227
 3.64    394.5150  19.9679     1709.316   1088.6681 -16.65     1.553     1.372   0.0347        119     54.66221
 3.50    420.3994  16.3971     45832.43    433.1460 -57.35     1.997     1.878   0.0017        120     69.92413
 3.50    416.4439  17.2021     21834.44    837.1794 -67.30     1.895     1.794   0.0033        121     66.94727
 5.36    390.0044  22.4118     180.0017   1195.2917  85.80     0.739     0.674   0.2305        122     38.21027
 6.62    390.2305  22.5251     162.1672    260.4030  71.18     0.744     0.452   0.2618        123     39.08878
 4.81    397.2771  22.0152     259.3776    977.5050 -21.24     1.103     0.780   0.1936        124     46.25047
 5.97    397.9344  21.3891      461.718    626.5070  15.77     1.528     0.795   0.1627        125     69.19193
 3.50    440.8153  21.2425     528.4319    305.5588 -50.74     1.189     1.082   0.0847        126     41.20319
 6.01    407.6977  22.3233     195.2987    281.6329 -82.40     1.007     0.467   0.2425        127     43.60536
 7.28    415.6719  21.6952     348.2639      2.5615  28.95     1.141     0.754   0.1771        128     56.79468
 7.80    404.5128  21.7632     327.1414    526.8889  -1.99     0.784     0.499   0.1675        129      50.4634
 3.50    425.0124  19.0809     3869.398    926.1458 -46.76     1.635     1.521   0.0160        130     57.09282
 3.50    461.8470  15.1646     142617.7    807.3679 -54.81     2.148     2.048   0.0006        131     75.75114
 7.26    413.7131  22.1286     233.6384   1562.2982 -60.78     1.155     0.451   0.2512        132     54.03748
 3.50    438.7642  17.5347     16073.22    251.9271 -54.88     1.813     1.728   0.0043        133     64.09712
 4.91    421.8596  20.6916     877.7545    158.7295  50.88     1.660     1.444   0.0970        134     78.39442
 5.46    412.6987  23.2302     84.70972    199.3263  43.64     0.560     0.342   0.3256        135     25.39935
 9.12    415.3152  22.3691     187.2247    558.6304  42.89     0.584     0.328   0.2342        136     40.37072
 6.12    419.5396  21.9605     272.7778   1203.5216  13.28     1.222     0.608   0.2189        137     54.97191
 3.50    433.6358  20.3284     1226.428   1421.9036 -17.73     1.428     1.337   0.0444        138     50.12585
 6.05    427.7109  21.2489     525.3582   1179.3110  20.69     1.296     0.986   0.1460        139     70.64876
 5.64    420.6244  22.7098     136.8037   1579.7715  17.88     0.757     0.446   0.2697        140     33.97702
 7.11    424.8950  21.9011     288.1119   1063.8502 -46.61     0.815     0.670   0.2072        141     54.97191
 6.86    431.8513  21.4890     421.1068    717.7710 -64.55     0.930     0.895   0.1680        142     65.14796
 5.00    434.9498  21.2526     523.5742    151.0015  25.47     1.154     0.980   0.1127        143     54.35074
 4.46    468.5386  18.3736     7422.975    850.1890  22.22     7.442     1.903   0.0254        144     173.4454
 3.51    451.1122  18.7778     5115.388     21.1382 -39.37     1.703     1.572   0.0126        145     59.42409
 5.35    446.1109  20.6825     885.1393    122.1262 -32.70     1.653     1.204   0.0967        146     78.82635
 7.20    434.6680  22.7141     136.2568    353.3013  46.61     0.562     0.341   0.2501        147     31.37942
 3.57    448.0235  20.7527     829.6637    884.3464  -1.26     2.252     1.419   0.0863        148     65.92511
 3.50    458.6750  18.6701     5648.761     34.3958 -60.50     1.679     1.537   0.0112        149     58.27011
 5.33    444.1706  22.8510     120.1196    654.5854 -70.39     0.757     0.448   0.2933        150     32.44342
 3.53    464.5988  19.9124     1798.967    468.4730 -73.92     1.596     1.441   0.0332        151     54.97191
 4.28    453.8176  22.3612     188.5828   1533.1399  37.42     0.790     0.678   0.1898        152     32.96255
 5.10    461.9113  21.2947     503.6198   1096.1396  54.35     1.156     1.063   0.1263        153     58.56074
 3.50    472.0582  20.1379     1461.691    254.1115 -72.83     1.524     1.321   0.0380        154     51.13182
 5.22    462.3787  21.8556     300.4543    724.6503 -28.34     1.116     0.728   0.1724        155     47.69614
 7.22    457.7005  22.6460     145.0743   1223.6603 -42.96     0.565     0.339   0.2389        156     31.91586
 3.50    472.9619  19.7192     2149.442    734.7728 -38.58     1.496     1.347   0.0258        157     51.13182
 3.50    478.7596  19.4223      2825.51    922.8173 -35.41     1.544     1.447   0.0208        158     54.03748
 3.92    478.7934  20.6072     948.7179   1276.8331 -53.38     1.380     1.256   0.0608        159      53.0866
 4.44    476.5136  22.4692     170.7378   1168.0371 -89.76     0.813     0.676   0.2161        160     33.97702
 4.27    533.7934  17.2580     20739.54    518.6295  28.40     4.107     3.566   0.0088        161     168.3795
 3.50    484.9557  20.3381     1215.531   1070.4277 -66.11     1.365     1.226   0.0416        162     46.61609
 7.96    473.4778  22.3849     184.5258    781.5225  45.02     0.505     0.494   0.2473        163     42.01918
 4.94    496.9649  19.6005     2397.827     82.5904  56.28     2.338     2.068   0.0509        164     112.3873
 5.19    489.7222  21.0416     635.8462    839.5610  85.43     1.974     0.945   0.1251        165     73.24439
 4.09    496.5237  19.6987     2190.413   1186.6776 -15.91     2.961     1.842   0.0489        166     98.71583
 4.58    481.6935  22.1324     232.8306   1309.1306  71.28     0.894     0.694   0.1782        167     38.21027
 3.62    479.8593  22.2022     218.3352    682.6145  17.68     1.030     0.720   0.1587        168     31.91586
 5.99    481.6788  22.5474     158.8745   1520.4889  -0.10     0.921     0.467   0.2760        169     40.37072
 3.50    513.2880  17.8512     12009.21   1302.2382 -66.23     1.839     1.727   0.0062        170     68.47414
 3.73    505.2572  20.4479     1098.585    763.0609  35.25     1.787     1.614   0.0647        171     65.40804
 3.50    516.2645  19.3415     3043.683   1460.9927  24.44     4.349     1.624   0.0344        172     96.27802
 3.50    502.7133  20.9792     673.4613    863.5478  86.67     1.248     1.114   0.0697        173     43.21427
 3.50    498.6334  21.7846     320.7377    366.2104 -49.91     1.014     0.951   0.1200        174     35.44432
 3.93    502.3745  21.6415     365.9149   1310.0952 -19.71     1.173     0.897   0.1223        175     41.20319
 4.28    514.1793  20.2314     1341.003   1310.0308  82.91     1.494     1.427   0.0409        176     50.49008
 3.50    514.5804  20.9845      670.176   1179.1089 -56.89     1.341     1.068   0.0681        177     42.01918
 5.57    510.5956  20.7817     807.8052    164.3583  -2.33     2.204     1.004   0.1149        178     85.44076
 4.19    520.3478  21.3841     463.8123    641.4071 -66.00     1.226     0.908   0.1066        179     45.51041
 8.37    511.4778  22.2327     212.2947    453.4842  44.04     0.503     0.496   0.2150        180     42.01918
 3.50    519.1760  22.3039     198.8195   1518.8837  43.20     0.828     0.669   0.1459        181     26.70272
 3.50    588.6913  14.2608     327859.7   1315.8531 -46.59     2.329     2.162   0.0003        182     81.57816
 8.13    521.5092  22.3891     183.8009    854.4668 -59.60     0.500     0.498   0.2483        183     42.01918
 4.34    541.0020  19.8877     1840.414    999.7307 -58.21     1.569     1.410   0.0394        184     66.69319
 4.50    536.8311  21.8361     305.8877    404.4706  47.38     1.380     0.681   0.1589        185     44.75812
 6.50    545.6520  21.5852     385.3915    933.8276  70.97     1.235     0.753   0.1843        186     65.40804
 3.50    631.9619  14.0074     414053.9    483.1478 -47.23     2.858     2.668   0.0003        187     99.74236
 3.70    559.8239  19.6195     2356.087   1041.5421 -18.76     1.577     1.488   0.0273        188     59.13771
 3.50    573.4060  18.4142     7149.935   1242.7255 -48.70     1.761     1.644   0.0094        189     61.66729
 4.47    597.4254  18.4703     6790.355    782.7070 -83.48     3.545     3.355   0.0256        190     159.7919
 4.22    571.6400  20.0598     1570.653     45.6350  59.09     1.992     1.404   0.0506        191     73.24439
 4.18    556.2180  22.4791     169.1877    778.7782  45.57     0.804     0.683   0.2049        192     31.91586
 3.50    581.4234  18.1114     9450.511    144.8262 -85.18     1.779     1.649   0.0070        193     61.11421
 3.50    572.2832  20.0499     1585.029   1448.0365  21.10     2.736     1.688   0.0534        194      77.9601
 3.95    565.5809  21.5139     411.5709    139.6900 -53.99     1.148     1.009   0.1140        195     43.21427
 3.50    582.9928  18.1048     9507.704    318.9863 -39.14     1.741     1.667   0.0069        196     60.83578
 6.38    563.6564  21.8768     294.6449    905.5596   5.49     1.049     0.627   0.1968        197     53.40544
 5.58    575.7251  20.1918     1390.805   1336.6144 -63.76     1.448     1.293   0.0612        198     78.39442
 6.82    576.9731  20.7053     866.7444   1001.5249 -66.98     1.399     1.121   0.1112        199     88.75439
 3.50    585.4980  20.9189     711.9292     75.9934  34.12     1.282     1.160   0.0677        200     44.37719
 5.61    576.2507  22.9253     112.1741    549.0676  -3.84     0.664     0.432   0.3038        201     31.37942
 7.52    579.6700  22.7681     129.6456    740.6813 -45.54     0.569     0.338   0.2846        202     33.97702
 4.02   1002.4446  20.2491     1319.339   1555.2887 -75.10     1.475     1.318   0.0477        203     57.97803
 4.61   1597.9525  20.7728     814.4829    655.1014 -32.85     1.793     1.294   0.0830        204     62.21545
 5.62   1595.9124  20.9124     716.1764    374.0342  41.13     1.272     1.258   0.1042        205     68.69945
 6.88   1594.0922  21.5408      401.502   1384.9441 -19.49     1.473     0.518   0.1668        206     61.66729
 6.99   1592.8507  22.0042     262.0231    567.1038  41.77     0.836     0.671   0.2253        207     54.35074
 3.51   1571.3456  19.9965     1664.983     92.7359 -46.28     1.463     1.342   0.0334        208     51.13182
 3.50   1523.4841  23.0765     97.58826     14.4994  44.62     0.509     0.490   0.2246        209     20.18536
 3.50   1515.7332  18.2858      8048.07    392.7216 -44.48     1.718     1.630   0.0083        210     61.66729
 5.42   1516.1362  21.3577     475.2513   1547.0354  59.82     1.454     1.004   0.1559        211     68.20341
 6.41    952.6561  23.0550     99.54089    886.7118 -47.95     0.561     0.340   0.3179        212     29.13506
 3.50    950.6980  22.2966     200.1577    267.9047  28.11     0.947     0.863   0.1788        213     32.96255
 3.53    948.7698  21.7893     319.3738    445.2767  -8.36     1.064     0.910   0.1189        214     34.96207
 3.50    947.9496  22.5975     151.7059    133.2829  89.95     0.730     0.666   0.1818        215     25.39935
 3.72    939.9116  19.8706     1869.599   1067.0671 -40.96     1.543     1.337   0.0319        216     54.97191
 7.61    942.2944  22.4765     169.5962    725.6536  42.39     0.565     0.339   0.2176        217     33.97702
 7.42    939.1722  20.9149     714.5457    515.9601  26.90     1.278     0.921   0.1259        218     82.81739
 3.50    930.5093  17.6134     14949.43   1178.4397 -63.94     1.809     1.764   0.0047        219     64.09712
 5.70    933.8318  22.0490     251.4135   1118.5709  12.09     0.875     0.614   0.1850        220     42.81961
 7.04    933.5328  23.0099     103.7645   1027.5371  45.25     0.516     0.481   0.3659        221     34.96207
 4.76    929.1013  20.3789     1170.666   1322.4060 -85.48     1.407     1.267   0.0609        222     65.66708
 6.25    926.4553  22.3372     192.8075    665.7037 -88.92     0.928     0.456   0.2434        223     43.21427
 8.62    926.6777  22.5903     152.7113    934.3347  44.43     0.573     0.336   0.2780        224     39.08878
 5.11    926.6449  23.1577     90.55615     46.6976 -47.40     0.572     0.335   0.2615        225     21.80268
 6.33    919.9985  22.7559     131.1097   1027.5399  56.68     0.762     0.323   0.2730        226     32.96255
 8.42    918.4757  22.2382     211.2029    252.9750  32.09     0.796     0.313   0.2161        227     42.01918
 4.47    913.5744  20.5314     1017.271    838.4932 -17.32     1.372     1.256   0.0652        228     61.11421
 4.51    913.3035  21.3863     462.8733   1000.9104 -11.44     1.225     0.979   0.1192        229     50.79871
 8.56    908.4130  21.7553     329.5084    658.8084 -20.19     0.749     0.447   0.1663        230      50.4634
 5.80    905.2918  21.3703     469.7433   1315.1288  40.86     1.390     0.833   0.1476        231     63.83171
 3.50    901.2191  18.5375     6382.438    302.8273 -74.09     1.691     1.589   0.0100        232     58.84993
 3.50    882.8359  14.1941     348624.4    183.6337 -36.29     4.129     3.698   0.0004        233     141.5376
 4.11    879.3942  18.3845      7348.54    224.3853 -89.82     7.579     1.983   0.0243        234     164.6066
 5.48    886.6755  20.6304     928.6182   1304.8312  69.25     1.659     1.272   0.0966        235     82.61214
 8.04    889.4891  22.1817     222.4961    680.4579  50.42     0.503     0.495   0.2051        236     42.01918
 4.55    896.9634  20.1593     1433.155    538.7819  -3.00     2.098     1.525   0.0632        237     83.43011
 4.20    886.5468  20.5971     957.5479   1500.5457   3.01     1.461     1.296   0.0667        238     58.84993
 4.40    885.8094  21.6574     360.6166    339.2329 -50.57     1.330     0.893   0.1479        239     49.09927
 5.88    879.0529  20.1236     1480.995   1177.1078  78.38     1.941     1.680   0.0806        240     109.9438
 4.58    878.3823  20.9947     663.9479    960.6887  83.41     1.256     1.192   0.0944        241     57.68447
 7.22    879.8236  22.2144     215.8893    673.3711   4.42     0.996     0.374   0.2232        242     44.37719
 4.95    877.6362  22.0514     250.8707    541.8445 -68.79     0.889     0.666   0.1711        243     39.52071
 4.43    870.1768  19.3556     3004.308   1103.6156 -61.56     2.074     1.779   0.0318        244     87.98594
 3.50    860.0833  14.3751     295091.4   1224.4911 -47.68     2.319     2.159   0.0003        245      80.5309
 5.29    868.6845  20.3462      1206.46    939.5432  25.12     1.995     1.411   0.0828        246     91.94868
 5.10    870.6064  21.8193      310.661    643.5370 -54.39     1.037     0.813   0.1704        247     48.75227
 3.90    889.3626  21.0200     648.6589    325.6322  17.18     1.630     1.281   0.0976        248     58.27011
 7.64    867.6809  22.8267       122.83    454.3147  45.23     0.563     0.341   0.3004        249     33.97702
 4.34    892.3138  23.2109     86.22729   1453.3175 -44.80     0.562     0.341   0.2542        250     20.18536
 8.00    898.5093  22.2859     202.1416    987.5135  45.27     0.505     0.495   0.2257        251     42.01918
 3.50    881.0706  15.4027     114530.7   1592.5045 -66.40     2.127     1.980   0.0007        252     74.84931
 5.35    900.5183  23.1850     88.30493    379.4817 -45.00     0.511     0.488   0.3511        253     28.54641
 4.33    860.3961  20.5958     958.7104   1157.4747  -1.20     1.415     1.294   0.0689        254     60.83578
 6.61    861.1950  22.4890     167.6548   1554.1703  42.07     0.759     0.567   0.2948        255     45.51041
 4.62    859.2386  20.7801      809.032   1339.8370 -46.16     1.590     1.265   0.0909        256     67.70375
 4.33    894.8569  21.4037     455.5347   1425.8367 -39.54     1.211     1.023   0.1179        257     49.44383
 3.94    856.4521  22.1641     226.1333    545.3185  83.02     1.014     0.653   0.1583        258     32.96255
 6.69    845.8800  20.2444     1325.035   1206.5642  85.17     1.807     1.294   0.0866        259     105.6924
 4.64    845.9662  21.0430       635.01   1063.6742  89.16     1.197     1.105   0.0935        260     54.66221
 8.32    847.6516  22.2934     200.7412    358.7094 -47.94     0.564     0.339   0.2043        261     37.76335
 4.01    844.1765  20.2818     1280.225   1106.0085  18.02     1.649     1.396   0.0532        262     62.75883
 5.35    838.6929  19.6909     2206.113   1247.0768 -32.77     2.123     1.570   0.0498        263     101.0949
 3.50    837.3973  20.3587     1192.682    298.6949 -26.40     1.378     1.249   0.0431        264     47.33886
 5.57    837.5710  22.1944     219.9159   1520.2875   7.21     0.957     0.484   0.1994        265     40.37072
 4.33    836.5140  21.6148     375.0565    819.0198  -0.57     1.082     0.929   0.1307        266     45.13583
 3.50    823.7377  18.5139     6522.816    654.3710 -54.11     1.702     1.624   0.0100        267     59.99275
 5.65    820.7242  21.8506     301.8156   1398.2626 -45.46     1.033     0.755   0.1852        268     51.46277
 6.21    819.5537  21.8543     300.8069    702.4227  75.71     0.930     0.814   0.2029        269     56.19366
 3.50    803.8622  18.5824       6124.2   1378.6096 -21.73     1.740     1.702   0.0109        270     61.66729
 3.50    799.2562  17.4304     17694.21    695.5490 -86.67     2.594     1.857   0.0048        271     78.82635
 3.50    801.5494  19.4779     2684.385     41.1097 -47.21     1.556     1.367   0.0215        272      53.0866
 3.50    786.3645  22.7650     130.0215   1348.2412  16.84     0.742     0.450   0.1755        273     21.00959
 4.73    774.9242  19.3225      3097.44   1427.4871 -80.02     2.969     2.204   0.0437        274     124.7035
 3.50    767.5738  20.2683     1296.223    391.7379 -67.87     1.399     1.279   0.0408        275     48.75227
 6.61    768.5201  21.5639     393.0259    140.3967 -55.99     1.096     0.753   0.1727        276     62.48773
 8.06    759.9716  22.3006     199.4095   1020.4913  57.79     0.794     0.314   0.2288        277     42.01918
 8.05    758.7314  21.5111     412.6298   1341.6193 -19.11     0.999     0.595   0.1680        278     63.83171
 7.71    755.4391  21.5977     380.9918    195.3306  50.93     1.281     0.507   0.1842        279     64.62468
 6.87    754.6496  22.7406     132.9686    433.6602 -45.40     0.587     0.327   0.2473        280     30.27804
 8.17    753.2500  22.1580     227.4082   1080.7517 -18.40     0.867     0.354   0.2244        281     46.97887
 3.94    743.5427  20.1846     1400.082    556.2998 -21.20     1.383     1.282   0.0422        282     54.35074
 3.50    724.9424  14.0378     402587.1    404.7045 -46.93     2.406     2.206   0.0002        283     83.22636
 4.90    738.9064  21.0555     627.7943   1157.9508   1.73     1.220     1.143   0.1033        284      59.7091
 5.69    736.8120  20.6976     872.9103    649.5158 -57.46     1.284     1.211   0.0917        285     73.70651
 3.50    727.4276  15.9595     68578.81    848.3037 -42.83     2.120     2.006   0.0012        286     74.16574
 4.33    728.2363  20.3498     1202.534   1178.2656 -71.71     1.497     1.275   0.0559        287     61.94198
 6.81    740.3104  22.5823     153.8414   1272.3551 -43.06     0.576     0.333   0.2137        288     30.27804
 6.41    722.1498  21.0961     604.7556   1394.6674  67.01     1.174     1.065   0.1340        289     74.62215
 4.03    716.7179  20.2307     1341.879    808.2800 -58.15     1.484     1.251   0.0460        290     56.79468
 5.19    709.5805  19.9662     1712.129   1163.7408  10.74     1.443     1.381   0.0483        291     76.19806
 4.50    704.9365  19.9514     1735.623   1339.0225 -35.32     1.746     1.681   0.0497        292     79.46984
 3.50    707.9461  22.5601     157.0273    794.6355  86.27     0.715     0.646   0.1662        293     24.02538
 3.92    703.4935  19.4962      2639.49    952.2862 -18.86     1.625     1.545   0.0265        294     64.36144
 4.48    699.7203  21.2024     548.3467    582.8018   2.02     1.869     0.964   0.1232        295     62.21545
 5.28    692.6083  20.8843     734.9973   1213.5952  57.54     1.506     1.276   0.0848        296     57.38646
 5.60    687.6442  21.4114     452.3135   1213.6564 -40.15     1.307     0.976   0.1027        297     42.75916
 4.40    693.6906  23.0541      99.6261   1316.2979  45.71     0.551     0.345   0.2200        298     20.18536
 5.78    692.8769  22.0945     241.1119    316.1330  48.88     0.828     0.663   0.2050        299     45.51041
 4.67    684.0256  19.4452     2766.432    472.4936  52.83     2.910     2.718   0.0535        300     136.1577
 3.57    686.2902  19.8197     1959.474    644.0512  42.53     1.531     1.435   0.0303        301     54.66221
 3.50    688.1401  22.4638     171.5887    130.8793  46.46     0.805     0.656   0.1608        302     25.39935
 4.57    682.3370  19.8422     1919.238    543.4663 -63.27     2.121     1.519   0.0481        303     85.04243
 5.25    673.8572  22.5440     159.3713    231.1585  61.85     1.162     0.421   0.2634        304     38.65202
 6.74    669.7614  21.5161     410.7274   1221.3247 -22.02     0.974     0.859   0.1695        305     64.09712
 6.71    667.3170  22.1906     220.6848   1180.0011   2.17     0.731     0.668   0.2347        306     47.69614
 3.50    649.1271  15.9867     66880.68   1464.2974 -58.66     2.075     1.942   0.0012        307     72.77935
 4.97    655.4444  21.1467      577.167    870.9727   6.69     1.205     1.054   0.1085        308     57.68447
 3.50   1551.7955  21.6426     365.5726   1221.6729 -32.21     1.026     0.978   0.1067        309     35.92011
 4.14    646.8544  21.8098     313.3796    652.7488  27.70     0.962     0.824   0.1324        310     38.21027
 3.50    640.5812  18.0268      10215.6    536.7190 -68.30     1.775     1.691   0.0067        311     62.75883
 7.03    642.0137  22.3619     188.4766    276.5096 -87.93     0.787     0.499   0.2601        312     45.13583
 5.15    631.7795  20.8353     768.9274    805.9449 -67.46     1.254     1.124   0.0883        313     62.48773
 4.72    629.6339  22.8217     123.4049    941.6058 -21.03     1.042     0.326   0.2459        314     27.94536
 5.45    624.2540  20.1569     1436.236   1581.3296 -24.63     1.442     1.261   0.0578        315     76.42053
 6.97    619.1545  21.2144     542.3247   1151.0912  43.65     1.117     0.934   0.1476        316     73.70651
 7.27    616.4916  22.6095     150.0359   1234.5254 -74.41     0.500     0.499   0.2798        317     38.65202
 7.54    610.1631  21.8521     301.4103    944.9097  41.60     0.839     0.661   0.2057        318     57.09282
 3.50    608.4720  22.7161     136.0062   1011.9153   4.20     0.785     0.497   0.1861        319     23.30804
 3.50    606.2894  20.4696     1076.822    586.0947 -31.41     1.357     1.343   0.0488        320     48.40279
 3.50   1562.1376  20.5702       981.53    861.4935   5.33     1.262     1.158   0.0474        321     42.81961
 5.98   1529.5508  22.1001     239.8666    733.3308  32.68     1.023     0.681   0.2360        322     52.11837
 5.15    589.1851  22.6910     139.1869   1139.4061  71.47     0.742     0.454   0.2318        323     29.71204
 4.94   1566.7651  20.0481     1587.659    784.6982 -84.12     1.821     1.377   0.0558        324     81.57816
 5.83   1581.9138  22.1026     239.3092   1414.7047  68.45     1.253     0.472   0.2065        325     45.51041
 3.51   1553.5024  17.0625     24830.35    682.1384 -29.96     4.698     3.910   0.0068        326     154.8275
 3.50   1585.7356  20.3169     1239.426   1108.8071 -45.53     1.410     1.206   0.0412        327     46.97887
 3.50   1564.5630  16.1106     59672.43    304.2780 -45.84     1.966     1.875   0.0013        328     69.19193
 3.53   1542.6790  19.1751     3547.772    135.1462 -57.03     1.585     1.524   0.0173        329     56.49497
 7.41   1576.4824  22.5952     152.0295   1491.4977  44.73     0.516     0.483   0.2761        330     38.65202
 3.50   1586.8705  22.2972     200.0463   1069.2076 -26.32     0.977     0.733   0.1674        331     30.83364
 3.50   1558.8706  16.1199     59164.02    487.7123 -43.24     1.943     1.876   0.0013        332     68.69945
 3.59   1562.9105  22.3989     182.1584   1566.5850 -28.67     1.434     0.440   0.1702        333     28.54641
 8.06   1565.3141  21.9733     269.5809    386.6744  64.22     0.775     0.483   0.2046        334     50.79871
 3.50   1567.4845  19.7757     2040.485     22.0536 -35.09     1.501     1.336   0.0277        335     52.11837
 3.50   1546.9426  20.8020     792.8906    863.4279  79.12     1.442     1.277   0.0672        336     49.09927
 4.21   1536.6472  21.4793     424.8749   1429.4083 -57.98     1.567     0.952   0.1365        337     53.40544
 3.80   1543.5000  19.5891     2423.062    654.6492 -44.43     1.543     1.391   0.0259        338     57.68447
 7.78   1477.6925  22.4259     177.6746    198.6753 -44.09     0.562     0.341   0.2196        339     35.92011
 4.68   1533.0137  21.1429     579.2338    415.7943 -28.03     1.657     1.117   0.1217        340     64.88685
 4.87   1519.6189  21.3539     476.9335     84.3914  80.11     1.501     0.882   0.1300        341     57.09282
 7.56   1502.3057  22.6806     140.5284   1412.6653  43.54     0.566     0.339   0.2626        342     33.97702
 5.85   1525.2084  21.8010     315.9498    378.9753  80.66     1.380     0.702   0.2052        343      59.7091
 6.91   1539.6632  22.7725     129.1177    263.3266  45.45     0.576     0.334   0.2547        344     30.27804
 7.05   1527.5273  22.8830     116.6252    878.5313  49.71     0.500     0.498   0.3301        345     35.44432
 5.74    951.5252  20.4378     1108.832    654.1403  78.51     2.123     1.347   0.0980        346     100.0822
 6.67   1504.6394  22.3780      185.688   1312.1968 -60.46     1.233     0.361   0.2705        347     46.25047
 3.50   1508.0370  16.7830      32121.6    269.3830 -51.48     1.875     1.773   0.0022        348     65.92511
 6.75   1521.7552  22.1800     222.8401   1100.5942 -83.82     0.997     0.482   0.2324        349     47.69614
 4.14   1515.3909  21.3669     471.2256    483.6699 -45.90     1.145     1.021   0.1049        350     45.51041
 5.57   1499.2957  21.7810     321.8131    844.5074  14.72     1.147     0.828   0.1906        351     56.49497
 7.80   1497.3391  22.4037     181.3448    930.6786  45.79     0.575     0.335   0.2094        352     34.96207
 5.15   1504.9111  20.5819     971.0081    723.3754 -14.58     1.267     1.119   0.0708        353     63.29754
 5.01   1483.2747  20.9914      665.934    575.1030 -33.51     1.906     1.010   0.1172        354     71.84022
 5.75    977.4967  22.7163     135.9866   1280.5354  84.64     0.500     0.499   0.2280        355     28.54641
 4.78    953.0150  22.4425     174.9884     61.2813 -34.44     1.174     0.434   0.2170        356     34.96207
 5.50    979.2097  21.3829     464.3571    452.6703  73.39     1.079     0.952   0.1335        357     57.09282
 5.78    982.8316  22.4892     167.6138   1487.1891 -47.73     0.766     0.557   0.2504        358     38.65202
 7.72    972.4925  22.6659     142.4395   1499.4553 -53.16     0.502     0.495   0.3173        359     41.61318
 6.56   1489.0807  22.0320     255.3835     77.8819 -75.41     0.962     0.688   0.2377        360     55.89073
 5.46   1476.3274  21.3617     473.4916    998.5892  -9.60     1.603     0.944   0.1587        361     69.19193
 4.69    987.5121  20.2220     1352.684    453.9747  88.37     1.715     1.484   0.0619        362     77.08411
 3.50    965.8497  21.5906     383.5015    416.2971 -35.18     1.233     0.947   0.1107        363     39.08878
 4.19   1479.4890  23.6339     58.40283    638.4839  46.79     0.501     0.499   0.3753        364     20.18536
 5.38   1439.3828  21.7124     342.7936   1271.1970  84.54     1.095     0.914   0.1771        365     55.89073
 3.50    985.6581  16.8850     29242.71    558.4474 -60.54     1.860     1.774   0.0024        366     65.14796
 3.50    998.9910  22.1678     225.3518    233.2787 -18.29     1.047     0.720   0.1512        367     31.37942
 5.84    981.6761  20.3940      1154.55    797.9857 -22.91     1.536     1.395   0.0824        368     87.59919
 4.79   1407.2278  21.1529     573.9178    329.8878  77.17     1.283     1.109   0.1130        369      59.7091
 5.76   1453.8417  21.6992      346.999    391.7621  21.98     1.190     0.813   0.1833        370     58.56074
 4.31   1060.6309  20.6891     879.7427    726.9678  18.85     1.586     1.368   0.0804        371     65.14796
 5.67    993.0269  22.7178     135.7898    500.0000  90.00     0.838     0.289   0.2235        372     27.94536
 5.19   1065.3551  22.3580     189.1443    292.5060  -0.67     0.931     0.478   0.2089        373     36.38968
 6.48    992.5980  22.5640     156.4608      9.8381  20.92     0.779     0.432   0.2652        374     38.21027
 3.50   1063.8134  21.5172     410.3052      7.4519 -49.92     1.309     0.988   0.1091        375     41.20319
 5.81   1439.4318  21.8824     293.1266    646.8270  47.40     1.087     0.718   0.1967        376      53.0866
 3.50   1436.1301  19.1792     3534.412    224.7948 -34.44     1.604     1.459   0.0172        377     55.89073
 3.50   1440.6519  19.5850     2432.179    619.1653   9.05     1.445     1.337   0.0227        378     50.79871
 3.50   1084.5770  21.7286     337.7131     43.0163  33.22     1.129     1.014   0.1243        379     38.65202
 8.23   1450.7783  21.9980     263.5171     88.3631 -73.90     0.748     0.452   0.2052        380     49.78601
 3.50   1386.5995  22.0576     249.4447   1274.1162 -79.55     1.184     0.678   0.1435        381     32.96255
 3.50   1073.9574  21.2654     517.4141      6.6659 -10.48     1.253     1.042   0.0865        382     41.20319
 3.50   1435.2332  15.1490     144673.2   1090.4421 -47.26     2.094     1.972   0.0006        383     73.93649
 7.30   1432.6862  20.9226     709.5211    341.5507  -7.52     1.510     1.030   0.1438        384     93.95773
 6.66   1069.3281  23.1885     88.02637   1182.6630  44.61     0.577     0.334   0.3735        385     30.27804
 3.89   1416.2998  20.0112     1642.569   1386.6493  19.76     1.425     1.377   0.0368        386     55.58614
 3.50   1389.6022  18.4009     7238.156   1428.5128 -35.92     1.644     1.588   0.0087        387     58.27011
 4.22   1437.3093  22.1653     225.8843   1347.0366  73.00     1.028     0.724   0.1794        388     37.31108
 3.50   1067.5095  22.0464     252.0151    568.8696 -74.17     1.051     0.731   0.1398        389     32.44342
 4.53   1079.9409  21.3840     463.8635    330.0615 -62.65     1.125     0.943   0.1125        390     48.05077
 3.52   1393.0532  20.0260     1620.243   1038.7660  36.71     1.381     1.366   0.0331        391     49.44383
 4.20   1066.6592  21.5124     412.1527   1597.1162  36.70     1.159     0.981   0.1169        392     44.37719
 5.29   1072.8472  19.7182     2151.404   1219.1344 -71.81     2.172     1.586   0.0509        393     100.9268
 6.74   1414.8446  22.2987      199.762      1.3369  76.87     1.069     0.416   0.2028        394     37.31108
 3.50   1420.1652  17.3966     18254.69   1126.3615 -58.87     1.926     1.752   0.0040        395     66.69319
 4.51   1360.4252  17.6178     14890.07   1135.0798  85.51     6.676     5.131   0.0142        396     195.1847
 7.40   1079.6525  22.5100     164.4297    921.6893 -46.67     0.573     0.335   0.2177        397     32.96255
 5.62   1412.1393  20.9589     686.1909    350.1120  23.37     1.424     1.101   0.1152        398     72.77935
 3.50   1409.1057  19.5371      2542.01    308.4276  -7.76     1.523     1.467   0.0231        399     54.03748
 3.50   1367.0492  14.1696     356584.6   1159.7756 -48.42     3.323     3.056   0.0004        400      115.516
 3.50   1162.6458  21.2511     524.2604    887.7574 -42.33     1.404     1.128   0.0927        401     44.75812
 4.68   1096.1305  20.5153      1032.52   1526.4138 -79.64     1.384     1.254   0.0680        402     64.62468
 5.79   1401.4601  20.5766     975.7899   1031.5901  46.87     1.406     1.196   0.0860        403     77.30404
 3.50   1394.2668  15.7800      80908.3    114.4738 -48.42     2.040     1.936   0.0010        404     72.07615
 6.46   1389.5433  21.4133     451.5172    806.6446   0.13     0.949     0.941   0.1516        405     63.02876
 4.13   1391.2551  19.5143     2595.778    713.2373  26.66     1.497     1.456   0.0265        406     63.29754
 6.13   1388.2180  22.6762     141.1017   1384.9540   1.83     0.696     0.413   0.2653        407     34.47306
 5.41   1388.9937  22.9093     113.8368   1584.7758 -89.72     0.686     0.417   0.2889        408     30.27804
 5.53   1380.3506  22.0328     255.2057    318.5949  -4.36     1.034     0.628   0.1984        409     46.61609
 8.31   1094.4969  21.7617     327.5732    429.0226  -2.01     0.796     0.500   0.1812        410     54.66221
 5.88   1371.3206  22.4760     169.6725    705.8511 -32.13     1.214     0.408   0.2741        411     42.81961
 3.74   1371.5497  22.6866     139.7474   1215.7539  21.02     0.718     0.456   0.1754        412     22.56792
 7.57   1353.2751  20.7747     813.0535    152.0077  17.83     1.231     1.094   0.1218        413     91.20715
 9.28   1157.6599  22.6433      145.442    568.3308  45.39     0.579     0.332   0.3107        414     41.61318
 3.50   1105.3257  17.9955     10515.13    751.8358 -44.66     1.770     1.620   0.0064        415     61.66729
 3.50   1373.4700  18.1751     8911.743   1018.9562 -23.41     1.815     1.707   0.0078        416     64.09712
 7.83   1260.4321  20.9533     689.7111   1015.6125  58.28     1.971     1.064   0.1081        417     68.62856
 5.52   1294.2798  20.0601     1570.286    742.2533  72.75     1.481     1.308   0.0547        418     79.04143
 3.50   1292.2153  18.3996     7247.267    762.1052 -25.95     2.162     1.723   0.0105        419      70.1665
 7.56   1369.4689  22.2826     202.7543    149.4737  17.40     0.499     0.499   0.2117        420     39.52071
 6.99   1131.8344  21.2057     546.6675    359.0297  34.13     1.138     1.043   0.1557        421     78.39442
 3.50   1130.7366  17.5216     16269.34    183.5802 -57.92     1.787     1.711   0.0042        422     63.29754
 5.31   1331.2352  21.0365      638.843    386.9082   1.03     1.306     0.996   0.1058        423     62.21545
 3.50   1139.3163  16.8175     31117.38    148.0981 -46.09     1.899     1.811   0.0023        424     67.20037
 4.94   1346.4969  21.8390     305.0575    605.5798 -50.92     1.185     0.774   0.1772        425     49.78601
 4.18   1308.3901  19.3903      2909.88    669.6346 -12.17     1.506     1.500   0.0239        426     64.09712
 5.12   1333.5925  20.5128     1034.809    107.4225 -28.91     1.327     1.156   0.0689        427     65.66708
 3.50   1090.0750  19.3554     3004.966    642.4633 -46.35     1.578     1.413   0.0198        428     54.66221
 3.50   1320.9133  16.8510     30171.84    659.9951 -43.03     1.941     1.824   0.0025        429     68.45188
 5.13   1331.2213  20.3682     1182.315   1139.4135 -89.82     1.767     1.445   0.0772        430     84.03835
 5.43   1320.0242  20.8305     772.3508    264.0417 -45.50     1.309     1.038   0.0920        431     65.40804
 3.93   1330.7634  19.1205      3730.81    655.8417   4.85     1.684     1.650   0.0167        432     57.46028
 3.78   1278.8961  18.9720     4277.483   1331.4630 -56.91     1.622     1.533   0.0157        433     61.94198
 3.83   1305.5667  20.8687     745.5989    892.8640  77.78     1.231     1.139   0.0690        434     47.33886
 5.45   1245.3409  22.1146     236.6691    614.2117  55.72     1.066     0.800   0.2377        435     51.79161
 3.50   1299.2703  14.8468       191102    724.8672 -47.60     2.192     2.053   0.0004        436     77.30404
 4.36   1308.5709  19.3591     2994.649   1036.2755 -36.97     2.662     1.897   0.0367        437     101.2627
 8.09   1307.6787  22.5810     154.0298    574.6574 -44.07     0.576     0.334   0.2663        438     37.76335
 3.90   1273.5858  17.6955     13861.03    610.0049 -58.39     4.226     2.471   0.0102        439     129.6428
 4.25   1300.2339  21.8733     295.5752     54.0051 -29.97     1.122     0.858   0.1602        440     43.60536
 3.85   1263.1622  22.7350     133.6543    215.8559 -41.55     0.728     0.565   0.2117        441     26.05919
 5.39   1292.0193  22.2749     204.1891    545.9752 -45.38     0.899     0.525   0.1935        442     36.38968
 3.50   1293.9078  20.7674     818.5677    412.7370  23.44     1.287     1.129   0.0568        443     42.81961
 4.35   1260.2809  20.1488      1447.01    432.4522 -61.87     1.924     1.810   0.0625        444     83.22636
 6.02   1278.3990  22.1330        232.7    343.4074  -1.19     0.918     0.658   0.2243        445     48.05077
 5.31   1274.1146  21.5554     396.1248    698.3151 -74.17     1.243     0.866   0.1565        446     57.09282
 8.40   1158.6622  22.5132     163.9514    186.2973  47.11     0.563     0.340   0.2531        447     38.21027
 3.50   1266.2653  19.2802     3220.438    807.8691 -34.50     1.553     1.437   0.0183        448     54.35074
 5.63   1213.6493  19.6903     2207.446   1429.3060  77.16     2.725     2.083   0.0683        449     138.7514
 5.86   1238.9690  22.1362     232.0188    857.0435 -50.04     0.811     0.782   0.2266        450     48.40279
 5.05   1131.0317  20.8665     747.1375    219.3827 -20.53     1.568     1.132   0.1006        451     69.19193
 3.76   1235.1206  19.4086     2861.275    304.8844 -70.00     1.601     1.472   0.0226        452     59.42409
 6.60   1230.6104  20.3450     1207.828    599.0931  13.10     1.561     1.462   0.0928        453     103.2549
 5.15   1203.8763  19.8185      1961.54   1075.5712  37.43     2.022     1.572   0.0524        454     94.67773
 3.50   1238.0283  20.0476      1588.45   1553.5206 -12.61     1.431     1.370   0.0350        455     51.13182
 3.66   1243.3585  20.6453     915.9375    672.6531 -75.48     1.362     1.197   0.0574        456     48.40279
 3.50   1222.2170  13.3394       766037    995.1972 -29.50     6.401     5.215   0.0003        457      209.124
 5.50   1211.9683  22.8875     116.1475    829.0000  90.00     0.845     0.289   0.2613        458     27.94536
 3.50   1215.4215  17.6353      14651.2    513.0118 -59.01     1.744     1.692   0.0046        459     61.39137
 4.69   1154.6307  20.4404     1106.218   1353.0853 -56.52     1.612     1.412   0.0708        460     72.07615
 3.50   1219.7524  18.0809     9719.482   1195.0623  47.81     1.918     1.903   0.0077        461     69.19193
 5.03   1229.3567  21.3083     497.3478   1153.9326 -13.34     1.229     0.989   0.1253        462      57.3894
 3.50   1208.4735  20.1383     1461.108    838.8270 -35.35     1.394     1.273   0.0357        463     48.05077
 5.23   1195.7808  19.8089     1978.894    124.2719  85.27     1.875     1.703   0.0531        464     96.80558
 4.55   1205.1183  22.3421     191.9362   1217.1880 -44.51     0.858     0.657   0.2032        465     35.92011
 4.93   1262.9902  21.9331      279.756    855.3846   0.11     1.019     0.768   0.1723        466     44.37719
 4.38   1202.6338  19.9762     1696.303    339.0765 -83.95     1.516     1.396   0.0424        467     66.18213
 4.00   1238.4276  21.4935     419.3529     48.1247 -11.79     1.158     0.950   0.1129        468     43.60536
 5.56   1028.6923  23.0573     99.33374    463.6869 -44.70     0.557     0.343   0.2777        469     25.39935
 3.50   1211.5623  17.6295      14729.8   1279.0439  81.01     5.652     3.475   0.0118        470     160.5339
 5.62   1182.5493  21.1645     567.8021    176.5511   8.16     1.425     0.969   0.1304        471     68.20341
 5.57   1159.2971  23.2049     86.70044    970.3315 -43.15     0.560     0.341   0.3181        472     25.39935
 4.80   1183.5492  21.5458     399.6479    673.2097 -21.31     1.027     0.930   0.1325        473     48.75227
 4.30   1130.0508  21.1588     570.8169    547.4385 -65.12     1.184     1.024   0.0907        474     47.69614
 3.52   1152.1665  20.3435     1209.444     99.4363  -5.07     1.309     1.208   0.0412        475     45.88193
 7.58   1167.6770  21.9662      271.354   1599.3630  46.34     0.885     0.518   0.1649        476     41.20319
 3.50   1165.9740  16.2914     50515.64   1299.8141 -73.19     1.994     1.896   0.0015        477     69.43685
 4.29   1134.6660  21.9037     287.4189    607.3837 -45.52     0.986     0.862   0.1572        478     41.61318
 3.70   1173.1541  18.3742      7418.74    757.8781 -78.56     3.576     3.345   0.0193        479     131.9789
 3.50   1152.4623  14.3215     310029.8    693.8153 -37.57     3.504     3.217   0.0004        480     121.2523
 6.77   1169.6912  23.1595     90.40845    385.3456  43.30     0.572     0.336   0.3637        481     30.27804
 3.50   1181.6404  21.4406     440.3228    549.2858 -17.70     1.166     0.942   0.0920        482     37.31108
 3.62   1158.6710  18.6241     5893.559    236.4378 -45.47     1.660     1.640   0.0115        483     62.48773
 6.85   1197.1642  21.9696      270.499   1053.6813  19.67     0.936     0.685   0.2256        484     56.19366
 4.87   1201.8149  20.3477     1204.768   1442.1520 -87.53     1.659     1.491   0.0716        485     79.46984
 6.43   1178.4944  22.5575     157.3928   1597.7561  72.38     1.154     0.262   0.2511        486     36.38968
 7.15   1142.0636  21.5850     385.4846    661.8563 -73.51     0.961     0.718   0.1714        487     60.83578
 3.50   1080.7614  16.7478     33181.72    512.1377 -66.90     1.874     1.779   0.0021        488     65.66708
 5.41   1121.0293  19.4108     2855.512    329.8812  58.47     2.566     1.726   0.0446        489     117.2663
 3.50   1108.1862  18.4569     6874.171    427.9433 -54.08     1.692     1.627   0.0094        490     59.42409
 5.36   1111.4923  20.0685     1558.128    479.1404  -7.99     2.159     1.548   0.0705        491     101.0949
 5.31   1115.1155  20.9881     667.9977    674.4976 -60.84     1.343     1.079   0.1068        492     65.66708
 3.50   1095.7281  16.8491     30224.85    778.1761 -41.61     1.938     1.855   0.0025        493     68.69945
 5.17   1091.6051  20.9749     676.1375    468.4292 -68.10     1.906     0.987   0.1173        494     73.01224
 4.46   1105.9491  21.1553     572.6566    679.0923  38.97     1.516     1.082   0.1111        495     58.56074
 5.41   1095.1104  21.4944     419.0315   1136.4398 -85.66     1.091     0.933   0.1464        496     56.49497
 3.50   1082.6000  18.0905     9633.553   1148.1749 -75.07     1.756     1.711   0.0070        497     62.48773
 5.58   1040.7959  22.1652     225.8958    467.1765  60.45     1.002     0.638   0.2188        498     45.51041
 6.46   1085.8284  21.9703     270.3235   1452.5986  76.35     0.929     0.621   0.2041        499     50.79871
 6.13   1066.0032  20.0471     1589.133   1562.7290 -64.61     2.578     1.374   0.0815        500     119.2759
 7.78   1020.1995  21.7499     331.1693   1267.6206  25.73     0.733     0.656   0.1823        501     55.58614
 5.27   1004.8460  22.7913     126.9036   1237.8386  49.76     0.764     0.567   0.3074        502     35.92011
 7.53   1052.5183  21.8687     296.8406    238.0324  26.05     1.259     0.570   0.2421        503     66.18213
 3.50   1030.9935  20.0356     1605.987    302.5808  71.36     2.461     1.757   0.0508        504     75.07579
 5.74   1001.6425  23.2271     84.95215   1025.6887 -46.97     0.578     0.332   0.3331        505     26.05919
 7.86   1044.5297  22.3193     196.0085    809.4821 -44.15     0.509     0.490   0.2328        506     42.01918
 3.50   1039.5049  18.2582     8255.343    525.3945 -59.24     1.681     1.610   0.0080        507     60.55608
 8.77   1042.6610  22.4506      173.681   1095.3132  46.21     0.571     0.337   0.2524        508     40.37072
 3.50   1024.3846  13.8539     476920.1     50.1910 -43.62     2.321     2.148   0.0002        509     81.16087
 3.50   1041.0366  16.4812     42414.79    633.0386 -49.21     1.900     1.824   0.0017        510     67.70375
 3.50   1026.5739  17.3289     19428.49   1379.9857 -68.53     1.930     1.815   0.0038        511     67.70375
 5.52   1038.8489  21.1244     589.1499    121.9955 -35.31     2.009     0.803   0.1346        512     73.01224
 3.50   1010.6155  17.4847     16830.87    813.6567 -57.65     1.843     1.780   0.0042        513     64.62468
 5.79   1026.6541  23.2697     81.68262   1028.6674 -45.54     0.582     0.330   0.3550        514     26.70272
 7.37   1038.3229  22.9211     112.6018    242.3527 -43.78     0.581     0.331   0.3078        515     31.91586
 5.53   1014.3884  22.4873     167.9061    453.2856 -71.18     0.977     0.589   0.2770        516     42.81961
 3.50   1012.0173  19.6353     2322.164    344.6626 -58.15     1.552     1.358   0.0250        517     53.40544
 4.00   1000.6549  20.6343     925.3354   1273.9332 -43.42     1.549     1.290   0.0680        518     57.97803
 3.68   1002.4809  19.4779     2684.356    542.4350  72.62     1.531     1.462   0.0226        519     55.89073
 5.95   1020.8218  22.6437     145.3892   1154.6001  71.58     0.761     0.450   0.2787        520     37.31108
 4.18   1011.5944  22.0612     248.6025    268.0587 -42.84     1.170     0.663   0.1688        521     38.65202
