#   1 KRON_RADIUS            Kron apertures in units of A or B                         
#   2 Y_IMAGE                Object position along y                                    [pixel]
#   3 MAG_BEST               Best of MAG_AUTO and MAG_ISOCOR                            [mag]
#   4 FLUX_BEST              Best of FLUX_AUTO and FLUX_ISOCOR                          [count]
#   5 X_IMAGE                Object position along x                                    [pixel]
#   6 THETA_IMAGE            Position angle (CCW/x)                                     [deg]
#   7 A_IMAGE                Profile RMS along major axis                               [pixel]
#   8 B_IMAGE                Profile RMS along minor axis                               [pixel]
#   9 MAGERR_BEST            RMS error for MAG_BEST                                     [mag]
#  10 NUMBER                 Running object number                                     
#  11 FLUXERR_BEST           RMS error for BEST flux                                    [count]
 3.50    632.3937  12.2293      2129500   1391.4089 -65.63    51.892    22.597   0.0006          1     1112.728
 3.50    575.3050  14.1511     362715.3   1155.0331 -74.12    55.559    16.628   0.0036          2     1212.162
 3.50    207.1070  11.1686      5656531   1067.4913  64.57    86.042    43.977   0.0004          3     2086.734
 3.50    524.1910  14.8370     192849.7   1594.4073  89.81    80.108     7.698   0.0088          4     1567.017
 3.50    352.2237  11.9227      2824300    984.3736  88.58    41.879    20.017   0.0005          5     1253.438
 0.00    126.3779  13.1477     913971.2   1185.1979  55.75    48.539    13.166   0.0009          6     798.0066
 0.00    285.1797  14.0679       391585    570.8029  80.12    56.676    25.347   0.0037          7     1317.939
 3.50    318.9498  15.3775     117216.4   1594.4489  89.59    31.029     7.833   0.0105          8     1129.607
 3.50    352.2987  11.1800      5597367    814.0750 -89.28    64.800    49.905   0.0004          9     1886.314
 3.50    342.9372  11.3450      4808377   1428.3341  72.77    85.366    33.560   0.0005         10     2058.304
 0.00    447.7484  14.1172       374213    470.5728   1.22    54.144    18.316   0.0033         11     1124.281
 0.00    263.0558  14.6067     238413.9    248.3368  45.12    31.376     6.123   0.0027         12     587.1821
 0.00    125.2031  14.8960     182635.3    248.7520 -45.13    28.544     5.633   0.0032         13     531.4617
 3.50    191.5973  14.2905     319017.9    130.8463 -89.70    37.344    13.863   0.0039         14      1144.54
 0.00    194.0387  13.7502     524729.9    933.5316  -7.13    47.106    23.697   0.0028         15     1371.444
 0.00    139.1184  14.9438     174782.9    499.9589  38.28    19.180    13.532   0.0049         16     783.1646
 3.50    314.1973  12.1916      2204715    540.2120  83.80    37.410    21.433   0.0005         17     1003.516
 0.00    190.8270  13.7638     518201.4   1314.4304   5.62    47.530    21.209   0.0028         18     1323.708
 3.50     73.4941  14.7600     207006.8   1208.6843  57.58    17.553    14.495   0.0040         19     769.9937
 3.50    352.4911  11.7482      3316691   1253.1726 -87.21    45.599    22.246   0.0005         20      1401.79
 0.00     73.8024  14.8951     182800.8    437.4654  51.64    18.403    14.528   0.0047         21     786.5446
 3.92     54.0962  16.5455     39975.18     63.4768  10.66     5.140     4.701   0.0095         22     348.3876
 0.00     72.6345  14.8471     191049.3    200.0107 -48.39    17.614    14.668   0.0044         23     775.9044
 3.50     11.5145  14.2819     321537.2   1119.1783  -0.04    22.446     7.587   0.0020         24     603.3229
 3.50     11.5877  13.5321     641433.2    319.0648   0.06    34.890     7.614   0.0013         25     748.3129
 3.81     17.2858  18.6618     5691.962    984.7308 -89.73     4.479     2.062   0.0401         26     210.0857
 3.50      9.8526  17.9374     11092.86   1274.9840  -4.79    11.670     6.162   0.0460         27     469.5442
 3.50      9.5258  18.2565      8267.66    506.1042  -2.41    11.595     5.994   0.0606         28      461.607
 3.50     15.4403  18.1813     8861.021   1445.5632 -61.17     1.758     1.659   0.0134         29     109.4114
 7.47     10.9179  19.0682     3915.063    130.1242  74.01     4.257     3.835   0.1272         30     458.4391
 3.50      4.6718  20.1342     1466.672    142.7690  14.30     5.023     2.291   0.1407         31     190.0545
 3.50     18.7919  19.2452     3326.048     91.0600 -77.47     1.663     1.588   0.0335         32     102.5355
 7.04      4.8132  17.3570      18932.4    962.0982  12.55     6.250     2.303   0.0174         33     302.6932
 0.00    124.5287  15.2008     137934.6    386.7240  44.79    26.261     5.015   0.0038         34     484.2812
 3.50    190.9418  15.3215     123425.2    318.1088 -77.50    16.404    15.465   0.0072         35      822.294
 0.00    641.1682  12.3596      1888719   1240.7410 -89.87    71.011    27.165   0.0006         36     1060.189
 5.68     38.8928  22.9441     110.2473   1521.2972  57.82     1.153     0.680   0.8933         37     90.68324
 3.83     43.2823  22.0897     242.1603    915.3445 -44.85     1.175     0.701   0.2894         38      64.5273
 0.00    704.9387  12.8521      1199951    235.0789  13.31    94.136    49.677   0.0014         39     1558.349
 3.50     80.9651  16.5737     38950.93    537.4864 -58.28     1.900     1.806   0.0032         40     116.3282
 3.50     60.6879  16.8237     30939.76   1078.1769 -51.63     1.417     1.359   0.0031         41     87.17158
 9.57     79.3353  18.8720     4690.248   1330.2224  82.95     2.702     1.161   0.0710         42     306.5895
 8.69     68.3901  21.3767     466.9864    586.4158  36.89     1.732     0.627   0.3818         43     164.1963
 8.92     72.4635  20.0635     1565.327   1322.3820 -67.34     1.330     1.134   0.1376         44     198.3624
 9.56     77.4928  19.3363     3058.284   1341.5072  48.21     1.402     1.356   0.0848         45     238.8382
 9.34     72.8533  21.9725     269.7719   1343.9607 -39.94     1.264     0.721   0.2249         46     55.87336
 3.50     76.0080  20.7469     834.1144    127.7343  66.29     1.099     1.073   0.0881         47      67.6768
 9.05     73.3180  21.5481     398.7908    552.1580 -56.63     1.097     0.558   0.3481         48      127.839
 9.10     77.1741  21.9652     271.5955    563.8197 -44.27     0.741     0.568   0.4298         49     107.4917
 3.50    122.5935  16.1007     60214.91    788.9167 -56.78     2.111     1.967   0.0023         50     128.2455
 9.56     94.5249  19.0730     3897.761   1341.6290  53.63     2.220     1.480   0.0875         51     313.9702
 3.50    413.3260  12.0878      2425991    441.3543   4.39    40.873    22.594   0.0005         52     1160.296
 3.51     97.3153  19.8910     1834.885     56.0121  -7.93     1.526     1.413   0.0557         53     94.06389
 0.00    260.6163  99.0000    -24933.65    387.8619 -44.50    16.932    13.828  99.0000         54     968.5008
 3.50    582.1075  12.3707      1869497    562.1657  56.58    49.145    18.093   0.0006         55     1000.701
 3.50    308.8604  14.8334     193480.4    202.0692  41.35    18.069    14.019   0.0044         56     778.2726
 9.23    142.8268  20.4595     1086.893    632.3856 -63.60     1.426     0.584   0.1522         57     152.3582
 9.40    131.8801  20.8693     745.2331    636.6458 -18.42     0.940     0.662   0.1956         58     134.1951
 3.50    163.1101  16.7533     33012.63   1468.1348 -54.43     1.940     1.845   0.0039         59     119.4191
 0.00    372.4954  14.9396     175456.3    266.7413  51.99    19.324    13.530   0.0048         60      774.269
 3.50    171.3962  18.2221      8534.28    877.1403 -60.93     1.874     1.827   0.0115         61     90.19571
 9.27    162.4190  19.9687     1708.067    627.8748  55.17     2.083     0.761   0.1347         62     211.8128
 3.50    165.8175  21.3726     468.7772   1445.4894  -6.25     1.304     1.095   0.1737         63     74.97395
 8.10    169.1277  21.4535      435.105    651.5096 -36.47     0.877     0.672   0.2824         64      113.153
 7.42    211.6741  19.6437      2304.11    684.4976 -80.75     1.939     1.415   0.1048         65     222.3618
 0.00    204.2756  99.0000    -60.60889   1498.3649 -40.47     0.564     0.337  99.0000         66     24.99131
 3.50    266.7211  15.8431     76343.95     67.3803 -77.58     2.086     1.969   0.0018         67      127.839
 3.50    223.3653  21.6922     349.2301    774.7476 -14.32     1.202     0.965   0.2128         68     68.44154
 3.50    573.6757  12.7256      1348246    403.0563 -47.65    48.613    11.129   0.0006         69     802.7874
 3.50    865.1097  13.9293     444913.9   1092.7350  89.92    57.242    13.600   0.0032         70     1296.856
 3.50    282.7665  19.6028      2392.65   1522.1582 -48.32     1.232     1.175   0.0343         71     75.66496
 3.50    639.7369  14.4515     275038.6    636.6946  89.96    32.245    13.487   0.0042         72     1057.453
 3.50    859.5725  12.1260      2342035   1129.1223  89.97    38.850    19.198   0.0005         73     1037.083
 3.50    509.1489  14.3296     307709.8    895.3687   0.10    38.367    13.637   0.0042         74     1181.405
 3.55    322.8381  18.1795     8875.564    697.1180 -79.82     1.881     1.792   0.0145         75     118.5442
 6.85    309.7195  20.9579     686.8452     85.3593 -81.01     1.954     0.903   0.2601         76      164.513
 3.50    781.9080  12.5076      1648052    485.7255 -48.43    65.520    11.232   0.0006         77      847.382
 3.50    522.9290  14.7511     208714.9    567.1746  54.40    17.765    15.573   0.0040         78      761.024
 3.50    527.7264  15.1161     149128.3    393.2644 -53.62    18.499    12.799   0.0054         79     735.7466
 5.31    332.8576  21.8987     288.7438     93.4360  -7.84     1.068     0.836   0.3496         80     92.95067
 3.50    350.8567  20.7697     816.7955     54.4748 -39.34     1.290     1.224   0.1042         81     78.36813
 5.17    348.6103  22.6236     148.1076     42.2832 -59.05     0.983     0.545   0.5074         82     69.19781
 3.50    396.0051  16.4141     45117.44    231.3760 -58.46     1.942     1.870   0.0033         83     138.3436
 3.50    585.5182  14.8268       194656    330.9813 -38.39    18.651    14.146   0.0044         84     780.1287
 6.49    371.1452  22.4618     171.9095     71.4294 -16.35     1.203     0.716   0.6882         85     108.9346
 5.04    376.6147  22.5834      153.682     86.3850  23.02     1.364     0.457   0.4995         86     70.68611
 8.13    381.0482  20.8080     788.4945    125.7678 -10.18     1.120     0.731   0.1827         87     132.6346
 3.50    394.6075  22.0956     240.8486   1088.4695 -30.59     0.822     0.814   0.2390         88     53.01458
 3.50    399.1318  20.6982     872.4059    354.2560 -28.33     0.799     0.753   0.0622         89     49.98263
 3.50    714.4188  13.1780     888777.6    303.3004  88.46    27.358     8.482   0.0007         90     575.0033
 6.88    415.6718  20.8280     774.1224      2.5615  35.62     1.257     0.741   0.1380         91      98.3909
 0.00    755.6658  14.6715     224595.1    564.8073  42.18    42.460    18.615   0.0039         92     816.2125
 5.03    421.8590  20.4986     1048.442    158.7348  50.62     1.661     1.444   0.1457         93      140.634
 3.50    438.7731  17.7981     12611.12    251.8895 -55.52     1.557     1.482   0.0083         94     96.25172
 6.58    428.0669  19.5832     2436.331   1179.5779  41.70     1.584     1.054   0.0482         95     108.1052
 0.00    684.9614  16.2558     52203.44    431.2805 -44.76    21.649     7.025   0.0170         96     815.2751
 4.98    434.8953  21.3316     486.8038    150.9790  14.89     1.133     0.954   0.2061         97     92.38903
 9.45    439.4756  19.1423     3656.713    213.9344  26.41     2.816     1.188   0.0927         98     311.9746
 3.50    451.1122  18.9563     4339.938     21.1383 -39.37     1.703     1.572   0.0260         99     104.0471
 8.92    445.1351  21.0430     635.0375    173.6788  62.28     1.158     0.773   0.2611        100     152.6994
 8.90    441.7845  20.0984     1515.737    191.4113 -42.32     1.738     0.873   0.1417        101     197.8369
 9.07    449.4420  19.8003     1994.673    216.0844  81.33     1.722     0.653   0.0572        102     105.0408
 4.29    446.1316  20.9772     674.7205    122.0628 -30.18     1.614     1.155   0.1722        103     107.0064
 3.50    458.6750  18.8607      4739.44     34.3959 -60.50     1.679     1.537   0.0234        104     102.0266
 7.31    443.7499  21.0314     641.8859    654.7517 -41.15     1.067     0.696   0.1922        105      113.612
 8.62    442.4369  19.9669     1710.947    201.3327  -2.79     2.058     0.593   0.0554        106     87.34566
 0.00    821.4017  14.0938       382378    500.6896  21.91    56.082    29.660   0.0026        107     900.3075
 9.39    449.4447  19.9587     1723.937    209.1287 -30.97     1.580     0.771   0.1185        108     188.1278
 0.00    702.3883  13.9616     431860.2   1214.1130 -10.86    40.390    15.963   0.0026        109     1030.178
 5.13    461.9187  21.3782     466.3621   1096.1533  54.86     1.155     1.064   0.2388        110     102.5355
 8.69    457.6320  21.8865     292.0121    191.1938 -17.46     0.749     0.447   0.3394        111     91.25538
 3.50    472.2132  20.5004     1046.757    254.0892 -66.29     1.294     1.173   0.0827        112     79.68533
 3.50    472.9614  19.8044     1987.178    734.7808 -38.05     1.497     1.347   0.0489        113     89.52799
 3.50    484.9312  20.5730     979.0392   1070.4175 -73.22     1.375     1.240   0.0905        114     81.62129
 4.93    496.9196  19.8874     1840.863     82.5440  53.24     2.411     2.061   0.1175        115      199.148
 9.04    505.2596  19.5321     2553.725    273.7545  88.54     4.083     0.894   0.1327        116     311.9746
 3.75    479.8637  22.3302     194.0591    682.6153  17.84     1.030     0.720   0.3230        117     57.71497
 9.21    500.6920  20.7030     868.5631    283.2000  37.45     1.793     0.676   0.2293        118     183.3643
 0.00    810.9186  13.2899     801738.4    133.0255 -31.63    47.365    13.212   0.0011        119     840.8435
 9.23    526.1752  18.4243     7083.976    694.2490 -27.92     3.296     2.344   0.0711        120     463.5198
 3.50    505.1145  21.8298      307.669    762.6562 -79.74     1.163     0.994   0.2389        121      67.6768
 0.00    641.2502  99.0000    -940.1531    476.6158 -79.36    13.750     3.894  99.0000        122     463.6321
 3.50    692.1136  14.9151     179459.8   1398.1703 -60.67    17.147    14.697   0.0044        123     732.3308
 3.50    944.3112  12.5590      1571759    246.3104 -45.39    41.608    12.270   0.0007        124     949.0655
 8.95    507.0856  20.7006     870.4799    260.3371  12.07     1.069     0.737   0.1787        125     143.2012
 3.50    781.5032  12.3459      1912602   1272.6615  27.83    50.395    18.300   0.0006        126     1015.686
 5.17    510.6264  20.8955     727.4323    164.3679  -2.91     2.218     0.986   0.2066        127     138.3956
 8.70    507.3418  21.9943      264.416    268.3015 -47.00     0.567     0.338   0.2811        128     68.44154
 8.71    518.8856  21.4076     453.8813    268.1570  44.51     0.859     0.654   0.2826        129     118.1043
 3.98    541.0534  20.2366      1334.65    999.7314 -53.86     1.536     1.387   0.0838        130     103.0418
 3.50   1086.1444  12.1517      2287182    113.0638 -43.47    43.848    19.960   0.0007        131     1398.786
 3.50    778.3478  14.8000     199529.3     72.2978 -46.22    18.900    14.405   0.0043        132     785.1791
 4.41    559.8713  19.7148     2158.045   1041.5114 -29.66     1.619     1.540   0.0631        133     125.3724
 6.59    597.2618  17.8074     12503.23    782.3675 -80.93     4.117     3.888   0.0414        134      476.913
 4.75    556.4932  22.5195     163.0019    778.7437  88.30     0.943     0.724   0.4610        135     69.19781
 4.30    571.6570  20.1674     1422.419     45.6160  59.60     1.985     1.429   0.1004        136     131.4521
 3.50    581.4247  18.2695     8169.257    144.8221 -84.10     1.781     1.655   0.0142        137     107.0064
 7.57    577.1076  21.3409     482.6543   1001.6425  83.04     1.986     1.377   0.5082        138     225.8455
 4.01    565.5809  21.6665     357.6149    139.6904 -53.97     1.148     1.009   0.2319        139     76.34972
 3.50    688.0392  18.0487     10012.18   1531.5134 -68.20    11.349     9.754   0.0723        140      666.383
 3.50   1130.6683  11.7741      3238545   1002.3871  18.04    53.799    25.909   0.0006        141     1679.173
 3.50    585.4980  21.3178     493.0464     75.9933  34.11     1.282     1.160   0.1711        142     77.70116
 9.28    631.6955  16.9311     28026.16    888.2980  24.32     4.520     2.942   0.0150        143     387.4284
 4.97    631.7404  21.1196     591.7776    805.9729 -80.14     1.209     1.117   0.1919        144     104.5462
 3.50   1590.4493  17.5705     15552.79   1264.6968   0.49    16.219     6.541   0.0400        145     572.4412
 3.50   1590.7308  17.7020     13778.64   1040.8645  -1.14    14.188     6.315   0.0415        146      526.402
 5.51   1597.8674  20.7570     826.4561    655.1654 -32.36     1.909     1.388   0.1763        147     134.1951
 5.62   1595.9124  21.3672     471.1065    374.0342  41.13     1.272     1.258   0.2773        148     120.2876
 0.00   1593.8699  99.0000    -46.65756   1385.1064 -26.16     1.529     0.605  99.0000        149     127.4312
 6.78   1592.7118  23.4493     69.22888    566.9949  -0.12     0.742     0.669   1.3486        150     85.96915
 3.50   1567.4852  20.0395     1600.329     22.0536 -35.08     1.501     1.336   0.0619        151     91.25538
 0.00   1562.8250  99.0000    -27.51505   1566.5303 -28.41     1.365     0.524  99.0000        152     78.36813
 9.43   1541.4967  21.7197     340.4998   1335.9891 -62.71     1.220     0.491   0.4193        153     131.4521
 3.50   1558.8717  16.2701     51520.16    487.7101 -42.21     1.947     1.877   0.0025        154     120.2876
 3.50   1543.5160  20.1171      1489.95    654.6883 -42.49     1.462     1.341   0.0653        155     89.52799
 9.25   1535.3124  20.4131     1134.425   1348.3517 -63.75     2.402     0.634   0.0724        156     75.57686
 8.51   1539.5172  22.3401     192.2949    263.4748  45.53     0.509     0.490   0.4312        157     76.34972
 3.98   1536.8153  23.1162     94.08167   1429.5057 -56.02     1.521     0.861   0.9422        158     81.62129
 9.54   1526.1257  20.3690     1181.393   1331.2883  21.41     1.867     0.783   0.1915        159     208.3442
 4.68   1533.0137  21.4534     435.1334    415.7943 -28.03     1.657     1.117   0.2836        160      113.612
 9.12   1529.5067  21.3881     462.1183   1347.5441   0.16     1.073     0.500   0.1380        161     58.72851
 9.26   1539.9883  22.3520      190.188   1328.1267  88.66     1.927     0.942   0.4740        162     83.01728
 9.34   1525.5417  22.1651     225.9163   1345.9468  -5.04     1.939     0.470   0.3220        163     66.97449
 8.15   1522.5964  21.9182     283.6067   1351.9432 -27.01     1.152     0.557   0.4523        164     118.1043
 3.50   1523.4836  23.6112     59.63821     14.4995  44.60     0.509     0.490   0.6436        165     35.34306
 4.89   1519.6189  22.1900     220.8013     84.3915  80.11     1.501     0.882   0.4968        166     101.0012
 3.50   1515.7332  18.4917     6657.481    392.7216 -44.48     1.718     1.630   0.0176        167     107.9748
 5.28   1516.1360  21.2683     516.0381   1547.0355  59.83     1.453     1.003   0.2401        168     114.0692
 6.55   1489.0808  21.4901     420.7065     77.8817 -75.42     0.962     0.688   0.2512        169     97.32719
 0.00   1483.9883  99.0000    -283.1187    719.4960  81.08     1.026     0.479  99.0000        170     117.6628
 3.50   1483.3834  21.8912     290.7379    574.9792 -28.65     1.719     0.975   0.3049        171     81.62129
 9.64   1478.2308  20.0232     1624.469    900.7378 -20.34     1.489     0.931   0.1374        172     205.5779
 6.84   1479.4894  22.9796     106.6988    638.4888  45.18     0.501     0.499   0.5874        173     57.71497
 3.50   1228.1251  15.0178     163258.5   1203.4050  43.48    20.405    12.790   0.0051        174      772.175
 0.00   1162.7111  14.9037     181347.4   1141.9341  50.36    18.799    14.810   0.0048        175     809.6196
 3.50   1292.3013  15.1251     147897.7   1267.3623  34.38    18.372    13.367   0.0054        176     728.8155
 0.00   1441.1346  12.6699      1419142   1187.0475  -1.86    66.004    26.536   0.0008        177     1031.486
 3.50   1299.1519  12.4832      1685458   1220.6118  42.28    41.197    13.262   0.0006        178     965.6142
 9.07   1477.2031  20.4523     1094.118    885.5872  -8.84     2.068     0.801   0.2085        179     210.0857
 0.00   1478.0537  99.0000    -22.47009    722.8747  22.58     1.701     0.797  99.0000        180     40.81065
 0.00   1476.3031  99.0000    -259.4283    731.0191  45.61     1.303     0.793  99.0000        181     181.3665
 7.77   1477.7635  22.4466     174.3193    198.9817  -0.83     0.693     0.425   0.4757        182     76.34972
 9.43   1465.1912  18.5417     6357.958    904.0582  25.35     3.658     1.843   0.0756        183     442.7297
 9.43   1464.7893  20.0214     1627.184   1395.1271 -34.00     1.519     0.967   0.1382        184     207.0914
 9.23   1460.5853  18.9829     4234.764    915.2717 -45.20     1.857     1.037   0.0361        185     140.5962
 9.79   1463.9978  19.1988     3471.051    699.5295 -18.24     2.162     1.160   0.0672        186     214.8363
 9.16   1454.0039  19.0072     4141.156   1402.2007 -85.69     3.563     1.301   0.0935        187     356.5097
 9.25   1456.9183  19.4105     2856.153    922.8077 -17.63     2.316     1.531   0.1198        188     314.9633
 9.69   1460.7695  22.6337     146.7365    719.2363  87.98     1.144     0.727   1.1867        189     160.3474
 9.42   1470.7407  19.8968     1825.042    710.3171   7.57     3.978     1.619   0.1230        190     206.6791
 9.57   1455.1587  22.0496     251.2731    713.7659 -47.24     1.304     0.746   0.7405        191     171.3318
 9.09   1463.7483  18.7155     5417.286    671.4412  43.80     2.069     1.411   0.0353        192      175.944
 0.00   1453.0215  99.0000    -291.6284    727.1985 -25.12     1.005     0.607  99.0000        193     130.6578
 9.42   1471.0719  20.5317     1016.981    921.7286  88.21     2.594     1.026   0.1263        194     118.2933
 8.87   1451.7554  19.5870     2427.651   1412.1362  28.62     1.702     1.305   0.1072        195     239.7083
 8.21   1450.7781  24.2934     31.81662     88.3629 -73.92     0.748     0.452   2.9550        196     86.57246
 3.50   1338.4729  14.6220     235077.4    703.8652  -0.43    33.273    13.830   0.0080        197     1729.742
 3.50   1321.0859  16.8372     30557.96    660.0273  -7.16     2.198     2.114   0.0047        198     131.4782
 5.52   1380.3505  22.4454     174.5103    318.5949  -4.36     1.034     0.628   0.5079        199     81.62129
 0.00   1373.5349  99.0000    -170.4823   1018.6105 -61.87     0.503     0.483  99.0000        200      33.8384
 9.30   1352.4690  20.1219     1483.378     22.3088 -52.61     2.452     1.012   0.1941        201     265.0729
 6.96   1347.6276  23.3677     74.62976    194.3124  47.32     0.584     0.328   0.7715        202     53.01458
 8.84   1345.5441  22.3314     193.8469     42.4559 -44.84     1.313     0.543   0.7626        203     136.1205
 8.84   1330.7704  18.2260     8503.919     23.8794 -49.78     4.066     1.853   0.0255        204       199.77
 9.00   1339.3022  22.5853     153.4182     41.6419  42.50     0.574     0.334   0.5004        205     70.68611
 3.50   1273.1378  12.5516      1582518    918.7911  62.76    53.910    18.260   0.0007        206     988.8192
 7.56   1581.7024  22.9276     111.9335   1414.5466  62.67     1.328     0.705   1.2868        207     132.6346
 0.00   1271.0294  14.8589     188993.1    585.0091  40.03    18.069    14.600   0.0045        208     788.4567
 0.00   1271.0796  16.6488     36348.27   1052.5012  64.12    15.278     5.819   0.0202        209     674.8839
 3.50   1250.6091  17.5717     15535.17   1022.3518   9.62    10.229     3.946   0.0311        210     444.4341
 3.50   1299.3434  15.0936     152250.3    724.8917 -39.61     1.589     1.506   0.0007        211     97.86049
 3.50   1300.3915  25.9004     7.242004     53.7671 -17.83     0.729     0.456   5.5164        212     36.78622
 0.00   1420.7406  99.0000    -61.59103    808.8787  53.53     1.098     0.522  99.0000        213      113.612
 9.31   1291.8372  19.5286     2561.917   1405.3654  41.47     2.210     1.521   0.1312        214      309.462
 8.89   1290.8167  23.9969       41.806    132.5928  70.67     0.783     0.442   2.4291        215     93.50893
 3.50   1293.9078  21.0325     641.2053    412.7369  23.44     1.287     1.129   0.1270        216     74.97395
 3.50   1278.8903  19.5415     2531.706   1331.3972 -59.58     1.267     1.244   0.0336        217     78.36813
 9.16   1280.6970  22.6387     146.0538    100.3643  46.89     0.882     0.512   0.8276        218     111.2979
 5.98   1278.3992  22.9970     105.0021    343.4082  -1.17     0.918     0.658   0.8702        219      84.1333
 5.25   1331.2352  21.9241     282.0798    386.9081   1.03     1.305     0.996   0.4101        220     106.5189
 8.74   1276.5033  22.3589     188.9955   1389.9438   0.88     0.781     0.500   0.5593        221     97.32719
 8.82   1275.2897  21.9688      270.685   1398.0015 -12.05     1.631     0.641   0.6511        222     162.2833
 9.31   1273.4030  21.0967     604.3785    108.7167  40.49     1.332     0.612   0.2719        223     151.3299
 3.50   1219.9700  13.0423      1007117    766.7654 -44.70    24.401     4.485   0.0007        224     661.9161
 0.00   1221.3524  14.2232     339402.6    623.5469  46.46    33.633     7.980   0.0020        225     640.0247
 0.00   1081.9011  14.2378     334880.6    624.0259 -46.22    34.046     7.891   0.0021        226     640.8978
 4.62   1260.2467  20.0002     1659.204    432.4418 -72.52     1.945     1.826   0.1028        227      157.068
 3.74   1263.1615  22.9020     114.6088    215.8582 -41.48     0.728     0.566   0.4102        228     43.28623
 0.00   1257.6351  99.0000    -61.61053    117.3232  46.58     0.586     0.327  99.0000        229     55.88228
 7.36   1330.3666  18.1964     8738.534      6.2546 -71.43     4.388     2.964   0.0275        230     221.3313
 3.50   1213.0958  16.0392      63726.8     24.3401  -0.83    16.616    13.501   0.0140        231     823.5134
 3.58   1238.0472  20.3244     1230.896   1553.5116  -2.39     1.426     1.354   0.0795        232     90.10747
 3.50   1081.0017  16.7555     32944.62    512.1863 -82.90     2.284     2.127   0.0046        233     139.6329
 3.50   1215.2073  17.5932     15230.16    513.1233 -25.85     2.153     2.055   0.0079        234     111.3355
 3.50   1152.2145  14.2846       320754    516.2152  89.98    36.739    14.182   0.0038        235       1136.3
 9.56   1233.4443  20.3194     1236.638   1333.0906 -89.31     2.040     0.717   0.1816        236     206.8399
 0.00   1237.6780  99.0000     -3.13916   1466.3071  45.80     0.561     0.341  99.0000        237     49.98263
 3.50   1210.1932  18.2765     8117.098   1278.8367 -83.80     3.976     2.554   0.0269        238     201.2279
 5.27   1213.5974  20.1913     1391.484   1429.3523  77.51     2.567     2.024   0.1693        239     216.9116
 9.38   1218.3741  22.6125     149.6254   1352.8376 -19.13     0.757     0.440   0.6986        240     96.25172
 9.40   1216.5959  20.6781     888.6816    174.3251  19.32     1.035     0.580   0.0775        241     63.45058
 9.45   1212.2876  22.2097     216.8229    173.5368 -40.10     2.519     1.058   0.4729        242     94.41372
 9.07   1203.7200  19.1234       3720.9    172.2448 -39.70     3.970     2.269   0.1437        243     492.3775
 4.87   1201.8153  20.8434     763.1882   1442.1543 -87.61     1.660     1.491   0.1980        244     139.1458
 9.04   1213.3105  21.3712     469.3549    186.9452 -63.64     1.240     0.937   0.1760        245      76.0767
 8.38   1210.0212  99.0000    -38.00433    192.0014   1.50     1.071     0.732  99.0000        246      33.8384
 3.50   1208.6954  19.9189     1788.359    839.0273  22.78     0.732     0.646   0.0255        247     42.06665
 3.50   1195.6948  21.1801     559.7256    124.2415  74.65     1.352     1.205   0.1571        248     80.98112
 0.00   1151.6442  99.0000    -209780.8    703.1186 -59.74    16.038    15.992  99.0000        249     680.2964
 3.50   1165.9685  16.4158     45047.52   1299.7094 -35.48     2.229     2.198   0.0034        250     139.5193
 3.50   1157.2181  18.1133     9433.482   1265.8628  51.98    11.987     7.165   0.0676        251     587.0743
 3.50   1149.0831  17.6315     14703.25    242.2076 -56.71    11.372     8.380   0.0456        252     617.0713
 3.57   1182.7021  22.8035     125.4917    176.3932  26.62     1.109     0.886   0.5584        253      64.5273
 0.00   1396.6760  14.9635     171629.7    971.9562  46.58    19.850    13.480   0.0049        254     777.4496
 3.50   1130.7552  17.8990     11492.37    183.5531 -38.10     1.455     1.386   0.0086        255     90.68324
 4.75   1130.9902  20.8789      738.649    219.8634 -13.93     1.614     1.227   0.1769        256     120.2876
 3.50    946.3853  15.2097     136812.8    308.0498 -45.87    21.060    11.579   0.0060        257     756.6593
 5.17   1120.8633  19.4564     2738.122    329.8810  59.12     2.526     1.694   0.0765        258     192.7736
 9.62   1096.1908  20.9642     682.8662   1331.2026  80.78     1.208     0.841   0.1302        259     81.87719
 7.00   1065.1592  19.3582     2997.327    292.9378   9.28     1.676     1.191   0.0413        260     113.9675
 8.28   1080.4398  19.3591     2994.756    328.6945 -72.00     3.049     2.649   0.0704        261     194.2124
 3.50   1081.0870  18.1245     9336.966    307.6408  64.52     8.444     7.179   0.0573        262     492.6945
 3.50   1036.4943  99.0000    -20756.93    818.0593  25.28    17.815    15.400  99.0000        263     682.8927
 3.50   1010.8022  17.6214     14840.37    813.6567  87.78     3.428     3.381   0.0128        264     174.4108
 3.50   1029.6986  16.6375     36729.45     13.2465 -85.54    15.967     8.586   0.0191        265     646.4817
 4.84    913.5717  20.9234     708.9771    838.4923 -17.21     1.376     1.260   0.1775        266       115.88
 3.50    913.1987  21.5595     394.6368   1000.9146  -6.85     1.181     0.913   0.1820        267      66.1208
 3.50    861.7495  15.1046     150722.3   1404.6814  88.54    21.677    13.539   0.0066        268     909.1842
 9.02    902.5340  19.8470     1910.715    568.4938 -40.39     1.522     0.721   0.0492        269     86.64153
 3.50    901.3380  21.7621     327.4652    302.8036 -83.37     0.750     0.696   0.1513        270     45.62769
 9.21    893.9054  18.8243     4901.112    565.5446 -24.99     4.120     1.016   0.0755        271     340.8361
 8.03    898.5092  22.6253     147.8689    987.5131  45.24     0.505     0.495   0.5403        272     73.57244
 8.91    897.4534  20.4604     1086.073    572.3585 -29.94     1.575     0.827   0.0774        273     77.35649
 5.98    896.8118  19.8680     1874.141    539.5288  -5.71     2.641     1.765   0.1356        274     233.9949
 3.50    881.0759  15.5571     99348.63   1592.5049 -56.25     1.987     1.897   0.0013        275     122.8563
 3.50    848.4968  14.3858     292207.7     12.8695 -79.91    17.505     8.679   0.0020        276     548.5984
 8.63   1548.3546  21.3469     479.9874   1349.1603 -29.71     1.386     0.593   0.3190        277     141.0036
 3.50    886.5872  21.2612      519.436   1500.6064   5.99     1.450     1.204   0.1759        278      84.1333
 9.28    879.7710  21.2982     502.0145   1525.5931  71.89     0.754     0.454   0.2094        279     96.79095
 4.64    878.4140  21.4421     439.7064    960.6356 -57.99     1.281     1.223   0.2631        280     106.5189
 8.72    878.4334  21.0257      645.243   1546.1151  80.21     1.155     0.655   0.2291        281     136.1205
 7.75    877.6039  20.5304     1018.179    541.8500 -70.07     1.086     0.989   0.1535        282     143.9263
 5.37    868.6851  20.7259     850.4556    939.5447  25.11     1.996     1.412   0.2080        283     162.9234
 5.01    870.4651  22.2447     209.9543    643.7474 -89.02     0.947     0.732   0.3914        284     75.66496
 9.52    865.0172  19.1334     3686.594   1533.7903  78.30     1.984     1.478   0.0869        285     294.9963
 9.01    865.0939  20.1306     1471.559   1549.0342  72.47     1.672     0.717   0.1321        286      179.056
 5.76   1453.8417  21.9300      280.549    391.7621  21.98     1.190     0.813   0.3969        287     102.5355
 3.50   1416.3937  20.4049      1143.03   1386.5273 -18.78     1.274     1.233   0.0745        288     78.36813
 9.26   1306.9023  20.3388     1214.688   1408.4688 -14.78     2.930     0.708   0.0833        289       93.161
 3.50   1021.1459  14.3852     292373.8   1211.0929  -0.08    35.541    13.639   0.0042        290     1119.806
 3.50   1308.6776  20.6810     886.3298    669.5552 -83.29     1.073     0.973   0.0791        291      64.5273
 8.27   1101.7528  21.3242     490.1192   1322.8984 -64.74     1.404     0.471   0.2684        292     121.1499
 8.62    861.2194  20.5251     1023.157   1554.1023  29.92     1.217     0.968   0.1796        293      169.192
 9.61    857.0324  20.0614     1568.402   1527.4960 -88.31     1.727     0.761   0.1374        294     198.3624
 9.02    854.6339  19.8962       1826.1   1539.3744  37.83     1.817     0.882   0.1232        295     207.0914
 0.00    859.5079  99.0000    -34.72751   1511.5182 -46.21     0.503     0.497  99.0000        296     73.57244
 9.10    847.6993  20.6386     921.6177   1536.0651 -12.83     1.457     0.553   0.1738        297     147.4982
 8.20    846.9483  22.7222     135.2489   1543.3126  62.47     0.920     0.209   0.5309        298      66.1208
 3.50    824.1008  18.3273     7746.333    633.3284 -72.99     9.598     5.388   0.0638        299      454.906
 0.00    819.5099  99.0000    -4.343353    702.6320  89.96     0.862     0.482  99.0000        300     43.28623
 3.81    836.5144  22.5111     164.2772    819.0197  -0.58     1.080     0.929   0.4474        301      67.6768
 4.66    823.6076  18.4423     6967.485    654.1924 -65.82     2.347     2.274   0.0303        302     194.6544
 8.10    837.8586  20.3866     1162.426   1520.9513   6.96     1.824     0.953   0.1798        303     192.5034
 3.50    799.2351  17.6009     15123.13    695.5537 -86.84     2.572     1.818   0.0097        304     135.3536
 3.50    776.2728  18.0592     9915.263   1466.9751 -46.84    11.086     9.151   0.0699        305     638.1355
 3.81    762.0475  17.0522     25066.84   1458.2954 -50.19     7.542     3.547   0.0156        306     360.3485
 9.09    758.4329  20.5871     966.3844    693.4379 -62.79     2.156     0.538   0.0885        307     78.71442
 9.15    754.6756  20.5259     1022.426    704.2519 -75.57     1.763     0.952   0.2284        308     214.9834
 8.52    746.3088  20.2603     1305.814    688.7577  12.23     4.892     2.012   0.4026        309     484.0623
 9.79    742.6965  19.7540     2081.666    701.7830 -63.50     1.947     1.227   0.1428        310     273.7661
 3.50    775.1511  20.6834      884.387   1427.5464 -89.59     1.753     1.134   0.1085        311     88.35764
 3.50    738.2763  22.7641       130.13   1157.9346 -87.31     0.884     0.740   0.4342        312     52.02357
 3.50    736.8547  23.0407     100.8625    649.7581 -50.28     0.761     0.658   0.4788        313     44.47237
 3.50    727.4363  16.1023     60125.84    848.3000 -43.03     2.120     2.002   0.0023        314     129.8587
 9.20   1467.4762  19.4604     2727.901    681.2125 -70.47     3.802     1.910   0.1784        315     448.2209
 3.50   1508.0370  16.9499     27545.61    269.3830 -51.48     1.875     1.773   0.0046        316     115.4299
 8.87   1013.9460  21.1186     592.3108   1403.2648  53.73     1.424     0.585   0.2672        317     145.7231
 9.74   1233.3134  19.7721     2047.169   1340.6998 -50.10     2.237     1.300   0.1590        318     299.7222
 8.60    710.5964  18.5280     6438.659      6.8903  42.39     2.814     1.789   0.0302        319     179.0286
 3.50   1389.6118  18.6623     5689.613   1428.5465 -17.12     1.500     1.436   0.0180        320     94.06389
 0.00   1459.8372  14.9845     168346.6   1034.9799  52.33    19.289    13.462   0.0050        321     777.6451
 8.28    718.3022  18.9315     4440.138      2.4396  66.26     2.860     1.240   0.0396        322     161.7963
 4.07    716.7413  20.4530     1093.411    808.2568 -60.92     1.452     1.252   0.0988        323     99.44324
 4.78   1407.2278  21.7002     346.6831    329.8878  77.17     1.283     1.109   0.3275        324     104.5462
 4.95   1566.7643  20.1744     1413.373    784.6987 -84.10     1.822     1.377   0.1098        325     142.8373
 9.54   1398.7017  19.8250     1949.762    576.6944  73.00     2.105     1.038   0.1423        326     255.4743
 0.00    707.8694  99.0000    -7.804504    794.7460 -47.14     0.788     0.663  99.0000        327     45.62769
 3.50    703.4992  19.8181     1962.241    952.2971 -33.52     1.574     1.510   0.0536        328     96.79095
 8.65    701.9511  18.4846     6701.111      5.4039 -12.76     1.652     1.432   0.0279        329      172.212
 9.35   1223.8857  19.7544      2080.83    169.2935  51.35     2.498     1.309   0.1597        330     305.9098
 8.87    681.9581  22.3675     187.4923    762.0000  90.00     0.855     0.289   0.4616        331     79.68533
 8.94    670.0867  21.9923     264.9002    753.8028  83.56     1.182     0.592   0.5612        332     136.8831
 8.74    662.1073  20.1543      1439.78    755.1058  -3.28     2.845     0.760   0.1748        333     231.7599
 4.14   1014.2682  22.9124     113.5122    453.4106  72.89     0.737     0.462   0.4141        334     43.28623
 3.50   1012.0101  19.8758     1860.779    344.7848 -49.49     1.446     1.294   0.0498        335     85.36159
 9.37    647.8962  20.0236     1623.967    870.2870  35.53     1.483     0.853   0.0712        336     106.4281
 8.92    629.2739  99.0000    -5.619659    932.0801 -56.37     1.164     0.798  99.0000        337     40.81065
 9.19    649.0441  20.6244      933.743    904.4324 -73.88     2.767     1.088   0.1140        338     98.00451
 8.79    629.2703  20.2084     1369.742    941.1840  17.76     1.380     1.258   0.1664        339     209.8378
 9.55    628.9660  19.5687     2469.009    762.4835  13.03     1.843     1.000   0.1029        340     233.9949
 9.62    638.7851  19.8401      1922.85    768.3699 -40.92     1.842     0.720   0.1131        341     200.1907
 9.31    636.1537  19.6670     2255.303    918.9972 -58.37     2.692     1.010   0.0617        342     128.2164
 9.41    623.7247  19.7652     2060.156    754.1238  60.67     1.665     0.886   0.1094        343     207.5934
 3.50   1026.5682  17.4630     17170.84   1380.0906 -81.58     2.011     1.939   0.0079        344     124.9566
 8.76    623.3637  23.3108     78.64417    929.7933 -17.93     0.753     0.443   1.2758        345     92.38903
 9.18    640.5320  18.2812     8082.064    899.0284 -27.10     2.290     2.022   0.0320        346     237.9013
 8.13   1362.3119  22.9570     108.9468     34.3481 -43.38     0.574     0.335   0.6591        347      66.1208
 9.19   1311.4592  19.9177     1790.324   1398.4458 -13.49     1.766     1.370   0.1577        348     259.9177
 9.29    618.4379  21.4766     425.9482    906.4913 -71.25     0.982     0.409   0.2741        349     107.4917
 8.42    619.5538  21.4688     429.0226    767.3188   7.89     0.995     0.483   0.2659        350     105.0428
 9.37    604.4602  20.3415     1211.707    764.5001  65.57     1.263     0.752   0.1483        351     165.4594
 7.54    610.1809  22.2059     217.5837    944.9125  40.80     0.837     0.663   0.4989        352     99.96526
 3.50    608.4712  24.0235     40.79477   1011.9170   4.11     0.786     0.497   1.0864        353     40.81065
 3.50   1546.9423  21.2591     520.4072    863.4241  79.09     1.443     1.276   0.1794        354     85.96915
 8.30    593.1091  20.4900     1056.793    757.4379 -26.17     2.061     0.577   0.1681        355     163.5611
 3.50   1564.5637  16.2569     52149.46    304.2770 -45.70     1.968     1.875   0.0025        356     121.5787
 3.50   1553.6222  17.2492     20909.08    682.1025 -31.03     4.532     3.774   0.0136        357      262.508
 3.50   1534.8031  14.1814     352742.6   1150.8794   0.14    32.439    13.932   0.0032        358     1037.269
 3.50   1562.1373  20.9560     688.0477    861.4928   5.36     1.262     1.158   0.1183        359     74.97395
 8.06   1565.3141  22.1354     232.1972    386.6744  64.22     0.775     0.483   0.4160        360     88.94474
 9.36   1549.8151  20.9737      676.893   1336.8875 -37.82     1.557     0.872   0.3174        361     197.8369
 8.04   1534.7887  18.6000     6025.867    976.6499  47.53     5.444     4.575   0.1308        362     725.8962
 3.50   1292.4410  18.7734     5136.251    761.8278 -22.49     0.974     0.894   0.0128        363     60.35976
 5.85   1525.2084  21.8905     290.9269    378.9753  80.66     1.380     0.702   0.3903        364     104.5462
 4.15   1002.4464  20.4086     1139.088   1555.2872 -75.02     1.478     1.320   0.1011        365     106.0292
 7.87   1484.6893  25.6398     9.206055    741.6561 -43.46     0.572     0.336   7.6120        366      64.5273
 4.13   1515.3909  22.1360      232.049    483.6698 -45.91     1.145     1.021   0.3729        367     79.68533
 3.53   1542.6790  19.3885     2914.831    135.1461 -57.07     1.585     1.524   0.0372        368     99.96526
 5.37   1499.3737  21.4320      443.828    844.5955   4.40     1.100     0.812   0.2247        369     91.82395
 3.50   1333.8763  14.9107     180178.8    905.4968  40.36    18.717    14.448   0.0048        370     795.5811
 9.48    652.7346  19.6196      2355.91    762.0944 -63.47     1.746     0.969   0.1028        371     223.0629
 7.72   1502.3036  23.4641     68.28995   1412.6636  43.35     0.565     0.339   1.0002        372     62.89343
 3.75   1002.5121  19.6621     2265.452    542.5883  33.88     1.653     1.478   0.0508        373     106.0292
 0.00   1485.1320  99.0000    -93.24924    708.6357  27.78     1.456     0.441  99.0000        374     131.8474
 7.37   1483.0637  21.7670     325.9795   1404.5073  89.84     0.782     0.500   0.2803        375      84.1333
 9.35   1532.1033  19.2164     3415.472   1331.0404 -35.70     2.417     0.965   0.0385        376     121.0805
 8.83   1487.4854  24.7202     21.47427    899.5071 -44.60     0.506     0.494   3.9967        377     79.02947
 3.50    963.1656  14.6598     227020.5    703.1440   0.09    37.333    13.877   0.0071        378     1485.478
 3.50   1436.1300  19.4548     2741.981    224.7949 -34.44     1.604     1.459   0.0388        379     97.86049
 9.00   1471.6594  23.2034     86.82666   1411.3051  46.73     0.568     0.338   0.8841        380     70.68611
 7.57   1447.4856  24.8722     18.66812    887.4802 -45.19     0.513     0.486   4.1121        381     70.68611
 9.34   1454.9799  20.8821     736.4525    662.5688 -16.47     1.153     0.706   0.2237        382     151.6735
 6.66   1399.2949  24.4501     27.53891     84.6467  42.18     0.568     0.337   2.0906        383     53.01458
 7.24   1497.3956  22.0633     248.1214    930.7852 -17.07     0.742     0.458   0.3312        384     75.66496
 3.50   1391.2734  20.0343     1607.988    713.2599 -12.89     1.082     1.036   0.0452        385     66.90333
 0.00   1369.9697  99.0000    -12150.59   1140.3528  23.34    12.816     6.032  99.0000        386       556.77
 3.51   1440.6383  19.7993     1996.578    619.1754   4.23     1.451     1.347   0.0487        387     89.52799
 5.55    981.7678  20.9552     688.5297    797.6724 -35.62     1.377     1.273   0.2092        388     132.6346
 3.50   1376.0826  15.1552     143848.5   1340.4283  89.83    20.923    13.372   0.0068        389     894.9761
 3.50   1338.8129  17.1747     22393.31   1119.4067  69.05    11.342     4.767   0.0259        390     533.2311
 0.00   1439.6113  99.0000    -13.08276    646.9755  52.05     1.028     0.634  99.0000        391      84.1333
 7.30   1432.6862  21.2562     521.8208    341.5507  -7.52     1.510     1.030   0.3424        392      164.513
 8.23   1389.9377  18.7263     5363.791    806.9468 -48.91     2.784     2.426   0.0350        393     172.7182
 3.50   1409.1057  19.8509     1903.948    308.4275  -7.78     1.522     1.467   0.0537        394     94.06389
 4.36   1400.4852  20.6825     885.0946    822.7569  -5.64    10.958     3.864   0.6281        395     511.8646
 9.45   1468.2737  21.1297     586.3096   1404.7246 -69.33     1.322     0.652   0.2928        396     158.0589
 7.57   1369.4689  23.6697     56.51184    149.4739  16.77     0.499     0.499   1.3298        397     69.19781
 0.00    888.6989  14.4704     270288.4    384.8170   4.89    25.039    14.206   0.0036        398      901.805
 9.20   1333.9382  18.7936     5041.315     12.8231 -48.15     2.518     2.227   0.0361        399     167.3495
 3.50    953.1061  14.8405     192228.4   1333.3123 -34.03    17.831    14.367   0.0045        400     792.7791
 3.50   1394.2666  15.9290     70532.41    114.4724 -47.27     2.050     1.946   0.0020        401     127.0221
 4.26    979.2180  21.6407     366.1921    452.8211  82.90     1.065     0.855   0.2140        402     72.14371
 9.33   1398.8148  20.2437     1325.898    592.9052 -12.65     1.660     0.805   0.1597        403     194.9216
 6.02   1388.9945  22.7036      137.575   1584.9908 -89.90     0.625     0.602   0.5403        404     68.44154
 8.92   1381.4778  21.0696     619.6542   1465.7286  68.24     1.172     0.537   0.2240        405      127.839
 0.00   1311.7633  17.1066     23842.47   1083.2775  21.31    13.331     4.772   0.0249        406     545.5865
 9.18   1339.4218  18.7783      5112.88     26.8916  75.23     2.163     1.997   0.0330        407     155.2068
 7.61   1353.2745  21.4941     419.1484    152.0115  17.63     1.232     1.095   0.4180        408     161.3182
 3.62   1333.6460  21.2911     505.3297    107.4609 -30.00     1.312     1.082   0.1684        409     78.36813
 9.49   1303.9924  20.2013     1378.764   1393.5569  -4.08     1.961     0.837   0.1725        410     219.0604
 3.50   1263.0856  15.1634     142776.5    829.2162 -58.42    21.734    14.247   0.0082        411     1071.492
 8.04    972.4922  23.3309     77.20679   1499.4548 -53.72     0.502     0.496   1.0349        412     73.57244
 3.51    987.4823  20.5151     1032.647    453.9948 -86.61     1.621     1.406   0.0995        413     94.61559
 3.50   1108.2145  18.7040     5475.031    427.9351 -44.26     1.629     1.554   0.0201        414     101.5152
 8.63   1283.1097  23.2555     82.75485    113.6242  27.41     1.465     0.438   1.6178        415     123.2792
 3.50   1083.0526  13.0720     979959.8    765.7274  44.98    24.620     4.416   0.0007        416     659.8685
 8.93    651.0060  20.2873     1273.774    750.0740  81.68     1.735     0.623   0.1429        417     167.6468
 0.00    960.0193  99.0000    -119.6991    892.4959   1.69     1.096     0.798  99.0000        418     128.6507
 3.50    772.1874  14.6554       227945   1327.1403  33.52    19.731    13.706   0.0036        419     754.3755
 9.47   1537.5121  20.9534      689.647   1344.5120  76.73     1.562     0.826   0.1327        420     84.25514
 7.57   1167.6774  23.1788     88.81738   1599.3638  46.37     0.885     0.518   0.8821        421     72.14371
 7.32   1169.5348  26.4330     4.433868    385.4903  41.87     0.504     0.494  16.5763        422      67.6768
 3.50   1154.4567  21.1791     560.2173   1353.0251 -81.36     1.376     1.236   0.1631        423      84.1333
 3.50   1011.6140  15.2501       131814    242.5962 -45.65    20.766    11.716   0.0062        424     751.1959
 3.50   1091.4695  21.7181     341.0114    468.4520 -71.85     1.782     0.937   0.2640        425     82.88681
 9.41    637.7620  19.6222     2350.279    912.0629  76.65     2.170     1.332   0.1337        426     289.2954
 9.40    956.0786  20.7305     846.8197   1463.8234  72.75     1.430     0.589   0.1993        427     155.4023
 7.34   1131.8109  21.3914     460.7089    358.9647  29.21     1.197     1.030   0.3477        428     147.4982
 3.94   1235.1169  19.7008     2186.204    304.8742 -62.91     1.610     1.518   0.0558        429     112.2293
 9.09   1461.2129  22.5936     152.2451    729.2758 -35.84     1.381     0.720   1.1690        430      163.879
 6.38   1178.4945  22.7797     128.2683   1597.7561  72.38     1.154     0.262   0.5325        431     62.89343
 9.31   1085.1967  18.0202      10278.5   1330.1581 -33.19     6.518     2.287   0.0686        432      649.614
 3.50    937.5668  12.6406      1458004   1277.4124 -29.44    49.225    17.050   0.0007        433     936.3595
 9.25    946.1678  19.1684     3569.846   1457.0416 -61.40     3.562     1.282   0.1085        434     356.5097
 9.07   1076.8246  18.5093     6550.818   1329.2543   8.77     5.609     1.407   0.0762        435      459.573
 6.72   1085.8264  21.9340      279.499   1452.5999  76.24     0.931     0.622   0.3568        436     91.82395
 6.47   1291.7079  20.4480      1098.53    546.5757 -45.27     1.218     0.690   0.0744        437     75.22206
 3.50    948.7310  22.1928     220.2402    445.2476 -63.91     0.926     0.851   0.2756        438     55.88228
 8.54   1340.3853  17.2207     21464.07      7.8460  38.26     4.679     3.222   0.0164        439     324.6766
 3.50   1031.3615  22.4266     177.5681    302.8225  74.09     0.904     0.678   0.3182        440     52.02357
 3.50   1041.0522  17.2203     21473.13    632.9598 -36.99     1.278     1.215   0.0041        441     80.98112
 9.21   1081.9329  18.8692     4702.477   1323.0161 -19.60     2.738     1.396   0.0344        442     148.7761
 3.50   1072.7146  21.5549     396.3103   1219.0363 -76.40     1.023     0.924   0.1723        443     62.89343
 0.00   1033.0406  14.8286     194335.6    584.4959 -45.17    17.968    14.504   0.0044        444     779.8972
 5.62   1412.1394  20.9228     709.3983    350.1121  23.37     1.424     1.101   0.1951        445     127.4312
 3.50   1082.5852  18.4864     6689.968   1148.1748 -59.90     1.419     1.385   0.0146        446     90.10747
 4.61   1066.7268  22.5508     158.3657   1597.1134  48.73     1.170     1.013   0.5812        447     84.74967
 9.45    636.7541  18.9436         4391    870.2198  43.55     5.191     1.404   0.1142        448      461.607
 4.58   1096.1309  20.9568     687.4866   1526.4139 -79.62     1.383     1.253   0.1713        449     108.4558
 7.10    655.4304  20.4089     1138.771    870.9616  15.19     1.485     1.226   0.1663        450     174.3432
 4.55   1202.6334  20.0463     1590.251    339.0734 -83.90     1.520     1.399   0.0824        451     120.7195
 9.23    946.6023  20.6200     937.5909   1473.0059  61.28     1.551     0.695   0.0826        452     71.33416
 6.11   1066.0018  20.3155     1241.053   1562.7301 -64.62     2.577     1.374   0.1821        453     208.0943
 5.12   1504.8602  21.5266     406.7929    723.3845 -23.65     1.272     1.148   0.2971        454     111.2979
 3.51   1571.3455  20.2732     1290.397     92.7359 -46.28     1.463     1.342   0.0753        455     89.52799
 3.50   1039.5012  18.5600      6251.74    525.3767 -47.36     1.488     1.422   0.0160        456     91.82395
 8.75   1223.2148  21.8688     296.8114   1325.7870 -45.34     0.764     0.557   0.3714        457     101.5152
 8.67   1214.8281  20.8359     768.4962    193.9691 -29.74     1.713     0.527   0.2114        458     149.6004
 0.00   1466.1084  99.0000     -60.7092    732.9359  37.92     1.736     1.145  99.0000        459     244.6512
 5.36   1320.0234  21.1763     561.6796    264.0423 -45.50     1.309     1.037   0.2188        460      113.153
 3.50   1014.1033  17.4076     18069.46    376.6012 -48.55    11.381     8.909   0.0383        461     637.2377
 9.16    944.3784  19.4357     2790.759   1466.2745 -55.53     1.271     1.149   0.0475        462     122.0263
 9.17    939.9785  20.7315     846.0598   1481.1689  46.20     2.038     0.499   0.2148        463     167.3361
 6.62    938.9758  20.3510     1201.121    515.9395  66.85     1.781     1.068   0.1493        464     165.1445
 9.36    938.7798  20.6005     954.5673   1472.5092  50.46     1.102     0.667   0.1654        465     145.3656
 3.50    959.7786  18.4997     6608.653     88.1875 -72.37    13.793     7.331   0.1045        466     636.0932
 8.89    930.5770  21.1255     588.5736   1471.3201 -56.81     1.074     0.771   0.2708        467     146.7907
 0.00    929.3521  99.0000    -91.48105   1498.6949  47.15     0.573     0.335  99.0000        468     48.93024
 3.50    985.6996  17.0631     24817.71    558.4406 -57.78     1.796     1.710   0.0048        469     110.8293
 0.00    918.0497  99.0000    -139771.2     29.6284  -3.10    15.365     3.807  99.0000        470     440.8447
 3.50   1465.2289  14.8504     190471.9   1269.4102 -33.34    17.918    14.324   0.0046        471     802.9392
 7.58    982.7303  21.5581     395.1553   1487.4005 -32.83     0.953     0.547   0.2675        472     97.32719
 9.05    633.5892  20.7540     828.7431    928.2348  57.00     1.851     0.564   0.2176        473     166.0873
 0.00    883.3680  99.0000    -20867.82    170.2144 -48.77    18.634     7.004  99.0000        474     722.9506
