#   1 KRON_RADIUS            Kron apertures in units of A or B                         
#   2 Y_IMAGE                Object position along y                                    [pixel]
#   3 MAG_BEST               Best of MAG_AUTO and MAG_ISOCOR                            [mag]
#   4 FLUX_BEST              Best of FLUX_AUTO and FLUX_ISOCOR                          [count]
#   5 X_IMAGE                Object position along x                                    [pixel]
#   6 THETA_IMAGE            Position angle (CCW/x)                                     [deg]
#   7 A_IMAGE                Profile RMS along major axis                               [pixel]
#   8 B_IMAGE                Profile RMS along minor axis                               [pixel]
#   9 MAGERR_BEST            RMS error for MAG_BEST                                     [mag]
#  10 NUMBER                 Running object number                                     
#  11 FLUXERR_BEST           RMS error for BEST flux                                    [count]
 3.50     59.9924  16.4402     44045.44   1078.7397 -76.37     3.031     3.004   0.0024          1     97.26984
 3.80     53.4462  16.5495     39827.46     63.9191   1.33     5.337     4.876   0.0049          2     178.1201
 4.08     16.9284  18.8069     4980.174    985.4626 -87.34     4.427     2.434   0.0267          3     122.5328
 3.50     18.2198  19.1885     3504.362     91.5117 -89.07     2.184     2.115   0.0211          4     68.09087
 3.54     14.9005  18.1096     9465.657   1446.0903 -42.62     2.591     2.467   0.0094          5     82.25485
 7.64      7.3019  24.7363     21.15771   1466.3320 -43.43     0.563     0.340   1.5766          6     30.71558
 6.30      5.0665  22.1270      234.002    144.8630 -83.55     0.803     0.681   0.1987          7     42.81334
 0.00      4.0000  99.0000    -37.86011   1580.0042   0.00     0.836     0.289  99.0000          8     39.87959
 6.13     25.1073  21.9150      284.433    367.6415  26.07     1.770     1.749   0.3798          9     99.46211
 8.11     17.1742  22.1947     219.8549    385.0853 -33.22     1.396     0.608   0.3383         10      68.4856
 6.87     34.8679  21.4183     449.4502   1109.8555  64.00     1.403     0.661   0.1463         11     60.54721
 3.50     80.3080  16.4872     42181.76    537.8432 -75.16     2.975     2.935   0.0025         12     95.31025
 7.99     37.7023  22.7106     136.6925   1521.1277  69.14     0.976     0.690   0.4721         13     59.42379
 9.43     38.5241  21.9451     276.6749   1170.4841  44.19     0.505     0.494   0.1705         14     43.43839
 6.75     42.1870  21.8532     301.0994    915.0546  36.06     0.940     0.466   0.1486         15     41.20927
 5.41     44.2103  25.4027     11.45264    564.4238  70.29     0.750     0.451   2.7850         16     29.36971
 4.55     75.2320  20.1186     1487.801    128.0788  -2.01     2.038     1.769   0.0585         17     80.09643
 3.50    121.9991  16.0433     63484.57    789.4222 -43.33     3.091     2.991   0.0017         18     97.82252
 8.23     80.6874  20.7778     810.7452    422.8605 -69.48     1.831     0.584   0.1043         19      77.8782
 6.64     90.7543  20.2182     1357.496    377.0980  89.81     2.137     1.683   0.0926         20     115.7452
 4.32     96.7815  19.7807     2031.025     56.4105 -47.91     2.142     1.995   0.0440         21     82.25485
 6.56     97.9843  20.3404     1212.896    453.0412 -10.20     2.000     0.927   0.0734         22     81.92649
 3.92    170.5607  18.2818     8077.531    877.5997 -21.37     2.596     2.542   0.0125         23     92.72994
 3.50    162.5962  16.6799     35323.06   1468.6017 -50.03     2.946     2.848   0.0029         24     93.59795
 0.00    131.7585  99.0000    -79.31616   1511.9980  -0.09     0.691     0.428  99.0000         25     23.21879
 6.88    165.6576  21.4569     433.7522   1446.0773 -42.49     1.415     1.198   0.2059         26     82.25485
 4.86    166.8479  21.5703     390.7188    104.9452 -84.09     1.507     1.343   0.1785         27     64.22001
 0.00    159.3233  99.0000    -9.233032    537.6866  45.51     0.564     0.340  99.0000         28     23.79218
 6.12    192.8279  19.9416     1751.372   1350.5502 -33.77     2.922     1.450   0.0721         29       116.21
 4.93    211.0075  18.8549     4764.729    827.9856  -4.47     4.185     2.622   0.0342         30     149.9366
 4.53    206.7366  20.0848     1534.928    549.4040 -48.40     2.105     1.879   0.0585         31     82.74496
 4.65    212.5211  19.9864     1680.436   1306.4330 -68.02     2.091     1.821   0.0541         32     83.71655
 5.26    230.1405  19.0358     4033.544    562.5012 -37.69     3.810     3.392   0.0467         33     173.5207
 3.50    260.0289  15.3634     118750.2    997.7187 -31.72     3.179     3.090   0.0009         34     100.8081
 6.95    210.9013  20.8141     784.0747    684.3038 -59.47     1.540     1.020   0.1109         35     80.09643
 4.23    224.0483  19.9489     1739.549   1226.2903 -22.70     2.031     1.927   0.0482         36     77.18285
 5.35    222.7530  21.3365     484.5964    775.3895 -54.77     1.809     1.449   0.1776         37     79.25061
 3.50    266.0527  15.7816      80792.2     67.7354 -43.79     3.128     3.024   0.0013         38     98.64572
 5.83    243.7050  20.0609     1569.035    113.0363 -77.12     2.694     1.956   0.0853         39      123.191
 4.54    255.5920  19.2180     3410.408    613.4211 -37.77     2.987     2.534   0.0366         40     115.0444
 7.03    239.4051  21.2029     548.0938    838.6548 -80.25     1.643     0.860   0.1515         41     76.48117
 7.81    229.6943  24.0759     38.87305    538.6589 -43.29     0.568     0.338   0.9058         42     32.42328
 3.50    287.9388  17.3791     18550.53   1486.5565 -29.06     3.092     2.733   0.0055         43     93.16496
 8.22    252.1398  22.3330     193.5546   1374.1748   9.82     0.995     0.700   0.1875         44     33.41645
 3.50    282.1220  19.1055     3782.759   1522.4805 -44.20     2.397     2.330   0.0219         45     76.12791
 3.50    303.2986  17.6790     14073.04    201.9460  81.55     2.725     2.685   0.0067         46     87.03177
 3.50    322.3131  18.1541     9085.709    697.5564  78.99     2.545     2.526   0.0098         47     81.92649
 5.03    302.6460  21.0162     650.8925    563.9017  -9.44     1.653     1.383   0.1172         48     70.23445
 8.03    308.3838  21.0591     625.6671     86.2233  87.87     1.279     0.996   0.1448         49     83.39394
 5.57    327.8480  19.7981     1998.715    595.7647 -36.72     2.312     2.177   0.0624         50     114.9272
 7.03    323.0115  20.7858     804.7506    640.0058  80.26     1.572     1.066   0.1125         51     83.39394
 7.64    321.4944  21.0172      650.303    643.4767  53.38     1.782     0.813   0.1406         52     84.19815
 7.19    331.8544  22.0254     256.9546     93.1126  72.97     1.157     0.864   0.2827         53      66.8927
 3.68    368.6599  18.0648     9865.021    760.9850 -48.41     3.231     2.593   0.0108         54     98.23499
 7.54    329.5132  21.9612     272.6075   1546.5171  -0.14     1.089     0.500   0.2058         55     51.65855
 5.33    349.9267  20.5331     1015.684     54.7275 -33.05     1.707     1.422   0.0816         56     76.30474
 3.50    395.3920  16.3775     46666.97    231.5977 -62.82     3.044     2.975   0.0022         57     96.43489
 4.56    361.4849  20.0008     1658.439   1500.6577 -19.23     2.058     1.899   0.0543         58     82.90768
 5.61    361.1364  23.2327     84.51526   1034.1522  63.29     1.356     0.944   0.7429         59     57.81433
 5.56    381.1993  21.1694     565.2267      1.9191  89.92     2.451     0.904   0.1185         60     61.65016
 3.84    398.3579  18.3848     7346.714    354.7344  68.09     2.588     2.567   0.0135         61     91.55981
 6.97    372.0318  21.7968     317.1671     70.7653 -55.38     1.399     0.754   0.2256         62     65.87757
 3.71    397.4172  18.5409     6362.619   1461.3718 -31.96     2.578     2.377   0.0145         63       84.677
 6.46    370.0135  22.4863      168.069    209.0098  -0.68     0.615     0.606   0.2250         64     34.82819
 8.07    372.8885  22.4699     170.6304   1084.1633 -12.06     1.030     0.665   0.3910         65     61.43116
 3.69    393.9711  20.2844     1277.151   1088.8983 -52.38     1.986     1.909   0.0569         66      66.8927
 5.12    412.5886  20.5837     969.4133      2.3713  89.00     3.544     1.277   0.0921         67     82.25485
 7.20    382.3391  21.6354     367.9934     67.3483 -45.00     1.110     0.654   0.1664         68     56.39825
 7.63    383.7711  21.4070     454.1549      9.8582  11.59     1.358     0.557   0.0802         69      33.5569
 7.89    397.2686  20.9115     716.8153    626.1052 -77.88     1.385     0.808   0.1159         70     76.48117
 3.50    461.3334  15.2446     132479.4    807.6801 -42.64     3.187     3.087   0.0008         71     101.2084
 3.50    438.1793  17.5909     15262.48    252.3251  -7.72     2.790     2.705   0.0063         72     88.87067
 6.42    420.9557  20.4610     1085.453    159.3079  43.28     2.158     1.705   0.1132         73     113.1544
 5.26    433.0997  20.3695     1180.875   1422.1903  69.41     1.817     1.717   0.0782         74     84.99474
 4.99    426.9867  20.1975     1383.569    433.6164   1.79     3.411     1.099   0.0742         75     94.54636
 4.50    450.5894  18.7995     5014.045     21.4207  29.10     2.486     2.460   0.0222         76     102.2682
 5.83    426.7534  21.7884     319.6385   1180.0170  34.23     1.461     0.792   0.1964         77     57.81433
 4.89    468.0778  18.4308     7041.447    851.1030  23.78     7.174     2.586   0.0300         78      194.193
 6.88    434.3987  21.2188     540.1171    150.7365   5.03     1.835     1.044   0.1765         79     87.80266
 8.49    431.0078  21.1227     590.0995    720.1688  54.18     0.930     0.469   0.0936         80     50.86983
 6.20    444.9543  20.6055     950.1339    122.5157  59.23     1.881     1.549   0.1115         81     97.54657
 4.06    457.9190  18.7288     5351.315     34.5368 -17.68     2.654     2.427   0.0193         82     94.88507
 5.35    440.3495  21.4343     442.8695    305.9942   4.56     1.300     1.116   0.1446         83     58.96842
 4.37    463.9705  19.7797     2032.947    468.8617  48.26     2.242     1.895   0.0442         84     82.74496
 6.00    461.4203  21.2661       517.08   1096.9910  70.01     1.411     1.077   0.1418         85     67.49445
 3.50    478.1529  19.4498     2754.654    923.1714 -42.87     2.291     2.063   0.0275         86     69.65638
 5.14    471.5919  20.0528     1580.809    254.7253   9.05     1.979     1.869   0.0624         87     90.82081
 3.64    472.2752  19.6347      2323.39    735.0544  13.65     2.058     1.946   0.0315         88     67.49445
 3.98    596.9883  18.5057     6572.164    782.9264 -87.77     3.616     3.454   0.0213         89     128.8591
 4.16    478.5011  20.8912     730.3219   1277.1141 -65.74     2.062     1.725   0.1073         90     72.12791
 7.44    462.3968  21.5634     393.2169    722.7953 -12.80     1.120     0.417   0.1291         91     46.72692
 6.02    495.6913  19.7643     2061.949     82.7940 -76.01     2.776     2.530   0.0774         92     146.9403
 4.67    495.7672  19.7841     2024.702   1186.4735 -12.09     3.112     2.310   0.0616         93     114.8098
 3.94    483.9861  20.4332     1113.535   1070.6869 -32.19     1.909     1.620   0.0618         94     63.37497
 4.24    531.0347  17.6635     14275.69    519.8568  20.40     5.170     3.237   0.0097         95     127.6724
 7.00    489.6824  21.0333     640.7539    839.3367  48.22     1.546     1.140   0.1446         96     85.31129
 4.65    502.2025  21.1727     563.5355    863.7805 -39.11     1.826     1.368   0.1297         97     67.29446
 5.50    504.4208  20.3676     1182.957    763.4030 -17.69     2.418     1.450   0.0871         98     94.88507
 4.49    515.7132  19.2835     3210.739   1461.0072  21.96     4.042     2.029   0.0401         99     118.6205
 8.23    499.3254  22.3213     195.6438    366.3373 -44.47     0.576     0.334   0.1868        100     33.64723
 8.51    509.5540  20.9801     672.9248    166.5013  80.85     1.056     0.943   0.1265        101     78.39567
 6.68    509.5143  21.7708     324.8398    454.2384 -89.83     0.978     0.719   0.1718        102     51.39699
 6.17    513.6793  20.8154     783.1758   1179.5035   5.85     1.540     1.120   0.1031        103     74.33641
 6.30    518.5699  21.3692     470.2314    642.8600 -29.67     1.255     0.759   0.1319        104     57.11068
 3.50    540.5333  20.1614     1430.292   1000.0637 -45.72     2.173     1.750   0.0478        105      62.9482
 8.72    536.4772  22.2291     212.9926    402.4882 -37.02     0.500     0.499   0.2051        106     40.21613
 3.52    559.1711  19.7682     2054.487   1041.8424 -30.51     2.139     1.954   0.0350        107     66.28549
 3.83    580.9929  18.1362     9236.795    145.0090 -71.13     2.633     2.498   0.0106        108     90.22526
 3.59    582.3879  18.1747     8915.221    319.3510 -38.63     2.654     2.520   0.0104        109     85.15317
 4.74    571.4081  20.1268     1476.693     45.8489  54.95     2.361     1.903   0.0680        110      92.4388
 0.00    550.7809  99.0000    -22.49915    143.9820  -0.87     0.655     0.414  99.0000        111     20.76752
 4.62    571.8522  19.9315     1767.727   1447.7355  40.12     2.427     1.906   0.0562        112     91.41248
 8.47    565.4220  20.5732     978.8959    139.1938 -84.40     1.745     0.805   0.1026        113      92.4388
 5.78    577.0038  21.8667     297.3741   1002.5832  -1.68     1.329     1.013   0.2251        114     61.65016
 4.94    584.7218  21.4803     424.4972     75.8023  73.68     1.554     1.136   0.1532        115     59.87568
 6.83    986.9518  19.7942     2005.998    454.2726  73.36     2.267     1.946   0.0717        116     132.3675
 4.97   1598.8541  21.3757     467.4399    654.9175 -26.99     1.750     1.035   0.0877        117     37.76691
 5.87   1595.9941  20.3204     1235.495    652.7838 -22.74     1.121     0.683   0.0419        118      47.6438
 4.43   1599.4045  22.0854     243.1315     20.3169 -17.39     1.692     0.641   0.1590        119     35.59374
 7.59   1594.4321  21.5201     409.2307    374.4944 -88.56     1.109     0.499   0.1343        120     50.60419
 8.91   1594.3894  23.1830     88.47095   1387.1508  19.77     0.757     0.441   0.5841        121     47.58437
 4.10   1584.9974  20.7019     869.4384   1108.8923  -5.70     1.845     1.581   0.0807        122     64.63839
 4.99   1585.4872  22.8000     125.8978   1068.7310  53.74     1.360     0.225   0.2194        123     25.43491
 3.50   1566.8105  19.8637     1881.604     22.0706  39.44     2.151     1.984   0.0384        124     66.48851
 3.54   1565.8353  20.2412     1328.984    784.5983  73.81     2.207     1.782   0.0526        125     64.42953
 3.50   1558.1235  16.1975     55078.45    487.7611 -84.10     2.956     2.930   0.0019        126     95.16874
 3.50   1552.8146  17.2155     21566.67    682.2030 -28.15     4.833     4.349   0.0074        127     147.9458
 7.93    869.6841  22.5306     161.3499    642.6815 -44.87     0.563     0.341   0.2154        128      32.0049
 6.42    858.8502  21.2244     537.3192   1339.7490 -54.85     1.522     1.265   0.0975        129     48.24961
 5.78    845.3093  21.2167      541.161   1064.6372   4.64     1.337     1.276   0.1390        130     69.26832
 5.35    843.6138  20.4447      1101.88   1106.4128  28.43     1.837     1.523   0.0807        131     81.92649
 4.79    836.8301  20.0998     1513.879    298.9754 -57.04     2.095     1.693   0.0594        132     82.74496
 8.05    837.6497  23.1772     88.94873   1521.6752 -46.05     0.581     0.331   0.4108        133     33.64723
 6.16    836.1196  22.3322     193.6869    819.3091 -20.89     0.916     0.679   0.2521        134       44.963
 3.50    823.2621  18.6262     5882.182    654.5389 -44.83     2.487     2.416   0.0146        135     79.25061
 3.50    803.3782  18.7393     5299.969   1378.7463 -35.98     2.435     2.303   0.0157        136     76.48117
 3.50    798.7995  17.5429     15953.14    695.8089 -82.98     3.169     2.692   0.0064        137     94.02895
 4.08    800.9242  19.5541     2502.343     41.2277 -36.88     2.357     2.166   0.0367        138       84.677
 0.00    797.7188  99.0000    -12.16394   1544.2725 -69.71     0.853     0.355  99.0000        139     27.95913
 3.50    774.7054  19.5841     2434.247   1427.5822  88.77     2.779     2.434   0.0374        140     83.87739
 6.60    767.9084  22.0566     249.6702    142.2739  -7.26     1.059     0.677   0.2258        141      51.9188
 8.07    757.6758  22.9714     107.5028   1342.3064  45.95     0.561     0.341   0.3358        142     33.24426
 4.68    742.8165  20.1499     1445.581    556.4481  37.00     1.973     1.809   0.0615        143     81.92649
 6.22    737.9290  21.7003      346.647   1158.6479 -60.24     1.599     1.112   0.2407        144     76.83281
 3.50    726.8715  16.0432      63492.1    848.5637 -46.77     3.084     2.997   0.0017        145     98.23499
 5.03    736.1727  20.9972     662.3953    650.0113 -61.01     1.476     1.207   0.1014        146     61.86839
 4.27    727.8571  20.7288     848.1946   1178.2950  -1.38     1.918     1.742   0.0921        147      71.9408
 7.32    723.0043  22.1802     222.7941   1395.6740 -15.87     1.218     0.677   0.2994        148     61.43116
 3.50    715.9310  20.4481     1098.353    808.4232   3.82     1.831     1.767   0.0576        149     58.27871
 3.71    709.0450  20.3698       1180.5   1164.1002 -19.42     1.930     1.627   0.0553        150     60.10036
 3.89    704.8819  20.2861     1275.181   1339.0087 -17.61     2.022     1.783   0.0560        151     65.80779
 4.09    703.0588  19.7442      2100.51    952.6016 -17.93     2.164     2.110   0.0415        152     80.26452
 6.60    698.4171  20.9600     685.4882    583.4592  16.60     1.674     1.410   0.1478        153     93.30951
 6.11    691.0156  21.1232     589.8008   1214.0000 -64.82     1.742     1.438   0.1645        154     89.32449
 6.27    687.3191  21.2385     530.3847   1214.3245 -19.51     1.893     1.111   0.1041        155     50.83773
 8.75    687.4052  22.4368     175.9133    132.1882  19.49     0.759     0.446   0.2938        156     47.58437
 3.91    685.7895  19.8598     1888.389    644.3520 -76.66     2.205     2.099   0.0443        157     77.00803
 3.50    648.6792  16.0663     62157.25   1464.4430 -41.35     3.031     2.933   0.0017        158     95.87422
 4.47    654.8028  21.2661      517.092    871.6137  16.84     1.473     1.161   0.1128        159     53.70523
 7.38    644.9847  21.2347     532.2334    653.9760  45.88     0.902     0.526   0.0977        160     47.86677
 3.90    630.8015  21.2679     516.2344    806.2888  -7.27     1.543     1.099   0.0989        161     47.01447
 3.65    623.5600  20.9088     718.6132   1581.1151   6.85     1.716     1.666   0.0863        162     57.11068
 9.29    618.5418  22.1512     228.8352   1151.5134 -42.70     0.509     0.489   0.2032        163     42.81334
 5.15    912.7505  21.4148     450.8877   1000.7191 -10.53     1.167     0.712   0.1031        164     42.81334
 7.90   1550.8585  22.2523     208.4932   1221.9042 -43.50     0.840     0.673   0.2836        165      54.4529
 3.50   1541.9684  19.2791     3223.716    134.9627 -88.98     2.309     2.183   0.0244        166     72.50066
 3.50   1570.5266  20.1647     1425.984     92.6435 -55.10     1.908     1.798   0.0453        167     59.42379
 3.50   1563.8154  16.1938      55268.2    304.2059 -48.02     3.028     2.968   0.0019        168     97.26984
 9.33   1536.9894  22.4537     173.1913   1428.7147 -86.80     0.740     0.689   0.3811        169      60.7694
 3.50   1507.2974  16.8632     29834.57    269.3668 -83.66     2.892     2.852   0.0034        170     92.72994
 4.82   1561.5085  20.9024     722.8483    861.5500  13.31     1.943     1.459   0.1120        171      74.5175
 3.74   1546.2635  21.0192     649.1357    863.2227  11.30     2.004     1.434   0.0983        172     58.73942
 7.08    595.3417  24.4181     28.36255    882.6633  45.20     0.582     0.330   1.0706        173     27.95913
 6.47   1516.2203  21.1270     587.7739   1547.8488  86.81     1.542     1.161   0.1477        174     79.92798
 6.36   1532.8143  21.4444      438.764    415.7062  51.44     1.225     0.867   0.1488        175     60.10036
 3.50    886.1867  21.0082     655.7444   1500.2448 -41.32     1.734     1.507   0.0856        176     51.65855
 7.25   1504.3042  22.0817     243.9622   1312.3025 -45.11     0.551     0.345   0.1266        177      28.4371
 3.50   1514.9398  18.3822      7363.85    392.6765 -49.10     2.545     2.449   0.0118        178     80.26452
 3.50   1542.7660  19.8284     1943.791    654.7966 -57.64     2.278     2.085   0.0391        179     70.04229
 7.79   1515.3047  21.1762     561.7336    483.5810 -40.07     1.280     0.506   0.1113        180     57.58074
 4.45    869.7726  19.5256     2568.939   1104.1035 -25.40     2.568     2.291   0.0420        181     99.46211
 4.76    868.4896  20.7161     858.1475    939.5806  10.66     2.196     1.446   0.0990        182     78.22356
 4.91    876.1675  21.6916     349.4376    542.0865 -47.54     0.851     0.656   0.1033        183     33.24426
 7.19   1496.8009  21.8068     314.2625    844.6091  70.45     0.764     0.441   0.1306        184     37.79746
 6.65    901.2337  23.0200     102.7985      1.4447  69.20     0.732     0.453   0.3004        185      28.4371
 3.50    880.6579  15.4863     106047.2   1592.4362 -70.44     3.101     2.929   0.0010        186     94.17218
 5.70   1504.2101  21.4319     443.8335    723.5041 -13.84     1.557     1.364   0.1876        187     76.65719
 4.89    878.4304  21.5609     394.1245    960.4305  33.17     1.393     0.694   0.1239        188       44.963
 7.03    888.6298  20.8880     732.4806    325.9332 -19.57     1.511     1.008   0.1183        189     79.75918
 6.72    938.1221  20.5081     1039.349    516.4684 -38.73     1.776     1.478   0.1046        190     100.1374
 3.50    900.6879  18.6055     5995.292    303.0618 -32.93     2.564     2.331   0.0139        191     76.80763
 8.46   1437.4961  22.4224     178.2599   1347.4993  44.96     0.505     0.495   0.2281        192     37.43918
 6.18   1406.2505  21.7342     335.9938    329.1994  37.89     1.346     1.177   0.2313        193     71.56513
 3.64    929.0269  20.7028     868.6923   1322.1683 -23.87     1.746     1.621   0.0699        194     55.91826
 3.50   1436.4323  16.2418     52879.43   1088.5930  46.50     3.156     2.110   0.0020        195       96.857
 3.50    913.3269  20.8043     791.1769    838.5448 -74.58     1.717     1.401   0.0695        196     50.60419
 4.52    939.6163  19.9608     1720.594   1067.3986 -70.97     2.160     1.995   0.0543        197      86.0976
 3.50    947.4988  21.6157      374.722    445.8224  20.29     1.299     0.861   0.0987        198     34.04544
 3.67   1411.3929  21.0037     658.4296    349.9223  61.00     1.809     1.631   0.0946        199     57.34619
 5.44    896.1943  20.2940     1265.916    538.6280 -19.69     2.337     2.200   0.0974        200     113.5112
 3.80   1435.3816  19.3039     3150.803    224.9037  54.77     2.253     2.167   0.0267        201     77.35727
 3.50   1393.5499  15.8652     74804.94    114.3857 -47.91     3.046     2.987   0.0014        202     96.85327
 3.50   1439.8126  19.7243     2139.262    619.3232 -57.27     2.162     2.065   0.0348        203      68.4856
 7.28   1434.3214  22.7711     129.2885    341.6860  45.38     0.564     0.340   0.2389        204      28.4371
 3.50   1415.5215  20.0398     1599.884   1386.5270 -14.68     1.947     1.825   0.0414        205     60.99078
 3.50   1388.9996  18.4369     7002.318   1428.3959 -75.23     2.420     2.373   0.0120        206      77.5313
 5.13   1412.6035  21.7087     343.9712      1.6324 -87.48     2.074     0.667   0.1466        207     46.43759
 4.45   1400.8259  20.9392     698.7334   1031.7983   3.31     1.904     1.602   0.1106        208     71.18748
 3.50   1408.4286  19.7658     2059.039    308.3497  -2.59     2.203     2.012   0.0360        209     68.28852
 3.50   1095.0238  16.9283     28098.77    778.4089  45.67     2.807     2.661   0.0034        210     88.92183
 5.85   1129.9960  21.2644     517.9133    547.0289  44.68     1.421     1.108   0.1424        211     67.89265
 3.50   1210.8080  17.8365     12173.06   1278.9933  83.25     5.901     3.811   0.0136        212     152.9623
 7.15   1093.4473  20.9937      664.554    467.2916 -45.65     1.313     0.949   0.1194        213     73.05623
 4.03   1392.6481  20.0184     1631.708   1039.0205 -21.95     2.016     1.858   0.0476        214     71.56513
 3.50   1082.0333  18.1508     9113.664   1148.2734 -15.89     2.643     2.564   0.0099        215     83.39394
 5.64   1130.5193  20.8495     758.9291    219.9613  17.17     1.933     0.961   0.1016        216     70.99789
 7.51   1391.6624  22.7936     126.6387    808.3376  45.00     0.581     0.331   0.2671        217     31.15128
 5.69    951.7153  20.5525     997.6597    654.0699 -86.19     1.785     1.414   0.0901        218     82.74496
 7.26   1330.6422  21.7783     322.6014    386.4968  36.27     1.074     0.780   0.2053        219     60.99078
 3.50   1372.7461  18.2967     7967.662   1019.0373 -73.03     2.606     2.568   0.0113        220     82.74496
 3.83   1107.6849  18.5885     6089.947    428.1782 -77.45     2.603     2.456   0.0160        221       89.926
 3.50   1080.1910  16.8224     30977.17    512.2969 -69.69     2.969     2.859   0.0033        222     94.31519
 8.47   1353.4642  22.0203     258.1528    154.5137 -43.11     0.507     0.491   0.1605        223     38.15237
 3.50   1214.8149  17.7095     13683.97    513.1483 -46.75     2.788     2.685   0.0070        224     88.26196
 7.20   1229.4928  22.2087     217.0251   1154.1887 -88.33     1.005     0.740   0.2881        225     57.58074
 5.35   1333.0924  20.8725     743.0435    107.4512 -49.95     1.654     1.308   0.1065        226     72.87151
 8.03   1299.5083  22.9845     106.2207     52.5046  44.92     0.509     0.491   0.3828        227     37.43918
 3.50   1278.2858  19.1141     3752.896   1331.2653  19.66     2.364     2.226   0.0215        228     74.15488
 3.50   1293.0548  20.5257     1022.634    412.8123 -59.79     1.963     1.671   0.0619        229     58.27871
 3.50   1273.0537  17.8591     11922.15    609.9025 -55.37     4.604     3.053   0.0110        230     120.9831
 3.67   1319.2821  21.2298     534.6405    264.3346 -41.09     1.342     1.081   0.0824        231     40.54988
 4.94   1259.4498  19.9076     1807.003    432.2961 -26.24     2.210     1.862   0.0553        232     92.00035
 5.35   1304.6052  20.7297     847.4518    892.9379 -82.97     1.731     1.354   0.0964        233      75.2375
 3.50   1299.5022  25.0691     15.57227   1089.4468 -50.71     0.506     0.491   1.2543        234      17.9852
 6.74   1238.1829  22.0593     249.0365     48.1805  45.52     1.219     0.499   0.2112        235     48.42664
 7.27   1263.2919  21.8040     315.0548    855.0083  21.90     0.729     0.687   0.1650        236     47.86677
 4.26   1213.2944  20.1293     1473.315   1429.4351  61.87     2.704     1.979   0.0672        237     91.11713
 3.80   1202.2263  20.0345     1607.716    339.3524 -60.99     2.012     1.869   0.0457        238     67.69383
 6.35   1230.7163  21.2890      506.278    598.6448 -26.31     1.728     1.210   0.1816        239       84.677
 3.50   1219.2191  18.1873     8812.027   1194.9174  56.23     2.692     2.610   0.0106        240     85.94091
 3.60   1234.5607  19.7125     2162.747    304.9623 -43.58     2.220     2.046   0.0354        241     70.42609
 6.85   1238.0038  22.7999     125.9092    856.8279 -34.98     1.279     0.435   0.4104        242     47.58437
 7.40   1204.6573  22.6635     142.7518   1217.3335  45.37     0.581     0.331   0.2163        243      28.4371
 3.50   1237.2053  20.1563     1437.112   1553.3928   3.72     1.978     1.901   0.0471        244     62.30256
 5.18   1195.3461  20.1170     1490.049    124.1042  88.39     2.276     2.069   0.0754        245     103.4475
 3.50   1138.7202  16.8805     29363.61    148.0385 -47.73     2.901     2.826   0.0034        246     92.00035
 3.50   1201.2911  20.9844     670.2512   1442.0563  25.89     1.754     1.557   0.0858        247       52.947
 4.84   1181.3904  21.1727     563.5497    549.5240 -82.69     1.735     1.003   0.1136        248     58.96842
 4.24   1207.9182  20.1903     1392.749    839.1417 -37.75     2.094     1.889   0.0607        249      77.8782
 4.95   1151.3420  20.5266     1021.789     99.5742 -31.94     2.041     1.732   0.0915        250      86.0976
 3.50   1165.4768  16.3802     46551.79   1299.7546 -45.06     2.966     2.895   0.0022        251     94.17218
 4.59   1120.3331  19.4101     2857.241    330.1281  55.50     2.861     2.131   0.0395        252     103.8376
 3.64   1158.1259  18.7299     5345.898    236.4268 -45.23     2.466     2.432   0.0167        253     82.25485
 3.50   1161.9113  21.6057      378.204    887.8856 -23.63     1.513     1.254   0.1282        254     44.66224
 5.21   1153.7365  20.8632     749.4219   1352.9554  -1.42     1.817     1.304   0.1072        255     73.97291
 6.37   1111.0759  19.8949     1828.262    479.3346  60.00     2.765     1.746   0.0768        256     129.2768
 4.96   1072.4772  19.6143     2367.519   1218.9852 -66.57     2.589     2.211   0.0503        257     109.6458
 3.50   1130.2097  17.6325     14689.89    183.5254 -48.52     2.811     2.665   0.0065        258     87.80266
 7.36   1042.4810  23.4977     66.20703    468.0018  32.34     0.790     0.316   0.5649        259     34.43904
 3.50   1096.0061  20.9009     723.8434   1527.0216  17.14     1.634     1.463   0.0751        260     50.06868
 6.47   1065.9886  22.0291      256.074   1596.7365  52.89     1.278     0.626   0.2135        261     50.33715
 3.50   1026.0679  17.4064     18089.45   1380.0214 -55.82     2.795     2.683   0.0053        262     88.10913
 7.21   1079.8993  20.5488     1001.081    329.8013  -2.51     1.332     1.111   0.0873        263     80.43226
 5.49   1065.5956  20.4462     1100.367   1562.7943 -48.93     2.215     1.456   0.0892        264     90.37451
 3.50   1010.0671  17.5827     15379.13    813.8275 -65.16     2.713     2.670   0.0061        265     87.03177
 7.01   1016.7502  22.4838      168.451    454.1198 -29.65     1.034     0.653   0.3397        266     52.69183
 3.50   1038.8405  18.2709     8159.273    525.6727 -60.61     2.701     2.531   0.0112        267     84.51768
 3.50   1040.5190  16.5484     39869.11    633.2500 -61.44     3.027     2.929   0.0026        268     95.59265
 8.15   1042.3296  22.6179     148.8817   1096.3228 -45.32     0.571     0.337   0.2454        269     33.64723
 6.41   1049.0043  25.6180     9.392944   1089.0000  90.00     0.836     0.289   3.2326        270     27.95913
 4.22   1030.0459  19.7803     2031.703    302.9783  66.56     2.899     2.088   0.0512        271     95.87422
 4.13   1011.6921  19.5528     2505.303    345.0459 -64.98     2.237     2.085   0.0357        272     82.41854
 5.76    980.8536  20.7712     815.6793    798.1853 -58.32     1.865     1.469   0.1171        273     87.95603
 4.52   1001.9209  19.4690     2706.507    542.7508  -3.52     2.292     2.245   0.0379        274     94.45798
 3.50   1001.7543  20.4809     1065.748   1555.5012 -25.15     1.812     1.612   0.0557        275     54.69985
 7.54    964.9527  21.1707     564.5922    415.9613 -36.71     1.450     0.971   0.1582        276     82.25485
 4.79   1000.3470  20.7057     866.3936   1273.7705 -15.75     1.937     1.514   0.0943        277      75.2375
 3.50    985.2017  16.9379     27850.66    558.6800 -34.57     2.937     2.855   0.0036        278     93.16496
