#   1 KRON_RADIUS            Kron apertures in units of A or B                         
#   2 Y_IMAGE                Object position along y                                    [pixel]
#   3 MAG_BEST               Best of MAG_AUTO and MAG_ISOCOR                            [mag]
#   4 FLUX_BEST              Best of FLUX_AUTO and FLUX_ISOCOR                          [count]
#   5 X_IMAGE                Object position along x                                    [pixel]
#   6 THETA_IMAGE            Position angle (CCW/x)                                     [deg]
#   7 A_IMAGE                Profile RMS along major axis                               [pixel]
#   8 B_IMAGE                Profile RMS along minor axis                               [pixel]
#   9 MAGERR_BEST            RMS error for MAG_BEST                                     [mag]
#  10 NUMBER                 Running object number                                     
#  11 FLUXERR_BEST           RMS error for BEST flux                                    [count]
 3.50     59.9924  16.3563     47588.02   1078.7397 -76.37     3.031     3.004   0.0022          1     97.26984
 3.80     53.4462  16.5009     41651.46     63.9191   1.33     5.337     4.876   0.0046          2     178.1201
 4.08     16.9284  18.6294     5864.851    985.4626 -87.34     4.427     2.434   0.0227          3     122.5328
 3.50     18.2198  19.2037     3455.521     91.5117 -89.07     2.184     2.115   0.0214          4     68.09087
 3.54     14.9005  18.0302     10183.62   1446.0903 -42.62     2.591     2.467   0.0088          5     82.25485
 7.64      7.3019  22.5540     157.9132   1466.3320 -43.43     0.563     0.340   0.2112          6     30.71558
 6.30      5.0665  22.2333     212.1714    144.8630 -83.55     0.803     0.681   0.2191          7     42.81334
 8.49      4.0000  22.2161     215.5513   1580.0042   0.00     0.836     0.289   0.2009          8     39.87959
 6.13     25.1073  20.3124     1244.604    367.6415  26.07     1.770     1.749   0.0868          9     99.46211
 8.11     17.1742  21.2314     533.8594    385.0853 -33.22     1.396     0.608   0.1393         10      68.4856
 6.87     34.8679  21.4337     443.1161   1109.8555  64.00     1.403     0.661   0.1484         11     60.54721
 3.50     80.3080  16.3857     46314.34    537.8432 -75.16     2.975     2.935   0.0022         12     95.31025
 7.99     37.7023  21.7007     346.5193   1521.1277  69.14     0.976     0.690   0.1862         13     59.42379
 9.43     38.5241  22.3548     189.7114   1170.4841  44.19     0.505     0.494   0.2487         14     43.43839
 6.75     42.1870  22.0625     248.3046    915.0546  36.06     0.940     0.466   0.1802         15     41.20927
 5.41     44.2103  22.9878     105.8937    564.4238  70.29     0.750     0.451   0.3012         16     29.36971
 4.55     75.2320  19.9882     1677.698    128.0788  -2.01     2.038     1.769   0.0518         17     80.09643
 3.50    121.9991  15.9588     68622.38    789.4222 -43.33     3.091     2.991   0.0015         18     97.82252
 8.23     80.6874  21.1790     560.2977    422.8605 -69.48     1.831     0.584   0.1509         19      77.8782
 6.64     90.7543  20.2667      1298.14    377.0980  89.81     2.137     1.683   0.0968         20     115.7452
 4.32     96.7815  19.6293     2335.009     56.4105 -47.91     2.142     1.995   0.0383         21     82.25485
 6.56     97.9843  21.0730     617.7461    453.0412 -10.20     2.000     0.927   0.1440         22     81.92649
 3.92    170.5607  18.1939      8758.38    877.5997 -21.37     2.596     2.542   0.0115         23     92.72994
 3.50    162.5962  16.5854     38533.21   1468.6017 -50.03     2.946     2.848   0.0026         24     93.59795
 4.54    131.7585  23.0370     101.2041   1511.9980  -0.09     0.691     0.428   0.2492         25     23.21879
 6.88    165.6576  20.9392     698.7219   1446.0773 -42.49     1.415     1.198   0.1278         26     82.25485
 4.86    166.8479  21.0797     613.9191    104.9452 -84.09     1.507     1.343   0.1136         27     64.22001
 5.88    159.3233  23.3146     78.37036    537.6866  45.51     0.564     0.340   0.3297         28     23.79218
 6.12    192.8279  20.1309      1471.11   1350.5502 -33.77     2.922     1.450   0.0858         29       116.21
 4.93    211.0075  18.7801     5104.565    827.9856  -4.47     4.185     2.622   0.0319         30     149.9366
 4.53    206.7366  19.8295     1941.841    549.4040 -48.40     2.105     1.879   0.0463         31     82.74496
 4.65    212.5211  19.9693     1707.135   1306.4330 -68.02     2.091     1.821   0.0533         32     83.71655
 5.26    230.1405  18.7899     5058.616    562.5012 -37.69     3.810     3.392   0.0373         33     173.5207
 3.50    260.0289  15.4979     104919.7    997.7187 -31.72     3.179     3.090   0.0010         34     100.8081
 6.95    210.9013  21.3236     490.3995    684.3038 -59.47     1.540     1.020   0.1774         35     80.09643
 4.23    224.0483  19.8744     1863.075   1226.2903 -22.70     2.031     1.927   0.0450         36     77.18285
 5.35    222.7530  20.8954     727.4865    775.3895 -54.77     1.809     1.449   0.1183         37     79.25061
 3.50    266.0527  15.6978     87275.22     67.7354 -43.79     3.128     3.024   0.0012         38     98.64572
 5.83    243.7050  19.8022      1991.19    113.0363 -77.12     2.694     1.956   0.0672         39      123.191
 4.54    255.5920  19.0282      4061.94    613.4211 -37.77     2.987     2.534   0.0308         40     115.0444
 7.03    239.4051  21.0881     609.2211    838.6548 -80.25     1.643     0.860   0.1363         41     76.48117
 7.81    229.6943  23.1827     88.49365    538.6589 -43.29     0.568     0.338   0.3979         42     32.42328
 3.50    287.9388  17.2579     20740.84   1486.5565 -29.06     3.092     2.733   0.0049         43     93.16496
 8.22    252.1398  22.3406     192.1971   1374.1748   9.82     0.995     0.700   0.1852         44     32.77771
 3.50    282.1220  18.9548     4345.958   1522.4805 -44.20     2.397     2.330   0.0190         45     76.12791
 3.50    303.2986  17.6252     14787.76    201.9460  81.55     2.725     2.685   0.0064         46     87.03177
 3.50    322.3131  18.0810      9718.89    697.5564  78.99     2.545     2.526   0.0092         47     81.92649
 5.03    302.6460  21.0165     650.7527    563.9017  -9.44     1.653     1.383   0.1172         48     70.23445
 8.03    308.3838  20.9224     709.6398     86.2233  87.87     1.279     0.996   0.1276         49     83.39394
 5.57    327.8480  19.6778     2232.929    595.7647 -36.72     2.312     2.177   0.0559         50     114.9272
 7.03    323.0115  20.9374     699.9271    640.0058  80.26     1.572     1.066   0.1294         51     83.39394
 7.64    321.4944  20.8611     750.8544    643.4767  53.38     1.782     0.813   0.1218         52     84.19815
 7.19    331.8544  21.3673     471.0651     93.1126  72.97     1.157     0.864   0.1542         53      66.8927
 3.68    368.6599  17.9608     10856.66    760.9850 -48.41     3.231     2.593   0.0098         54     98.23499
 7.54    329.5132  22.2819     202.8895   1546.5171  -0.14     1.089     0.500   0.2765         55     51.65855
 5.33    349.9267  20.5668     984.6444     54.7275 -33.05     1.707     1.422   0.0842         56     76.30474
 3.50    395.3920  16.2837     50878.89    231.5977 -62.82     3.044     2.975   0.0021         57     96.43489
 4.56    361.4849  19.9395     1754.763   1500.6577 -19.23     2.058     1.899   0.0513         58     82.90768
 5.61    361.1364  21.5962      381.532   1034.1522  63.29     1.356     0.944   0.1646         59     57.81433
 5.56    381.1993  20.4747     1071.852      1.9191  89.92     2.451     0.904   0.0625         60     61.65016
 3.84    398.3579  18.2447     8358.074    354.7344  68.09     2.588     2.567   0.0119         61     91.55981
 6.97    372.0318  21.2848     508.2693     70.7653 -55.38     1.399     0.754   0.1408         62     65.87757
 3.71    397.4172  18.4682     6803.153   1461.3718 -31.96     2.578     2.377   0.0135         63       84.677
 6.46    370.0135  22.5725     155.2396    209.0098  -0.68     0.615     0.606   0.2436         64     34.82819
 8.07    372.8885  21.4442     438.8473   1084.1633 -12.06     1.030     0.665   0.1520         65     61.43116
 3.69    393.9711  20.0342     1608.069   1088.8983 -52.38     1.986     1.909   0.0452         66      66.8927
 5.12    412.5886  19.7600     2070.109      2.3713  89.00     3.544     1.277   0.0432         67     82.25485
 7.20    382.3391  21.9840      266.925     67.3483 -45.00     1.110     0.654   0.2295         68     56.39825
 7.63    383.7711  22.2657     205.9245      9.8582  11.59     1.358     0.557   0.1918         69     36.36084
 7.89    397.2686  21.0362     639.0424    626.1052 -77.88     1.385     0.808   0.1300         70     76.48117
 3.50    461.3334  15.1521       144269    807.6801 -42.64     3.187     3.087   0.0008         71     101.2084
 3.50    438.1793  17.5268     16191.17    252.3251  -7.72     2.790     2.705   0.0060         72     88.87067
 6.42    420.9557  20.2695     1294.739    159.3079  43.28     2.158     1.705   0.0949         73     113.1544
 5.26    433.0997  20.2998      1259.16   1422.1903  69.41     1.817     1.717   0.0733         74     84.99474
 4.99    426.9867  20.0564     1575.561    433.6164   1.79     3.411     1.099   0.0417         75       60.502
 4.50    450.5894  18.6656      5672.11     21.4207  29.10     2.486     2.460   0.0196         76     102.2682
 5.83    426.7534  21.6560     361.0653   1180.0170  34.23     1.461     0.792   0.1739         77     57.81433
 4.89    468.0778  18.2882     8030.442    851.1030  23.78     7.174     2.586   0.0263         78      194.193
 6.88    434.3987  20.9558     688.1416    150.7365   5.03     1.835     1.044   0.1386         79     87.80266
 8.49    431.0078  21.6966     347.8257    720.1688  54.18     0.930     0.469   0.1588         80     50.86983
 6.20    444.9543  20.4544     1092.039    122.5157  59.23     1.881     1.549   0.0970         81     97.54657
 4.06    457.9190  18.5526     6294.553     34.5368 -17.68     2.654     2.427   0.0164         82     94.88507
 5.35    440.3495  21.2845     508.4127    305.9942   4.56     1.300     1.116   0.1260         83     58.96842
 4.37    463.9705  19.9193     1787.666    468.8617  48.26     2.242     1.895   0.0503         84     82.74496
 6.00    461.4203  21.2394     529.9719   1096.9910  70.01     1.411     1.077   0.1383         85     67.49445
 3.50    478.1529  19.4578     2734.611    923.1714 -42.87     2.291     2.063   0.0277         86     69.65638
 5.14    471.5919  19.9663      1711.85    254.7253   9.05     1.979     1.869   0.0576         87     90.82081
 3.64    472.2752  19.7779     2036.326    735.0544  13.65     2.058     1.946   0.0360         88     67.49445
 3.98    596.9883  18.6455     5778.323    782.9264 -87.77     3.616     3.454   0.0242         89     128.8591
 4.16    478.5011  20.5402     1009.097   1277.1141 -65.74     2.062     1.725   0.0776         90     72.12791
 7.44    462.3968  21.9163     284.1062    722.7953 -12.80     1.120     0.417   0.1786         91     46.72692
 6.02    495.6913  19.3987     2887.388     82.7940 -76.01     2.776     2.530   0.0553         92     146.9403
 4.67    495.7672  19.6476     2295.856   1186.4735 -12.09     3.112     2.310   0.0543         93     114.8098
 3.94    483.9861  20.5142       1033.5   1070.6869 -32.19     1.909     1.620   0.0666         94     63.37497
 4.24    531.0347  17.6799     14061.39    519.8568  20.40     5.170     3.237   0.0099         95     128.2356
 7.00    489.6824  21.0680     620.6107    839.3367  48.22     1.546     1.140   0.1493         96     85.31129
 4.65    502.2025  21.2940     503.9827    863.7805 -39.11     1.826     1.368   0.1450         97     67.29446
 5.50    504.4208  20.3414     1211.777    763.4030 -17.69     2.418     1.450   0.0850         98     94.88507
 4.49    515.7132  19.2736     3240.169   1461.0072  21.96     4.042     2.029   0.0398         99     118.6205
 8.23    499.3254  22.2295     212.9092    366.3373 -44.47     0.576     0.334   0.1716        100     33.64723
 8.51    509.5540  20.9034     722.1783    166.5013  80.85     1.056     0.943   0.1179        101     78.39567
 6.68    509.5143  21.9693     270.5626    454.2384 -89.83     0.978     0.719   0.2063        102     51.39699
 6.17    513.6793  21.0572     626.7728   1179.5035   5.85     1.540     1.120   0.1288        103     74.33641
 6.30    518.5699  21.6157      374.741    642.8600 -29.67     1.255     0.759   0.1655        104     57.11068
 3.50    540.5333  20.1103     1499.333   1000.0637 -45.72     2.173     1.750   0.0456        105      62.9482
 8.72    536.4772  22.2143     215.9231    402.4882 -37.02     0.500     0.499   0.2023        106     40.21613
 3.52    559.1711  19.7187     2150.469   1041.8424 -30.51     2.139     1.954   0.0335        107     66.28549
 3.83    580.9929  18.0828     9702.231    145.0090 -71.13     2.633     2.498   0.0101        108     90.22526
 3.59    582.3879  18.0892     9645.091    319.3510 -38.63     2.654     2.520   0.0096        109     85.15317
 4.74    571.4081  19.9242     1779.627     45.8489  54.95     2.361     1.903   0.0564        110      92.4388
 4.55    550.7809  23.5302     64.25708    143.9820  -0.87     0.655     0.414   0.3510        111     20.76752
 4.62    571.8522  20.1308     1471.282   1447.7355  40.12     2.427     1.906   0.0675        112     91.41248
 8.47    565.4220  20.7273     849.3556    139.1938 -84.40     1.745     0.805   0.1182        113      92.4388
 5.78    577.0038  21.7525     330.3633   1002.5832  -1.68     1.329     1.013   0.2027        114     61.65016
 4.94    584.7218  21.0565     627.1946     75.8023  73.68     1.554     1.136   0.1037        115     59.87568
 6.83    986.9518  19.6959     2195.987    454.2726  73.36     2.267     1.946   0.0655        116     132.3675
 4.97   1598.8541  21.4853     422.5553    654.9175 -26.99     1.750     1.035   0.1148        117     44.67133
 5.87   1595.9941  22.2161     215.5559    652.7838 -22.74     1.121     0.683   0.1526        118     30.29543
 4.43   1599.4045  22.0051     261.7906     20.3169 -17.39     1.692     0.641   0.1477        119     35.59374
 7.59   1594.4321  21.7521     330.4933    374.4944 -88.56     1.109     0.499   0.1663        120     50.60419
 8.91   1594.3894  22.0020     262.5399   1387.1508  19.77     0.757     0.441   0.1968        121     47.58437
 4.10   1584.9974  20.4066     1141.157   1108.8923  -5.70     1.845     1.581   0.0615        122     64.63839
 4.99   1585.4872  22.9012     114.6896   1068.7310  53.74     1.360     0.225   0.2408        123     25.43491
 3.50   1566.8105  19.8503     1904.892     22.0706  39.44     2.151     1.984   0.0379        124     66.48851
 3.54   1565.8353  20.3790     1170.598    784.5983  73.81     2.207     1.782   0.0598        125     64.42953
 3.50   1558.1235  16.1221     59040.13    487.7611 -84.10     2.956     2.930   0.0018        126     95.16874
 3.50   1552.8146  17.1183     23586.88    682.2030 -28.15     4.833     4.349   0.0068        127     147.9458
 7.93    869.6841  22.4932     167.0061    642.6815 -44.87     0.563     0.341   0.2081        128      32.0049
 6.42    858.8502  21.2246     537.2213   1339.7490 -54.85     1.522     1.265   0.1124        129     55.58821
 5.78    845.3093  21.1707     564.5975   1064.6372   4.64     1.337     1.276   0.1332        130     69.26832
 5.35    843.6138  20.5172      1030.68   1106.4128  28.43     1.837     1.523   0.0863        131     81.92649
 4.79    836.8301  20.2548     1312.397    298.9754 -57.04     2.095     1.693   0.0685        132     82.74496
 8.05    837.6497  22.6830     140.2107   1521.6752 -46.05     0.581     0.331   0.2606        133     33.64723
 6.16    836.1196  22.1432     230.5314    819.3091 -20.89     0.916     0.679   0.2118        134       44.963
 3.50    823.2621  18.5312     6419.896    654.5389 -44.83     2.487     2.416   0.0134        135     79.25061
 3.50    803.3782  18.6645     5678.272   1378.7463 -35.98     2.435     2.303   0.0146        136     76.48117
 3.50    798.7995  17.4466      17433.1    695.8089 -82.98     3.169     2.692   0.0059        137     94.02895
 4.08    800.9242  19.4054     2869.703     41.2277 -36.88     2.357     2.166   0.0320        138       84.677
 5.84    797.7188  22.8712     117.8995   1544.2725 -69.71     0.853     0.355   0.2575        139     27.95913
 3.50    774.7054  19.6582     2273.681   1427.5822  88.77     2.779     2.434   0.0401        140     83.87739
 6.60    767.9084  21.9407     277.7814    142.2739  -7.26     1.059     0.677   0.2030        141      51.9188
 8.07    757.6758  22.6659      142.446   1342.3064  45.95     0.561     0.341   0.2535        142     33.24426
 4.68    742.8165  20.2040     1375.284    556.4481  37.00     1.973     1.809   0.0647        143     81.92649
 6.22    737.9290  21.2268     536.1521   1158.6479 -60.24     1.599     1.112   0.1556        144     76.83281
 3.50    726.8715  15.9572     68725.34    848.5637 -46.77     3.084     2.997   0.0016        145     98.23499
 5.03    736.1727  21.0847     611.0824    650.0113 -61.01     1.476     1.207   0.1100        146     61.86839
 4.27    727.8571  20.4647     1081.745   1178.2950  -1.38     1.918     1.742   0.0722        147      71.9408
 7.32    723.0043  21.5791     387.5927   1395.6740 -15.87     1.218     0.677   0.1721        148     61.43116
 3.50    715.9310  20.3462     1206.473    808.4232   3.82     1.831     1.767   0.0525        149     58.27871
 3.71    709.0450  20.3523     1199.735   1164.1002 -19.42     1.930     1.627   0.0544        150     60.10036
 3.89    704.8819  20.2707     1293.307   1339.0087 -17.61     2.022     1.783   0.0544        151     64.78856
 4.09    703.0588  19.5853     2431.549    952.6016 -17.93     2.164     2.110   0.0358        152     80.26452
 6.60    698.4171  20.8876     732.7791    583.4592  16.60     1.674     1.410   0.1383        153     93.30951
 6.11    691.0156  20.7311     846.3542   1214.0000 -64.82     1.742     1.438   0.1146        154     89.32449
 6.27    687.3191  21.2203     539.3599   1214.3245 -19.51     1.893     1.111   0.1129        155     56.08774
 8.75    687.4052  21.9732      269.588    132.1882  19.49     0.759     0.446   0.1917        156     47.58437
 3.91    685.7895  19.7509     2087.501    644.3520 -76.66     2.205     2.099   0.0401        157     77.00803
 3.50    648.6792  15.9697     67939.72   1464.4430 -41.35     3.031     2.933   0.0015        158     95.87422
 4.47    654.8028  21.2528     523.4613    871.6137  16.84     1.473     1.161   0.1114        159     53.70523
 7.38    644.9847  22.0077     261.1788    653.9760  45.88     0.902     0.526   0.1990        160     47.86677
 3.90    630.8015  21.3809     465.2048    806.2888  -7.27     1.543     1.099   0.1098        161     47.01447
 3.65    623.5600  20.5837     969.4475   1581.1151   6.85     1.716     1.666   0.0640        162     57.11068
 9.29    618.5418  21.6910     349.6298   1151.5134 -42.70     0.509     0.489   0.1330        163     42.81334
 5.15    912.7505  22.0668     247.3398   1000.7191 -10.53     1.167     0.712   0.1880        164     42.81334
 7.90   1550.8585  21.7252     338.7804   1221.9042 -43.50     0.840     0.673   0.1746        165      54.4529
 3.50   1541.9684  19.2657     3263.667    134.9627 -88.98     2.309     2.183   0.0241        166     72.50066
 3.50   1570.5266  20.2218     1352.949     92.6435 -55.10     1.908     1.798   0.0477        167     59.42379
 3.50   1563.8154  16.1107     59665.49    304.2059 -48.02     3.028     2.968   0.0018        168     97.26984
 9.33   1536.9894  21.5083      413.702   1428.7147 -86.80     0.740     0.689   0.1595        169      60.7694
 3.50   1507.2974  16.7861      32031.6    269.3668 -83.66     2.892     2.852   0.0031        170     92.72994
 4.82   1561.5085  20.6403     920.2229    861.5500  13.31     1.943     1.459   0.0879        171      74.5175
 3.74   1546.2635  21.0160     651.0435    863.2227  11.30     2.004     1.434   0.0980        172     58.73942
 7.08    595.3417  22.9299      111.701    882.6633  45.20     0.582     0.330   0.2718        173     27.95913
 6.47   1516.2203  21.0421     635.5864   1547.8488  86.81     1.542     1.161   0.1366        174     79.92798
 6.36   1532.8143  21.5542     396.5629    415.7062  51.44     1.225     0.867   0.1646        175     60.10036
 3.50    886.1867  20.9474     693.4954   1500.2448 -41.32     1.734     1.507   0.0809        176     51.65855
 7.25   1504.3042  22.9177      112.963   1312.3025 -45.11     0.551     0.345   0.2734        177      28.4371
 3.50   1514.9398  18.3338     7699.465    392.6765 -49.10     2.545     2.449   0.0113        178     80.26452
 3.50   1542.7660  19.6356     2321.483    654.7966 -57.64     2.278     2.085   0.0328        179     70.04229
 7.79   1515.3047  21.8011     315.9005    483.5810 -40.07     1.280     0.506   0.1980        180     57.58074
 4.45    869.7726  19.4595     2730.252   1104.1035 -25.40     2.568     2.291   0.0396        181     99.46211
 4.76    868.4896  20.7435     836.7322    939.5806  10.66     2.196     1.446   0.1015        182     78.22356
 4.91    876.1675  22.8103     124.7034    542.0865 -47.54     0.851     0.656   0.2895        183     33.24426
 7.19   1496.8009  22.4678     170.9479    844.6091  70.45     0.764     0.441   0.2401        184     37.79746
 6.65    901.2337  22.7067     137.1942      1.4447  69.20     0.732     0.453   0.2251        185      28.4371
 3.50    880.6579  15.4087     113894.7   1592.4362 -70.44     3.101     2.929   0.0009        186     94.17218
 5.70   1504.2101  20.9321     703.3118    723.5041 -13.84     1.557     1.364   0.1184        187     76.65719
 4.89    878.4304  21.9600     272.8948    960.4305  33.17     1.393     0.694   0.1789        188       44.963
 7.03    888.6298  20.9940     664.3541    325.9332 -19.57     1.511     1.008   0.1304        189     79.75918
 6.72    938.1221  20.7411     838.6078    516.4684 -38.73     1.776     1.478   0.1297        190     100.1374
 3.50    900.6879  18.5581     6262.728    303.0618 -32.93     2.564     2.331   0.0132        191      76.0181
 8.46   1437.4961  22.3338     193.4099   1347.4993  44.96     0.505     0.495   0.2102        192     37.43918
 6.18   1406.2505  21.4187     449.2766    329.1994  37.89     1.346     1.177   0.1730        193     71.56513
 3.64    929.0269  20.7309     846.5496   1322.1683 -23.87     1.746     1.621   0.0717        194     55.91826
 3.50   1436.4323  15.9424     69668.23   1088.5930  46.50     3.156     2.110   0.0015        195     96.06391
 3.50    913.3269  20.9909     666.2407    838.5448 -74.58     1.717     1.401   0.0825        196     50.60419
 4.52    939.6163  19.7942     2005.876   1067.3986 -70.97     2.160     1.995   0.0466        197      86.0976
 3.50    947.4988  22.0280     256.3411    445.8224  20.29     1.299     0.861   0.1442        198     34.04544
 3.67   1411.3929  20.9617     684.4404    349.9223  61.00     1.809     1.631   0.0910        199     57.34619
 5.44    896.1943  20.0520     1581.945    538.6280 -19.69     2.337     2.200   0.0779        200     113.5112
 3.80   1435.3816  19.2446     3327.726    224.9037  54.77     2.253     2.167   0.0252        201     77.35727
 3.50   1393.5499  15.7801     80899.19    114.3857 -47.91     3.046     2.987   0.0013        202     96.85327
 3.50   1439.8126  19.6143     2367.398    619.3232 -57.27     2.162     2.065   0.0314        203      68.4856
 7.28   1434.3214  22.5854     153.4086    341.6860  45.38     0.564     0.340   0.2013        204      28.4371
 3.50   1415.5215  20.1626     1428.777   1386.5270 -14.68     1.947     1.825   0.0464        205     60.99078
 3.50   1388.9996  18.4166     7134.584   1428.3959 -75.23     2.420     2.373   0.0118        206      77.5313
 5.13   1412.6035  21.3201     491.9939      1.6324 -87.48     2.074     0.667   0.1025        207     46.43759
 4.45   1400.8259  20.6424     918.3798   1031.7983   3.31     1.904     1.602   0.0842        208     71.18748
 3.50   1408.4286  19.6446     2302.374    308.3497  -2.59     2.203     2.012   0.0322        209     68.28852
 3.50   1095.0238  16.8653     29778.13    778.4089  45.67     2.807     2.661   0.0032        210     88.62566
 5.85   1129.9960  21.1769     561.3496    547.0289  44.68     1.421     1.108   0.1313        211     67.89265
 3.50   1210.8080  17.6443     14530.29   1278.9933  83.25     5.901     3.811   0.0114        212     152.9623
 7.15   1093.4473  21.0015     659.8024    467.2916 -45.65     1.313     0.949   0.1202        213     73.05623
 4.03   1392.6481  20.0050     1651.955   1039.0205 -21.95     2.016     1.858   0.0470        214     71.56513
 3.50   1082.0333  18.0986     9562.285   1148.2734 -15.89     2.643     2.564   0.0095        215     83.39394
 5.64   1130.5193  21.2064     546.3282    219.9613  17.17     1.933     0.961   0.1411        216     70.99789
 7.51   1391.6624  22.7880     127.2891    808.3376  45.00     0.581     0.331   0.2658        217     31.15128
 5.69    951.7153  20.8979     725.8525    654.0699 -86.19     1.785     1.414   0.1238        218     82.74496
 7.26   1330.6422  21.7668     326.0437    386.4968  36.27     1.074     0.780   0.2032        219     60.99078
 3.50   1372.7461  18.2138     8599.297   1019.0373 -73.03     2.606     2.568   0.0104        220     82.74496
 3.83   1107.6849  18.4383     6993.199    428.1782 -77.45     2.603     2.456   0.0140        221       89.926
 3.50   1080.1910  16.7357     33550.59    512.2969 -69.69     2.969     2.859   0.0031        222     94.31519
 8.47   1353.4642  22.2740     204.3699    154.5137 -43.11     0.507     0.491   0.2027        223     38.15237
 3.50   1214.8149  17.6160     14914.39    513.1483 -46.75     2.788     2.685   0.0064        224     88.26196
 7.20   1229.4928  21.6386     366.9139   1154.1887 -88.33     1.005     0.740   0.1704        225     57.58074
 5.35   1333.0924  20.9159     713.9022    107.4512 -49.95     1.654     1.308   0.1109        226     72.87151
 8.03   1299.5083  22.5717     155.3556     52.5046  44.92     0.509     0.491   0.2617        227     37.43918
 3.50   1278.2858  19.0388     4022.524   1331.2653  19.66     2.364     2.226   0.0200        228     74.15488
 3.50   1293.0548  20.7653     820.1095    412.8123 -59.79     1.963     1.671   0.0772        229     58.27871
 3.50   1273.0537  17.7390     13316.66    609.9025 -55.37     4.604     3.053   0.0099        230     120.9831
 3.67   1319.2821  21.5469      399.231    264.3346 -41.09     1.342     1.081   0.1103        231     40.54988
 4.94   1259.4498  20.3118     1245.354    432.2961 -26.24     2.210     1.862   0.0802        232     92.00035
 5.35   1304.6052  20.8361     768.3484    892.9379 -82.97     1.731     1.354   0.1063        233      75.2375
 3.50   1299.5022  23.1223     93.56177   1089.4468 -50.71     0.506     0.491   0.2088        234      17.9852
 6.74   1238.1829  21.9752     269.1066     48.1805  45.52     1.219     0.499   0.1954        235     48.42664
 7.27   1263.2919  21.9149     284.4614    855.0083  21.90     0.729     0.687   0.1827        236     47.86677
 4.26   1213.2944  20.1692      1420.04   1429.4351  61.87     2.704     1.979   0.0697        237     91.11713
 3.80   1202.2263  20.1347     1465.887    339.3524 -60.99     2.012     1.869   0.0502        238     67.69383
 6.35   1230.7163  20.8697     744.9413    598.6448 -26.31     1.728     1.210   0.1234        239       84.677
 3.50   1219.2191  18.1164     9407.089   1194.9174  56.23     2.692     2.610   0.0099        240     85.94091
 3.60   1234.5607  19.5001     2629.922    304.9623 -43.58     2.220     2.046   0.0291        241     70.42609
 6.85   1238.0038  22.2998     199.5685    856.8279 -34.98     1.279     0.435   0.2589        242     47.58437
 7.40   1204.6573  22.8343     121.9725   1217.3335  45.37     0.581     0.331   0.2532        243      28.4371
 3.50   1237.2053  20.1460     1450.718   1553.3928   3.72     1.978     1.901   0.0466        244     62.30256
 5.18   1195.3461  19.8444     1915.303    124.1042  88.39     2.276     2.069   0.0587        245     103.4475
 3.50   1138.7202  16.8078     31396.22    148.0385 -47.73     2.901     2.826   0.0032        246     92.00035
 3.50   1201.2911  20.7226     853.0164   1442.0563  25.89     1.754     1.557   0.0674        247       52.947
 4.84   1181.3904  21.1924     553.4025    549.5240 -82.69     1.735     1.003   0.1157        248     58.96842
 4.24   1207.9182  19.9898     1675.209    839.1417 -37.75     2.094     1.889   0.0505        249      77.8782
 4.95   1151.3420  20.2703     1293.896     99.5742 -31.94     2.041     1.732   0.0723        250      86.0976
 3.50   1165.4768  16.2835      50884.8   1299.7546 -45.06     2.966     2.895   0.0020        251     94.17218
 4.59   1120.3331  19.6520     2286.716    330.1281  55.50     2.861     2.131   0.0493        252     103.8376
 3.64   1158.1259  18.6856     5568.857    236.4268 -45.23     2.466     2.432   0.0160        253     82.25485
 3.50   1161.9113  21.1495     575.6971    887.8856 -23.63     1.513     1.254   0.0843        254     44.66224
 5.21   1153.7365  20.7778     810.7217   1352.9554  -1.42     1.817     1.304   0.0991        255     73.97291
 6.37   1111.0759  19.9800     1690.452    479.3346  60.00     2.765     1.746   0.0831        256     129.2768
 4.96   1072.4772  19.6330     2326.987   1218.9852 -66.57     2.589     2.211   0.0512        257     109.6458
 3.50   1130.2097  17.5268     16191.49    183.5254 -48.52     2.811     2.665   0.0059        258     87.80266
 7.36   1042.4810  22.5993     151.4578    468.0018  32.34     0.790     0.316   0.2469        259     34.43904
 3.50   1096.0061  20.8493     759.0557   1527.0216  17.14     1.634     1.463   0.0716        260     50.06868
 6.47   1065.9886  21.8133     312.3805   1596.7365  52.89     1.278     0.626   0.1750        261     50.33715
 3.50   1026.0679  17.3379     19267.95   1380.0214 -55.82     2.795     2.683   0.0050        262     88.10913
 7.21   1079.8993  21.1098     597.1382    329.8013  -2.51     1.332     1.111   0.1463        263     80.43226
 5.49   1065.5956  20.5390     1010.158   1562.7943 -48.93     2.215     1.456   0.0972        264     90.37451
 3.50   1010.0671  17.5236     16238.77    813.8275 -65.16     2.713     2.670   0.0058        265     87.03177
 7.01   1016.7502  21.8554     300.4871    454.1198 -29.65     1.034     0.653   0.1904        266     52.69183
 3.50   1038.8405  18.2019     8694.688    525.6727 -60.61     2.701     2.531   0.0106        267     84.51768
 3.50   1040.5190  16.4672     42967.26    633.2500 -61.44     3.027     2.929   0.0024        268     95.59265
 8.15   1042.3296  22.4651      171.376   1096.3228 -45.32     0.571     0.337   0.2132        269     33.64723
 6.41   1049.0043  22.9407     110.5948   1089.0000  90.00     0.836     0.289   0.2745        270     27.95913
 4.22   1030.0459  19.9039     1813.139    302.9783  66.56     2.899     2.088   0.0574        271     95.87422
 4.13   1011.6921  19.5704     2465.225    345.0459 -64.98     2.237     2.085   0.0363        272     82.41854
 5.76    980.8536  20.6373     922.7523    798.1853 -58.32     1.865     1.469   0.1035        273     87.95603
 4.52   1001.9209  19.3841     2926.484    542.7508  -3.52     2.292     2.245   0.0351        274     94.45798
 3.50   1001.7543  20.5724      979.557   1555.5012 -25.15     1.812     1.612   0.0606        275     54.69985
 7.54    964.9527  21.2588     520.5717    415.9613 -36.71     1.450     0.971   0.1716        276     82.25485
 4.79   1000.3470  20.6170     940.1317   1273.7705 -15.75     1.937     1.514   0.0869        277      75.2375
 3.50    985.2017  16.8704     29638.55    558.6800 -34.57     2.937     2.855   0.0034        278     93.16496
