#   1 KRON_RADIUS            Kron apertures in units of A or B                         
#   2 Y_IMAGE                Object position along y                                    [pixel]
#   3 MAG_BEST               Best of MAG_AUTO and MAG_ISOCOR                            [mag]
#   4 FLUX_BEST              Best of FLUX_AUTO and FLUX_ISOCOR                          [count]
#   5 X_IMAGE                Object position along x                                    [pixel]
#   6 THETA_IMAGE            Position angle (CCW/x)                                     [deg]
#   7 A_IMAGE                Profile RMS along major axis                               [pixel]
#   8 B_IMAGE                Profile RMS along minor axis                               [pixel]
#   9 MAGERR_BEST            RMS error for MAG_BEST                                     [mag]
#  10 NUMBER                 Running object number                                     
#  11 FLUXERR_BEST           RMS error for BEST flux                                    [count]
 3.87     54.0606  16.5044      41516.8     63.4906  10.24     5.079     4.642   0.0045          1     172.8111
 3.50     17.6089  18.7346      5323.02    984.8857 -88.11     4.179     1.842   0.0183          2      89.6615
 3.50     18.7909  19.2676     3258.122     91.0583 -77.68     1.665     1.590   0.0176          3     52.71285
 3.50     15.4372  18.1420     9187.407   1445.5699 -58.56     1.765     1.663   0.0066          4     55.69892
 8.71      7.7679  22.2992      199.682   1469.4524 -68.75     0.745     0.449   0.2495          5     45.87173
 5.20      4.5160  21.8506     301.8164    145.3089  44.41     1.257     0.896   0.1743          6     48.44595
 7.14     10.4944  23.0755     97.68237   1183.4982  44.88     0.503     0.497   0.3830          7     34.45277
 3.50     60.5870  16.4465     43792.18   1078.2454  78.89     2.101     1.994   0.0016          8     65.69886
 7.81     14.3362  22.7843       127.73    839.6812  45.80     0.572     0.336   0.2722          9     32.01767
 3.71     25.5086  20.8596     751.9296    367.0246 -44.58     1.386     1.224   0.0637         10     44.07214
 3.96     17.9751  22.0953     240.9296    384.0876  -6.21     1.065     0.750   0.1405         11     31.16371
 3.50    182.7325  12.3763      1859822   1107.3342 -33.02     5.842     5.048   0.0001         12     175.1371
 7.95     24.5880  21.4526     435.4891    383.1618  87.82     1.000     0.715   0.1538         13     61.67476
 7.77     35.5278  21.5341     403.9824   1110.5074  83.69     1.018     0.640   0.1555         14     57.83739
 6.92     34.3293  21.4657     430.2594    326.4466 -55.26     1.064     0.824   0.1512         15     59.89957
 5.72     38.8936  21.8215     310.0249   1521.2977  57.82     1.154     0.680   0.1627         16     46.45611
 5.84     39.8461  22.1724     224.4094   1170.4801  -0.97     0.941     0.732   0.2148         17     44.37714
 5.61     45.8528  22.0268     256.6173    440.1219 -39.18     1.403     1.002   0.2582         18     61.01511
 3.50     43.2799  22.8581     119.3365    915.3459 -44.82     1.174     0.700   0.2589         19     28.44844
 3.50     80.9598  16.4788     42508.98    537.4124 -67.89     2.020     1.918   0.0016         20     63.61265
 6.79     40.5038  23.3423     76.39905   1225.9862 -32.64     0.782     0.319   0.4177         21     29.38142
 6.55     51.1657  22.3273     194.5751    265.9854  36.65     0.939     0.465   0.2264         22     40.56606
 6.43     51.0299  22.9230     112.4086   1435.2108 -33.32     0.788     0.497   0.3477         23     35.98475
 0.00     49.3377  99.0000    -24.69653   1233.6754  45.58     0.575     0.334  99.0000         24     26.98856
 3.50     75.9613  20.3298     1224.807    127.6706  65.46     1.365     1.260   0.0368         25     41.55161
 5.75     82.8388  21.3664     471.4707    421.4473 -51.35     1.212     0.808   0.1208         26     52.45634
 5.12     91.5345  20.4233      1123.81    376.7948 -74.03     1.886     1.573   0.0782         27     80.96568
 3.50    122.5929  16.0501     63089.28    788.9210 -57.93     2.107     1.961   0.0011         28     65.28696
 3.64     97.3432  19.8095     1977.934     55.9943  -9.78     1.501     1.385   0.0266         29     48.44595
 6.18     92.9185  21.8846     292.5167    495.8493  75.14     1.341     0.684   0.2004         30     53.97712
 6.08     98.7693  21.2025     548.2781    452.5781 -24.86     1.703     0.981   0.1433         31     72.34337
 4.43     96.5883  23.1853     88.28186   1075.8324  21.36     0.766     0.435   0.2928         32     23.80167
 8.01    114.3489  23.0236     102.4608    270.3333 -45.61     0.584     0.329   0.3525         33     33.25751
 7.06    117.8673  22.6731     141.5043     66.8318  46.85     0.748     0.562   0.3238         34     42.19586
 6.06    118.7044  23.8790     46.60278    990.6282 -41.71     0.576     0.332   0.5677         35     24.36179
 8.28    118.5058  23.0013     104.5873    154.4909  45.33     0.502     0.498   0.3889         36     37.45411
 4.24    235.9001  16.3790     46603.44    403.1562 -56.45     6.429     5.300   0.0053         37     227.7653
 3.50    194.4204  14.4437     277023.4    317.8754 -62.51     2.391     2.159   0.0003         38     72.90058
 3.50    163.1395  16.6823     35244.12   1468.1359 -60.49     1.999     1.918   0.0019         39     62.54345
 5.04    132.4922  22.6309      147.113    418.0420   0.54     0.804     0.500   0.2169         40     29.38142
 3.50    171.1363  18.3460      7613.74    877.1224 -68.32     1.766     1.710   0.0079         41     55.69892
 5.36    147.2958  22.4334     176.4558    353.1507 -30.05     0.879     0.605   0.2215         42     35.98475
 6.86    152.5081  23.1257     93.26843   1279.9960  -1.46     0.803     0.500   0.4526         43     38.86797
 4.82    172.3745  20.1712     1417.443    325.0115 -64.12     1.467     1.346   0.0479         44     62.54345
 3.59    165.8674  21.3838     463.9496   1445.5350  -0.27     1.320     1.134   0.0950         45     40.56606
 4.17    167.5935  21.4249     446.7437    104.3067 -28.86     1.173     1.010   0.0994         46     40.89721
 5.09    170.4302  22.3761     186.0258   1368.2188 -47.27     1.080     0.717   0.2407         47     41.22571
 5.71    169.4399  23.9130      45.1637    651.5150 -35.83     0.503     0.493   0.6368         48     26.48406
 4.46    181.2359  22.4500     173.7784    574.8821  23.27     1.275     0.773   0.2556         49     40.89721
 4.36    193.3881  20.8450     762.0547   1350.3933 -35.33     1.357     1.132   0.0706         50     49.54714
 8.45    186.9876  21.1481     576.4248   1354.0366 -74.11     0.796     0.783   0.1154         51     61.23578
 3.72    211.5532  18.9499     4365.442    827.4822  -7.29     3.936     1.949   0.0234         52     94.20974
 3.50    207.5034  20.1025     1510.012    548.9205 -81.30     1.549     1.369   0.0330         53     45.87173
 7.58    196.0324  22.8937      115.481    267.5382  56.83     0.765     0.324   0.3384         54     35.98475
 4.87    229.8139  19.8630     1882.753    414.8996 -19.48     1.967     1.652   0.0327         55     56.67968
 3.50    211.4506  21.6427     365.5256    684.4574 -82.33     1.680     1.042   0.1300         56     43.76501
 4.07    209.4233  20.6732     892.7393    349.7025  43.13     1.598     1.217   0.0651         57       53.475
 3.50    204.3587  22.4122     179.9419    250.6058 -42.34     0.981     0.848   0.1801         58     29.83698
 3.50    212.9739  20.2536     1313.878   1305.9009  53.84     1.403     1.346   0.0357         59      43.1442
 4.51    231.0750  18.8722     4689.401    562.2184  -9.41     3.381     2.852   0.0298         60      128.701
 3.50    204.4280  24.4194     28.33057   1498.4841 -36.27     0.505     0.489   0.6897         61     17.99237
 7.06    205.7527  22.6227     148.2268    937.2287 -19.28     0.855     0.346   0.2581         62     35.22709
 3.57    224.5217  20.0140     1638.397   1225.8657 -53.97     1.548     1.416   0.0323         63     48.72358
 3.50    260.5782  15.5823     97071.92    997.2145 -60.88     2.174     2.033   0.0008         64      67.3213
 3.50    266.7132  15.7835     80651.23     67.3777 -78.85     2.116     1.998   0.0009         65     65.69886
 5.20    223.1785  20.6959     874.2435    345.6050 -22.38     1.579     1.463   0.0896         66     72.15668
 3.50    223.2261  21.2850     508.1814    774.7524 -19.32     1.202     1.068   0.0785         67     36.72678
 7.24    219.2476  22.5799     154.1898    740.7268 -18.84     0.845     0.353   0.2561         68     36.35766
 4.32    244.2684  20.1215     1483.841    112.8208  77.16     2.123     1.544   0.0524         69     71.59367
 4.49    256.2215  19.1194     3734.662    612.7909 -37.89     2.503     1.802   0.0256         70     87.99111
 6.09    239.9036  21.1006     602.2095    838.4949 -37.93     1.369     1.007   0.1192         71     66.10821
 5.00    240.0472  23.7177     54.06567   1478.8186 -53.93     0.940     0.464   0.6083         72     30.28568
 3.50    313.2080  14.2182     340988.5    439.2092 -58.52     2.401     2.209   0.0002         73     74.18446
 6.70    252.6677  21.2844     508.4178   1372.6152 -44.30     1.226     0.877   0.1363         74     63.82434
 6.94    251.4614  21.1326     584.7242    107.4959 -45.23     1.084     0.836   0.1133         75     61.01511
 5.43    254.3471  22.9900     105.6833   1352.5072   0.00     0.868     0.476   0.3376         76     32.84943
 3.50    288.3375  17.3809     18519.18   1486.2755 -55.67     1.869     1.782   0.0035         77     58.99195
 3.50    282.7324  19.1258     3712.473   1522.1934 -43.42     1.561     1.489   0.0145         78     49.54714
 6.94    271.2609  21.7118      342.993   1273.5472 -11.08     1.161     0.926   0.2106         79     66.51503
 3.57    290.6129  20.1063     1504.772    514.7311 -61.03     1.859     1.552   0.0405         80     56.18117
 3.50    319.4862  16.1992     54996.05    905.2509 -61.70     2.069     1.942   0.0013         81     64.45524
 3.50    303.9936  17.7445      13249.2    201.5941 -73.78     1.829     1.708   0.0047         82     57.60371
 5.16    297.8686  20.4874     1059.333   1413.5083 -39.26     2.150     1.549   0.0888         83     86.60047
 3.56    294.7549  20.1360     1464.156   1327.3584 -23.02     1.400     1.322   0.0334         84     44.98094
 3.50    352.2489  14.3988     288718.1   1345.7200 -52.96     2.313     2.158   0.0003         85     71.59367
 3.50    352.2323  14.3560     300341.4    890.5778 -52.57     2.350     2.174   0.0003         86     72.90058
 6.19    294.2966  20.9771     674.7596   1475.4912 -66.12     1.171     0.977   0.0975         87     60.57136
 3.50    302.8696  21.1483     576.3572    563.5292  64.37     1.321     1.261   0.0764         88     40.56606
 3.50    322.8518  18.2090     8637.521    697.1324 -67.39     1.711     1.657   0.0068         89     53.72665
 6.40    309.7060  21.1083     597.9514     85.4069 -81.45     1.983     0.885   0.1428         90     78.59875
 5.00    322.1810  20.7420     837.9197    641.0074 -76.22     2.195     1.269   0.0992         91     76.51168
 4.49    328.1170  19.9116     1800.361    595.2689 -50.18     1.627     1.559   0.0402         92     66.71751
 5.36    317.8036  23.0379     101.1198    226.3809 -71.76     0.752     0.447   0.3004         93     27.97028
 3.66    347.0935  18.5931     6064.031    866.9109 -38.15     1.821     1.669   0.0106         94     59.22015
 5.35    332.8581  21.5545     396.4453     93.4377  -7.83     1.068     0.836   0.1296         95     47.31915
 4.20    330.3324  22.4573     172.6189   1545.6162  -6.15     0.994     0.631   0.1933         96     30.72783
 4.50    335.7877  21.9460     276.4274   1440.3218 -48.97     0.986     0.855   0.1486         97     37.81253
 3.79    356.5633  18.8051     4988.434    431.6613 -76.63     1.957     1.739   0.0139         98     64.03533
 3.50    350.8575  20.9481     693.0549     54.4747 -39.25     1.290     1.224   0.0625         99      39.8955
 5.14    348.6108  22.6399     145.9014     42.2829 -59.05     0.983     0.545   0.2622        100     35.22709
 3.50    368.9762  18.1726     8931.921    760.8817 -55.02     1.739     1.636   0.0065        101       53.475
 7.08    351.1112  22.2996     199.5909    920.2661 -17.72     0.939     0.676   0.2812        102     51.67916
 3.50    362.0320  20.1939      1388.12   1500.1698  10.15     1.428     1.398   0.0352        103     44.98094
 3.61    368.2886  19.2737     3239.802    442.6443 -44.79     1.606     1.455   0.0171        104     50.89012
 6.16    353.6877  24.2508     33.08765    350.3493  43.36     0.575     0.334   0.8352        105     25.44506
 3.50    396.0084  16.3885      46196.8    231.2756 -59.51     2.003     1.932   0.0015        106     62.54345
 6.26    360.5867  21.5975     381.0641    533.2850  21.62     1.031     0.915   0.1608        107     56.42075
 3.53    361.4968  21.9585     273.2722   1033.7421 -34.22     1.094     0.910   0.1256        108     31.59357
 5.96    363.8832  22.1577     227.4711   1415.6968 -78.20     1.038     0.416   0.1718        109     35.98475
 3.50    373.7502  21.6020     379.4762    992.1270 -58.62     1.191     1.021   0.0997        110     34.84208
 4.95    373.9765  21.5517        397.5   1083.8434 -45.30     1.443     1.000   0.1488        111     54.47462
 6.12    369.9420  22.4607     172.0795    210.5096  87.58     0.786     0.499   0.2223        112     35.22709
 6.59    371.1455  21.3641     472.4542     71.4292 -16.36     1.204     0.716   0.1302        113     56.65932
 6.58    376.9810  20.6899     879.1359    753.9877  38.43     1.723     0.867   0.0919        114     74.36607
 3.50    397.8752  18.6226     5901.396   1461.0035 -57.54     1.678     1.607   0.0097        115     52.45634
 5.17    376.6144  22.7236     135.0676     86.3840  23.01     1.364     0.457   0.3011        116     37.45411
 3.50    398.9585  18.4113     7169.061    354.4046 -56.82     1.759     1.641   0.0084        117     55.21246
 5.97    380.9103  22.2265     213.5059    125.6369 -22.70     0.902     0.682   0.2210        118     43.45572
 3.64    394.5150  20.1343     1466.462   1088.6681 -16.65     1.553     1.372   0.0361        119     48.72358
 3.50    420.3994  16.4896     42088.93    433.1460 -57.35     1.997     1.878   0.0016        120     62.32742
 3.50    416.4439  17.2996     19959.32    837.1794 -67.30     1.895     1.794   0.0032        121     59.67396
 5.36    390.0044  23.5780     61.49158   1195.2917  85.80     0.739     0.674   0.6015        122     34.05902
 6.62    390.2305  23.1611     90.27075    260.4030  71.18     0.744     0.452   0.4192        123     34.84208
 4.81    397.2771  23.2387     84.04614    977.5050 -21.24     1.103     0.780   0.5327        124     41.22571
 5.97    397.9344  21.1575      571.479    626.5070  15.77     1.528     0.795   0.1172        125     61.67476
 3.50    440.8153  21.5081     413.7681    305.5588 -50.74     1.189     1.082   0.0964        126     36.72678
 6.01    407.6977  22.6413     145.7068    281.6329 -82.40     1.007     0.467   0.2897        127     38.86797
 7.28    415.6719  20.2007     1379.534      2.5615  28.95     1.141     0.754   0.0399        128     50.62437
 7.80    404.5128  21.9037     287.4224    526.8889  -1.99     0.784     0.499   0.1700        129     44.98094
 3.50    425.0124  19.2755     3234.308    926.1458 -46.76     1.635     1.521   0.0171        130     50.89012
 3.50    461.8470  15.2301     134258.4    807.3679 -54.81     2.148     2.048   0.0005        131     67.52136
 7.26    413.7131  22.3678     187.4506   1562.2982 -60.78     1.155     0.451   0.2791        132     48.16672
 3.50    438.7642  17.6571     14360.79    251.9271 -54.88     1.813     1.728   0.0043        133     57.13346
 4.91    421.8596  20.5863     967.1587    158.7295  50.88     1.660     1.444   0.0785        134     69.87746
 5.46    412.6987  25.4829     10.63721    199.3263  43.64     0.560     0.342   2.3114        135     22.63991
 9.12    415.3152  22.4173     179.0956    558.6304  42.89     0.584     0.328   0.2182        136     35.98475
 6.12    419.5396  22.5273     161.8341   1203.5216  13.28     1.222     0.608   0.3288        137     48.99964
 3.50    433.6358  20.5596     991.2207   1421.9036 -17.73     1.428     1.337   0.0490        138     44.68006
 6.05    427.7109  21.4982     417.5726   1179.3110  20.69     1.296     0.986   0.1638        139     62.97331
 5.64    420.6244  23.9457     43.82532   1579.7715  17.88     0.757     0.446   0.7505        140     30.28568
 7.11    424.8950  23.0415     100.7898   1063.8502 -46.61     0.815     0.670   0.5280        141     48.99964
 6.86    431.8513  21.4213      448.194    717.7710 -64.55     0.930     0.895   0.1407        142     58.07014
 5.00    434.9498  21.3265      489.092    151.0015  25.47     1.154     0.980   0.1076        143     48.44595
 4.46    468.5386  18.3501     7584.724    850.1890  22.22     7.442     1.903   0.0221        144     154.6019
 3.51    451.1122  18.9132     4515.491     21.1382 -39.37     1.703     1.572   0.0127        145     52.96812
 5.35    446.1109  20.6617     902.2413    122.1262 -32.70     1.653     1.204   0.0846        146     70.26247
 7.20    434.6680  23.3987     72.53052    353.3013  46.61     0.562     0.341   0.4188        147     27.97028
 3.57    448.0235  20.9700     679.1934    884.3464  -1.26     2.252     1.419   0.0940        148     58.76285
 3.50    458.6750  18.7847     5083.167     34.3958 -60.50     1.679     1.537   0.0111        149     51.93951
 5.33    444.1706  22.7330     133.9105    654.5854 -70.39     0.757     0.448   0.2345        150      28.9187
 3.53    464.5988  20.0865     1532.429    468.4730 -73.92     1.596     1.441   0.0347        151     48.99964
 4.28    453.8176  22.4761     169.6466   1533.1399  37.42     0.790     0.678   0.1881        152     29.38142
 5.10    461.9113  21.2436     527.9114   1096.1396  54.35     1.156     1.063   0.1074        153     52.19856
 3.50    472.0582  20.3095     1247.911    254.1115 -72.83     1.524     1.321   0.0397        154     45.57674
 5.22    462.3787  21.6750     354.7998    724.6503 -28.34     1.116     0.728   0.1301        155     42.51432
 7.22    457.7005  23.3750     74.13428   1223.6603 -42.96     0.565     0.339   0.4167        156     28.44844
 3.50    472.9619  19.9188     1788.459    734.7728 -38.58     1.496     1.347   0.0277        157     45.57674
 3.50    478.7596  19.6056     2386.389    922.8173 -35.41     1.544     1.447   0.0219        158     48.16672
 3.92    478.7934  20.6404     920.1256   1276.8331 -53.38     1.380     1.256   0.0558        159     47.31915
 4.44    476.5136  23.1451     91.61499   1168.0371 -89.76     0.813     0.676   0.3590        160     30.28568
 4.27    533.7934  17.2543     20809.82    518.6295  28.40     4.107     3.566   0.0078        161     150.0863
 3.50    484.9557  20.7101      862.927   1070.4277 -66.11     1.365     1.226   0.0523        162     41.55161
 7.96    473.4778  23.4088      71.8606    781.5225  45.02     0.505     0.494   0.5660        163     37.45411
 4.94    496.9649  19.6072     2382.962     82.5904  56.28     2.338     2.068   0.0457        164     100.1773
 5.19    489.7222  20.9463        694.2    839.5610  85.43     1.974     0.945   0.1021        165     65.28696
 4.09    496.5237  19.7324     2123.508   1186.6776 -15.91     2.961     1.842   0.0450        166     87.99111
 4.58    481.6935  22.7196      135.568   1309.1306  71.28     0.894     0.694   0.2728        167     34.05902
 3.62    479.8593  23.1439     91.71826    682.6145  17.68     1.030     0.720   0.3368        168     28.44844
 5.99    481.6788  22.8111     124.6093   1520.4889  -0.10     0.921     0.467   0.3136        169     35.98475
 3.50    513.2880  17.9834     10632.93   1302.2382 -66.23     1.839     1.727   0.0065        170     63.26168
 3.73    505.2572  20.6374     922.6746    763.0609  35.25     1.787     1.614   0.0686        171     58.30196
 3.50    516.2645  19.3914     2907.057   1460.9927  24.44     4.349     1.624   0.0321        172     85.81816
 3.50    502.7133  21.4221      447.858    863.5478  86.67     1.248     1.114   0.0934        173     38.51937
 3.50    498.6334  22.3677     187.4573    366.2104 -49.91     1.014     0.951   0.1830        174     31.59357
 3.93    502.3745  22.0893     242.2557   1310.0952 -19.71     1.173     0.897   0.1646        175     36.72678
 4.28    514.1793  20.3371     1216.653   1310.0308  82.91     1.494     1.427   0.0448        176     50.17458
 3.50    514.5804  21.4112     452.3893   1179.1089 -56.89     1.341     1.068   0.0899        177     37.45411
 5.57    510.5956  20.8373     767.5258    164.3583  -2.33     2.204     1.004   0.1078        178     76.15827
 4.19    520.3478  21.7746     323.7118    641.4071 -66.00     1.226     0.908   0.1361        179     40.56606
 8.37    511.4778  22.2532     208.3103    453.4842  44.04     0.503     0.496   0.1953        180     37.45411
 3.50    519.1760  23.1325     92.68726   1518.8837  43.20     0.828     0.669   0.2789        181     23.80167
 3.50    588.6913  14.3126     312569.8   1315.8531 -46.59     2.329     2.162   0.0003        182     72.71532
 8.13    521.5092  23.6536     57.35266    854.4668 -59.60     0.500     0.498   0.7092        183     37.45411
 4.34    541.0020  20.1289     1473.796    999.7307 -58.21     1.569     1.410   0.0438        184     59.44749
 4.50    536.8311  21.8346      306.297    404.4706  47.38     1.380     0.681   0.1415        185      39.8955
 6.50    545.6520  22.4638     171.5795    933.8276  70.97     1.235     0.753   0.3690        186     58.30196
 3.50    631.9619  13.6509     574970.2    483.1478 -47.23     2.858     2.668   0.0002        187     88.90612
 3.70    559.8239  19.8154     1967.109   1041.5421 -18.76     1.577     1.488   0.0291        188     52.71285
 3.50    573.4060  18.5637     6230.208   1242.7255 -48.70     1.761     1.644   0.0096        189     54.96761
 4.47    597.4254  18.6394     5810.958    782.7070 -83.48     3.545     3.355   0.0266        190     142.4317
 4.22    571.6400  20.0963      1518.66     45.6350  59.09     1.992     1.404   0.0467        191     65.28696
 4.18    556.2180  22.7742     128.9225    778.7782  45.57     0.804     0.683   0.2396        192     28.44844
 3.50    581.4234  18.2255      8507.17    144.8262 -85.18     1.779     1.649   0.0070        193     54.47462
 3.50    572.2832  20.2548     1312.397   1448.0365  21.10     2.736     1.688   0.0575        194     69.49033
 3.95    565.5809  21.6825     352.3837    139.6900 -53.99     1.148     1.009   0.1187        195     38.51937
 3.50    582.9928  18.2263     8501.455    318.9863 -39.14     1.741     1.667   0.0069        196     54.22644
 6.38    563.6564  23.2611     82.32812    905.5596   5.49     1.049     0.627   0.6279        197     47.60335
 5.58    575.7251  20.1708     1418.056   1336.6144 -63.76     1.448     1.293   0.0535        198     69.87746
 6.82    576.9731  21.9999     263.0477   1001.5249 -66.98     1.399     1.121   0.3266        199     79.11191
 3.50    585.4980  21.3335      485.937     75.9934  34.12     1.282     1.160   0.0884        200     39.55595
 5.61    576.2507  25.4858     10.60913    549.0676  -3.84     0.664     0.432   2.8632        201     27.97028
 7.52    579.6700  23.0746     97.76331    740.6813 -45.54     0.569     0.338   0.3364        202     30.28568
 4.02   1002.4446  20.6274     931.1591   1555.2887 -75.10     1.475     1.318   0.0603        203     51.67916
 4.61   1597.9525  21.1718     563.9957    655.1014 -32.85     1.793     1.294   0.1068        204     55.45622
 5.62   1595.9124  21.8013     315.8364    374.0342  41.13     1.272     1.258   0.2106        205     61.23578
 6.88   1594.0922  21.7052     345.0698   1384.9441 -19.49     1.473     0.518   0.1730        206     54.96761
 6.99   1592.8507  24.9698     17.06409    567.1038  41.77     0.836     0.671   3.0832        207     48.44595
 3.51   1571.3456  20.3774     1172.344     92.7359 -46.28     1.463     1.342   0.0422        208     45.57674
 3.50   1523.4841  24.5470     25.18823     14.4994  44.62     0.509     0.490   0.7757        209     17.99237
 3.50   1515.7332  18.4540     6893.126    392.7216 -44.48     1.718     1.630   0.0087        210     54.96761
 5.42   1516.1362  21.1504     575.2155   1547.0354  59.82     1.454     1.004   0.1148        211     60.79364
 0.00    952.6561  99.0000    -73.31104    886.7118 -47.95     0.561     0.340  99.0000        212     25.96976
 3.50    950.6980  22.5423     159.6104    267.9047  28.11     0.947     0.863   0.1999        213     29.38142
 3.53    948.7698  22.1317     232.9723    445.2767  -8.36     1.064     0.910   0.1453        214     31.16371
 3.50    947.9496  22.7243     134.9812    133.2829  89.95     0.730     0.666   0.1822        215     22.63991
 3.72    939.9116  20.0483     1587.351   1067.0671 -40.96     1.543     1.337   0.0335        216     48.99964
 7.61    942.2944  23.1861     88.22144    725.6536  42.39     0.565     0.339   0.3728        217     30.28568
 7.42    939.1722  20.7695     816.9523    515.9601  26.90     1.278     0.921   0.0981        218     73.81992
 3.50    930.5093  17.7178     13579.84   1178.4397 -63.94     1.809     1.764   0.0046        219     57.13346
 5.70    933.8318  23.2491     83.24268   1118.5709  12.09     0.875     0.614   0.4979        220     38.16759
 7.04    933.5328  26.4053     4.548462   1027.5371  45.25     0.516     0.481   7.4407        221     31.16371
 4.76    929.1013  20.7231     852.6473   1322.4060 -85.48     1.407     1.267   0.0746        222     58.53286
 6.25    926.4553  22.6752     141.2212    665.7037 -88.92     0.928     0.456   0.2962        223     38.51937
 8.62    926.6777  24.9618     17.19006    934.3347  44.43     0.573     0.336   2.2012        224     34.84208
 5.11    926.6449  26.2039     5.475586     46.6976 -47.40     0.572     0.335   3.8544        225     19.43399
 0.00    919.9985  99.0000    -48.14075   1027.5399  56.68     0.762     0.323  99.0000        226     29.38142
 8.42    918.4757  22.4033     181.4235    252.9750  32.09     0.796     0.313   0.2242        227     37.45411
 4.47    913.5744  20.9565     687.6843    838.4932 -17.32     1.372     1.256   0.0860        228     54.47462
 4.51    913.3035  22.0328     255.2053   1000.9104 -11.44     1.225     0.979   0.1927        229     45.27982
 8.56    908.4130  22.3359     193.0284    658.8084 -20.19     0.749     0.447   0.2531        230     44.98094
 5.80    905.2918  21.8324      306.932   1315.1288  40.86     1.390     0.833   0.2013        231     56.89688
 3.50    901.2191  18.6884     5554.279    302.8273 -74.09     1.691     1.589   0.0103        232     52.45634
 3.50    882.8359  12.9734      1073088    183.6337 -36.29     4.129     3.698   0.0001        233     126.1606
 4.11    879.3942  18.4021     7230.672    224.3853 -89.82     7.579     1.983   0.0220        234     146.7234
 5.48    886.6755  21.0790     614.3148   1304.8312  69.25     1.659     1.272   0.1302        235     73.63697
 8.04    889.4891  22.3632     188.2355    680.4579  50.42     0.503     0.495   0.2161        236     37.45411
 4.55    896.9634  20.1976     1383.485    538.7819  -3.00     2.098     1.525   0.0584        237     74.36607
 4.20    886.5468  20.8826     736.1368   1500.5457   3.01     1.461     1.296   0.0774        238     52.45634
 4.40    885.8094  21.7091     343.8309    339.2329 -50.57     1.330     0.893   0.1382        239     43.76501
 5.88    879.0529  20.2866     1274.598   1177.1078  78.38     1.941     1.680   0.0835        240     97.99928
 4.58    878.3823  21.8608      299.006    960.6887  83.41     1.256     1.192   0.1868        241     51.41749
 7.22    879.8236  23.0079     103.9491    673.3711   4.42     0.996     0.374   0.4133        242     39.55595
 4.95    877.6362  22.4159     179.3201    541.8445 -68.79     0.889     0.666   0.2133        243     35.22709
 4.43    870.1768  19.4763     2688.237   1103.6156 -61.56     2.074     1.779   0.0317        244     78.42694
 3.50    860.0833  14.4347     279338.2   1224.4911 -47.68     2.319     2.159   0.0003        245     71.78183
 5.29    868.6845  20.7337     844.3616    939.5432  25.12     1.995     1.411   0.1054        246     81.95917
 5.10    870.6064  22.1720     224.4906    643.5370 -54.39     1.037     0.813   0.2102        247     43.45572
 3.90    889.3626  21.1069     598.7561    325.6322  17.18     1.630     1.281   0.0942        248     51.93951
 7.64    867.6809  23.0928     96.13013    454.3147  45.23     0.563     0.341   0.3421        249     30.28568
 0.00    892.3138  99.0000    -19.72717   1453.3175 -44.80     0.562     0.341  99.0000        250     17.99237
 8.00    898.5093  23.3134     78.46057    987.5135  45.27     0.505     0.495   0.5184        251     37.45411
 3.50    881.0706  15.4772     106934.5   1592.5045 -66.40     2.127     1.980   0.0007        252     66.71751
 5.35    900.5183  23.8358     48.49097    379.4817 -45.00     0.511     0.488   0.5699        253     25.44506
 4.33    860.3961  20.9945      664.054   1157.4747  -1.20     1.415     1.294   0.0887        254     54.22644
 6.61    861.1950  22.8915     115.7212   1554.1703  42.07     0.759     0.567   0.3807        255     40.56606
 4.62    859.2386  21.3737     468.2864   1339.8370 -46.16     1.590     1.265   0.1400        256     60.34826
 4.33    894.8569  22.5563     157.5782   1425.8367 -39.54     1.211     1.023   0.3037        257     44.07214
 3.94    856.4521  22.8568     119.4708    545.3185  83.02     1.014     0.653   0.2671        258     29.38142
 6.69    845.8800  20.1373     1462.504   1206.5642  85.17     1.807     1.294   0.0700        259     94.20974
 4.64    845.9662  21.0464      633.062   1063.6742  89.16     1.197     1.105   0.0836        260     48.72358
 8.32    847.6516  22.9115     113.6007    358.7094 -47.94     0.564     0.339   0.3218        261     33.66065
 4.01    844.1765  20.5830     970.0251   1106.0085  18.02     1.649     1.396   0.0626        262     55.94057
 5.35    838.6929  19.7525     2084.578   1247.0768 -32.77     2.123     1.570   0.0469        263     90.11169
 3.50    837.3973  20.4559     1090.491    298.6949 -26.40     1.378     1.249   0.0420        264     42.19586
 5.57    837.5710  22.9419     110.4735   1520.2875   7.21     0.957     0.484   0.3537        265     35.98475
 4.33    836.5140  22.0764     245.1594    819.0198  -0.57     1.082     0.929   0.1782        266     40.23217
 3.50    823.7377  18.6531     5738.108    654.3710 -54.11     1.702     1.624   0.0101        267       53.475
 5.65    820.7242  22.8846     116.4608   1398.2626 -45.46     1.033     0.755   0.4278        268     45.87173
 6.21    819.5537  22.5265     161.9523    702.4227  75.71     0.930     0.814   0.3359        269     50.08865
 3.50    803.8622  18.7571     5214.081   1378.6096 -21.73     1.740     1.702   0.0114        270     54.96761
 3.50    799.2562  17.5204     16287.36    695.5490 -86.67     2.594     1.857   0.0047        271     70.26247
 3.50    801.5494  19.6729     2242.957     41.1097 -47.21     1.556     1.367   0.0229        272     47.31915
 3.50    786.3645  24.6648       22.599   1348.2412  16.84     0.742     0.450   0.8999        273     18.72706
 4.73    774.9242  19.6127     2370.908   1427.4871 -80.02     2.969     2.204   0.0509        274     111.1554
 3.50    767.5738  20.4297     1117.153    391.7379 -67.87     1.399     1.279   0.0422        275     43.45572
 6.61    768.5201  21.8798     293.8217    140.3967 -55.99     1.096     0.753   0.2059        276     55.69892
 0.00    759.9716  99.0000    -33.01929   1020.4913  57.79     0.794     0.314  99.0000        277     37.45411
 8.05    758.7314  22.4356      176.108   1341.6193 -19.11     0.999     0.595   0.3509        278     56.89688
 7.71    755.4391  21.6906      349.746    195.3306  50.93     1.281     0.507   0.1789        279     57.60371
 6.87    754.6496  23.6852     55.70581    433.6602 -45.40     0.587     0.327   0.5261        280     26.98856
 8.17    753.2500  22.6837     140.1204   1080.7517 -18.40     0.867     0.354   0.3246        281     41.87497
 3.94    743.5427  20.3461     1206.546    556.2998 -21.20     1.383     1.282   0.0436        282     48.44595
 3.50    724.9424  14.0950     381935.2    404.7045 -46.93     2.406     2.206   0.0002        283     74.18446
 4.90    738.9064  21.3344     485.5776   1157.9508   1.73     1.220     1.143   0.1190        284     53.22216
 5.69    736.8120  21.0642     622.7462    649.5158 -57.46     1.284     1.211   0.1146        285     65.69886
 3.50    727.4276  16.0405     63650.97    848.3037 -42.83     2.120     2.006   0.0011        286     66.10821
 4.33    728.2363  20.5888     964.8528   1178.2656 -71.71     1.497     1.275   0.0621        287     55.21246
 6.81    740.3104  24.2621     32.74707   1272.3551 -43.06     0.576     0.333   0.8950        288     26.98856
 6.41    722.1498  21.6937     348.7694   1394.6674  67.01     1.174     1.065   0.2071        289     66.51503
 4.03    716.7179  20.3777     1171.949    808.2800 -58.15     1.484     1.251   0.0469        290     50.62437
 5.19    709.5805  20.2935     1266.505   1163.7408  10.74     1.443     1.381   0.0582        291     67.91972
 4.50    704.9365  20.1172      1489.72   1339.0225 -35.32     1.746     1.681   0.0516        292     70.83605
 3.50    707.9461  24.5172     25.89014    794.6355  86.27     0.715     0.646   0.8983        293     21.41521
 3.92    703.4935  19.6782     2232.218    952.2862 -18.86     1.625     1.545   0.0279        294     57.36906
 4.48    699.7203  21.2562     521.8037    582.8018   2.02     1.869     0.964   0.1154        295     55.45622
 5.28    692.6083  19.9741      1699.69   1213.5952  57.54     1.506     1.276   0.0587        296     91.81992
 5.60    687.6442  21.2918      504.965   1213.6564 -40.15     1.307     0.976   0.1276        297      59.3278
 0.00    693.6906  99.0000    -26.70715   1316.2979  45.71     0.551     0.345  99.0000        298     17.99237
 5.78    692.8769  22.3299     194.0995    316.1330  48.88     0.828     0.663   0.2270        299     40.56606
 4.67    684.0256  19.7576     2074.712    472.4936  52.83     2.910     2.718   0.0635        300     121.3652
 3.57    686.2902  19.9167     1791.845    644.0512  42.53     1.531     1.435   0.0295        301     48.72358
 3.50    688.1401  22.7171     135.8801    130.8793  46.46     0.805     0.656   0.1809        302     22.63991
 4.57    682.3370  19.8532     1899.771    543.4663 -63.27     2.121     1.519   0.0433        303     75.80322
 5.25    673.8572  22.8423      121.082    231.1585  61.85     1.162     0.421   0.3090        304     34.45277
 6.74    669.7614  21.8991     288.6494   1221.3247 -22.02     0.974     0.859   0.2150        305     57.13346
 6.71    667.3170  22.9227     112.4403   1180.0011   2.17     0.731     0.668   0.4106        306     42.51432
 3.50    649.1271  16.0503     63079.67   1464.2974 -58.66     2.075     1.942   0.0011        307     64.87243
 4.97    655.4444  21.3310     487.0741    870.9727   6.69     1.205     1.054   0.1146        308     51.41749
 3.50   1551.7955  22.0490     251.4108   1221.6729 -32.21     1.026     0.978   0.1383        309     32.01767
 4.14    646.8544  22.1538     228.2897    652.7488  27.70     0.962     0.824   0.1620        310     34.05902
 3.50    640.5812  18.1425     9183.676    536.7190 -68.30     1.775     1.691   0.0066        311     55.94057
 7.03    642.0137  22.2694     205.2219    276.5096 -87.93     0.787     0.499   0.2129        312     40.23217
 5.15    631.7795  21.3659      471.692    805.9449 -67.46     1.254     1.124   0.1282        313     55.69892
 4.72    629.6339  23.6557      57.2428    941.6058 -21.03     1.042     0.326   0.4726        314     24.90932
 5.45    624.2540  20.6229     935.0885   1581.3296 -24.63     1.442     1.261   0.0791        315     68.11803
 6.97    619.1545  21.5394     402.0095   1151.0912  43.65     1.117     0.934   0.1775        316     65.69886
 7.27    616.4916  24.3883     29.15308   1234.5254 -74.41     0.500     0.499   1.2834        317     34.45277
 7.54    610.1631  23.1405     92.00122    944.9097  41.60     0.839     0.661   0.6007        318     50.89012
 3.50    608.4720  23.8465     48.01636   1011.9153   4.20     0.785     0.497   0.4699        319      20.7758
 3.50    606.2894  20.7292     847.8197    586.0947 -31.41     1.357     1.343   0.0553        320      43.1442
 3.50   1562.1376  21.0424     635.3947    861.4935   5.33     1.262     1.158   0.0652        321     38.16759
 5.98   1529.5508  23.0481     100.1731    733.3308  32.68     1.023     0.681   0.5036        322     46.45611
 5.15    589.1851  24.2502     33.10803   1139.4061  71.47     0.742     0.454   0.8687        323     26.48406
 4.94   1566.7651  20.3387     1214.842    784.6982 -84.12     1.821     1.377   0.0650        324     72.71532
 5.83   1581.9138  21.9021     287.8571   1414.7047  68.45     1.253     0.472   0.1530        325     40.56606
 3.51   1553.5024  17.1314     23304.91    682.1384 -29.96     4.698     3.910   0.0064        326     138.0067
 3.50   1585.7356  20.6266     931.9034   1108.8071 -45.53     1.410     1.206   0.0488        327     41.87497
 3.50   1564.5630  16.2137      54267.4    304.2780 -45.84     1.966     1.875   0.0012        328     61.67476
 3.53   1542.6790  19.3999     2884.318    135.1462 -57.03     1.585     1.524   0.0190        329     50.35722
 7.41   1576.4824  23.0888     96.49084   1491.4977  44.73     0.516     0.483   0.3878        330     34.45277
 3.50   1586.8705  23.0005     104.6619   1069.2076 -26.32     0.977     0.733   0.2852        331     27.48381
 3.50   1558.8706  16.2226     53823.14    487.7123 -43.24     1.943     1.876   0.0012        332     61.23578
 3.59   1562.9105  23.3547     75.53076   1566.5850 -28.67     1.434     0.440   0.3659        333     25.44506
 8.06   1565.3141  23.3079     78.85718    386.6744  64.22     0.775     0.483   0.6236        334     45.27982
 3.50   1567.4845  19.9978     1662.898     22.0536 -35.09     1.501     1.336   0.0303        335     46.45611
 3.50   1546.9426  21.0776     615.1146    863.4279  79.12     1.442     1.277   0.0773        336     43.76501
 4.21   1536.6472  21.6920     349.3036   1429.4083 -57.98     1.567     0.952   0.1480        337     47.60335
 3.80   1543.5000  19.7314     2125.439    654.6492 -44.43     1.543     1.391   0.0263        338     51.41749
 7.78   1477.6925  22.7928     126.7318    198.6753 -44.09     0.562     0.341   0.2744        339     32.01767
 4.68   1533.0137  21.5519     397.4226    415.7943 -28.03     1.657     1.117   0.1580        340     57.83739
 4.87   1519.6189  22.1843     221.9601     84.3914  80.11     1.501     0.882   0.2490        341     50.89012
 7.56   1502.3057  22.5106     164.3518   1412.6653  43.54     0.566     0.339   0.2001        342     30.28568
 5.85   1525.2084  23.6001      60.2489    378.9753  80.66     1.380     0.702   0.9593        343     53.22216
 6.91   1539.6632  23.2349      84.3418    263.3266  45.45     0.576     0.334   0.3475        344     26.98856
 7.05   1527.5273  23.2632     82.17126    878.5313  49.71     0.500     0.498   0.4176        345     31.59357
 5.74    951.5252  20.9636     683.2418    654.1403  78.51     2.123     1.347   0.1418        346     89.20904
 6.67   1504.6394  22.6292     147.3412   1312.1968 -60.46     1.233     0.361   0.3039        347     41.22571
 3.50   1508.0370  16.9039     28737.72    269.3830 -51.48     1.875     1.773   0.0022        348     58.76285
 6.75   1521.7552  22.5764     154.6788   1100.5942 -83.82     0.997     0.482   0.2985        349     42.51432
 4.14   1515.3909  21.7388     334.5752    483.6699 -45.90     1.145     1.021   0.1317        350     40.56606
 5.57   1499.2957  22.8395     121.3896    844.5074  14.72     1.147     0.828   0.4505        351     50.35722
 7.80   1497.3391  25.4409      11.0575    930.6786  45.79     0.575     0.335   3.0607        352     31.16371
 5.15   1504.9111  21.0550     628.0565    723.3754 -14.58     1.267     1.119   0.0976        353     56.42075
 5.01   1483.2747  21.7158     341.7286    575.1030 -33.51     1.906     1.010   0.2035        354     64.03533
 5.75    977.4967  25.3582     11.93201   1280.5354  84.64     0.500     0.499   2.3159        355     25.44506
 4.78    953.0150  22.9056     114.2213     61.2813 -34.44     1.174     0.434   0.2963        356     31.16371
 5.50    979.2097  21.1567     571.9225    452.6703  73.39     1.079     0.952   0.0966        357     50.89012
 5.78    982.8316  24.0283     40.61353   1487.1891 -47.73     0.766     0.557   0.9213        358     34.45277
 7.72    972.4925  26.4783     4.252808   1499.4553 -53.16     0.502     0.495   9.4719        359     37.09223
 6.56   1489.0807  22.4457     174.4633     77.8819 -75.41     0.962     0.688   0.3101        360     49.81863
 5.46   1476.3274  21.3984     457.7756    998.5892  -9.60     1.603     0.944   0.1463        361     61.67476
 4.69    987.5121  20.2471     1321.811    453.9747  88.37     1.715     1.484   0.0565        362     68.70952
 3.50    965.8497  21.9307     280.3518    416.2971 -35.18     1.233     0.947   0.1350        363     34.84208
 4.19   1479.4890  26.7932     3.182007    638.4839  46.79     0.501     0.499   6.1407        364     17.99237
 5.38   1439.3828  22.0520     250.7146   1271.1970  84.54     1.095     0.914   0.2158        365     49.81863
 3.50    985.6581  16.9995      26313.7    558.4474 -60.54     1.860     1.774   0.0024        366     58.07014
 3.50    998.9910  22.9972     104.9786    233.2787 -18.29     1.047     0.720   0.2894        367     27.97028
 5.84    981.6761  20.6893     879.5696    797.9857 -22.91     1.536     1.395   0.0964        368     78.08221
 4.79   1407.2278  21.3507     478.3025    329.8878  77.17     1.283     1.109   0.1208        369     53.22216
 5.76   1453.8417  22.6674     142.2511    391.7621  21.98     1.190     0.813   0.3985        370     52.19856
 4.31   1060.6309  20.6167     940.3767    726.9678  18.85     1.586     1.368   0.0671        371     58.07014
 5.67    993.0269  23.3404     76.53455    500.0000  90.00     0.838     0.289   0.3535        372     24.90932
 5.19   1065.3551  22.7865     127.4664    292.5060  -0.67     0.931     0.478   0.2764        373     32.43621
 6.48    992.5980  22.5658     156.2062      9.8381  20.92     0.779     0.432   0.2368        374     34.05902
 3.50   1063.8134  21.6018     379.5739      7.4519 -49.92     1.309     0.988   0.1051        375     36.72678
 5.81   1439.4318  22.5404     159.8942    646.8270  47.40     1.087     0.718   0.3214        376     47.31915
 3.50   1436.1301  19.3898     2911.236    224.7948 -34.44     1.604     1.459   0.0186        377     49.81863
 3.50   1440.6519  19.8124     1972.688    619.1653   9.05     1.445     1.337   0.0249        378     45.27982
 3.50   1084.5770  22.0647     247.8125     43.0163  33.22     1.129     1.014   0.1510        379     34.45277
 8.23   1450.7783  23.6279     58.72607     88.3631 -73.90     0.748     0.452   0.8207        380     44.37714
 3.50   1386.5995  22.8729     117.7216   1274.1162 -79.55     1.184     0.678   0.2710        381     29.38142
 3.50   1073.9574  21.6706     356.2494      6.6659 -10.48     1.253     1.042   0.1120        382     36.72678
 3.50   1435.2332  15.2254     134844.6   1090.4421 -47.26     2.094     1.972   0.0005        383     65.90385
 7.30   1432.6862  22.0657     247.5887    341.5507  -7.52     1.510     1.030   0.3674        384     83.74995
 6.66   1069.3281  25.5051     10.42249   1182.6630  44.61     0.577     0.334   2.8121        385     26.98856
 3.89   1416.2998  20.2985      1260.67   1386.6493  19.76     1.425     1.377   0.0427        386     49.54714
 3.50   1389.6022  18.5439     6344.946   1428.5128 -35.92     1.644     1.588   0.0089        387     51.93951
 4.22   1437.3093  22.4133      179.761   1347.0366  73.00     1.028     0.724   0.2009        388     33.25751
 3.50   1067.5095  22.3530     190.0238    568.8696 -74.17     1.051     0.731   0.1653        389      28.9187
 4.53   1079.9409  21.5226     408.2767    330.0615 -62.65     1.125     0.943   0.1139        390     42.83042
 3.52   1393.0532  20.3009     1257.825   1038.7660  36.71     1.381     1.366   0.0381        391     44.07214
 4.20   1066.6592  21.7105     343.3981   1597.1162  36.70     1.159     0.981   0.1251        392     39.55595
 5.29   1072.8472  19.8203      1958.26   1219.1344 -71.81     2.172     1.586   0.0499        393     89.96188
 6.74   1414.8446  21.6540     361.7445      1.3369  76.87     1.069     0.416   0.0998        394     33.25751
 3.50   1420.1652  17.5096     16449.09   1126.3615 -58.87     1.926     1.752   0.0039        395     59.44749
 4.51   1360.4252  17.6236     14809.62   1135.0798  85.51     6.676     5.131   0.0136        396     186.0897
 7.40   1079.6525  23.2205     85.46777    921.6893 -46.67     0.573     0.335   0.3733        397     29.38142
 5.62   1412.1393  20.8996     724.6978    350.1120  23.37     1.424     1.101   0.0972        398     64.87243
 3.50   1409.1057  19.7999     1995.515    308.4276  -7.76     1.523     1.467   0.0262        399     48.16672
 3.50   1367.0492  13.2905     801276.6   1159.7756 -48.42     3.323     3.056   0.0001        400     102.9661
 3.50   1162.6458  21.2347     532.2441    887.7574 -42.33     1.404     1.128   0.0814        401      39.8955
 4.68   1096.1305  20.8874     732.9014   1526.4138 -79.64     1.384     1.254   0.0854        402     57.60371
 5.79   1401.4601  20.6767     889.8167   1031.5901  46.87     1.406     1.196   0.0841        403     68.90555
 3.50   1394.2668  15.8722     74323.64    114.4738 -48.42     2.040     1.936   0.0009        404     64.24563
 6.46   1389.5433  21.9053     287.0031    806.6446   0.13     0.949     0.941   0.2126        405     56.18117
 4.13   1391.2551  19.6805     2227.496    713.2373  26.66     1.497     1.456   0.0275        406     56.42075
 0.00   1388.2180  99.0000    -7.224854   1384.9540   1.83     0.696     0.413  99.0000        407     30.72783
 5.41   1388.9937  23.6900     55.46204   1584.7758 -89.72     0.686     0.417   0.5285        408     26.98856
 5.53   1380.3506  22.8599     119.1384    318.5949  -4.36     1.034     0.628   0.3788        409     41.55161
 8.31   1094.4969  21.9791     268.1373    429.0226  -2.01     0.796     0.500   0.1973        410     48.72358
 5.88   1371.3206  25.3214     12.34302    705.8511 -32.13     1.214     0.408   3.3582        411     38.16759
 3.74   1371.5497  23.7840     50.86438   1215.7539  21.02     0.718     0.456   0.4295        412     20.11609
 7.57   1353.2751  21.7049     345.1818    152.0077  17.83     1.231     1.094   0.2558        413     81.29819
 9.28   1157.6599  22.4561     172.8079    568.3308  45.39     0.579     0.332   0.2331        414     37.09223
 3.50   1105.3257  18.1411     9195.026    751.8358 -44.66     1.770     1.620   0.0065        415     54.96761
 3.50   1373.4700  18.3225     7780.187   1018.9562 -23.41     1.815     1.707   0.0080        416     57.13346
 7.83   1260.4321  99.0000    -49.16687   1015.6125  58.28     1.971     1.064  99.0000        417     27.48381
 5.52   1294.2798  19.9005     1818.907    742.2533  72.75     1.481     1.308   0.0421        418     70.45419
 3.50   1292.2153  18.5586     6259.876    762.1052 -25.95     2.162     1.723   0.0109        419     62.54345
 7.56   1369.4689  23.8992     45.74146    149.4737  17.40     0.499     0.499   0.8364        420     35.22709
 6.99   1131.8344  21.9982     263.4587    359.0297  34.13     1.138     1.043   0.2880        421     69.87746
 3.50   1130.7366  17.6518     14430.11    183.5802 -57.92     1.787     1.711   0.0042        422     56.42075
 5.31   1331.2352  21.7656     326.4196    386.9082   1.03     1.306     0.996   0.1845        423     55.45622
 3.50   1139.3163  16.9147     28451.37    148.0981 -46.09     1.899     1.811   0.0023        424     59.89957
 4.94   1346.4969  22.0113     260.2933    605.5798 -50.92     1.185     0.774   0.1852        425     44.37714
 4.18   1308.3901  19.5293     2560.245    669.6346 -12.17     1.506     1.500   0.0242        426     57.13346
 5.12   1333.5925  20.9657     681.8835    107.4225 -28.91     1.327     1.156   0.0932        427     58.53286
 3.50   1090.0750  19.5609     2486.789    642.4633 -46.35     1.578     1.413   0.0213        428     48.72358
 3.50   1320.9133  16.9412      27767.6    659.9951 -43.03     1.941     1.824   0.0024        429     61.01511
 5.13   1331.2213  20.5711     980.7437   1139.4135 -89.82     1.767     1.445   0.0829        430     74.90823
 5.43   1320.0242  21.5214     408.7316    264.0417 -45.50     1.309     1.038   0.1549        431     58.30196
 3.93   1330.7634  19.3371     3055.919    655.8417   4.85     1.684     1.650   0.0199        432     56.04152
 3.78   1278.8961  19.1357     3679.051   1331.4630 -56.91     1.622     1.533   0.0163        433     55.21246
 3.83   1305.5667  21.1830     558.2206    892.8640  77.78     1.231     1.139   0.0821        434     42.19586
 5.45   1245.3409  23.2783     81.03735    614.2117  55.72     1.066     0.800   0.6187        435     46.16485
 3.50   1299.2703  14.9160     179309.5    724.8672 -47.60     2.192     2.053   0.0004        436     68.90555
 4.36   1308.5709  19.5989     2401.323   1036.2755 -36.97     2.662     1.897   0.0408        437     90.26125
 8.09   1307.6787  23.4782      67.4082    574.6574 -44.07     0.576     0.334   0.5423        438     33.66065
 3.90   1273.5858  17.7495      13188.5    610.0049 -58.39     4.226     2.471   0.0095        439     115.5581
 4.25   1300.2339  22.4476     174.1664     54.0051 -29.97     1.122     0.858   0.2424        440     38.86797
 3.85   1263.1622  23.2173     85.72119    215.8559 -41.55     0.728     0.565   0.2943        441     23.22806
 5.39   1292.0193  22.8199     123.6088    545.9752 -45.38     0.899     0.525   0.2850        442     32.43621
 3.50   1293.9078  20.9530     689.8992    412.7370  23.44     1.287     1.129   0.0601        443     38.16759
 4.35   1260.2809  20.3280     1226.897    432.4522 -61.87     1.924     1.810   0.0657        444     74.18446
 6.02   1278.3990  24.7387     21.11133    343.4074  -1.19     0.918     0.658   2.2033        445     42.83042
 5.31   1274.1146  22.5755     154.8076    698.3151 -74.17     1.243     0.866   0.3570        446     50.89012
 8.40   1158.6622  23.2975     79.61926    186.2973  47.11     0.563     0.340   0.4646        447     34.05902
 3.50   1266.2653  19.4871     2661.603    807.8691 -34.50     1.553     1.437   0.0198        448     48.44595
 5.63   1213.6493  20.2400     1330.393   1429.3060  77.16     2.725     2.083   0.1010        449     123.6771
 5.86   1238.9690  22.4589     172.3601    857.0435 -50.04     0.811     0.782   0.2718        450      43.1442
 5.05   1131.0317  21.2367      531.285    219.3827 -20.53     1.568     1.132   0.1261        451     61.67476
 3.76   1235.1206  19.5868     2428.194    304.8844 -70.00     1.601     1.472   0.0237        452     52.96812
 6.60   1230.6104  20.6916     877.7345    599.0931  13.10     1.561     1.462   0.1139        453     92.03705
 5.15   1203.8763  20.0526       1581.1   1075.5712  37.43     2.022     1.572   0.0580        454     84.39172
 3.50   1238.0283  20.3255     1229.751   1553.5206 -12.61     1.431     1.370   0.0402        455     45.57674
 3.66   1243.3585  21.0568     626.9983    672.6531 -75.48     1.362     1.197   0.0747        456      43.1442
 3.50   1222.2170  12.3067      1982962    995.1972 -29.50     6.401     5.215   0.0001        457     186.4043
 5.50   1211.9683  24.2762     32.32446    829.0000  90.00     0.845     0.289   0.8369        458     24.90932
 3.50   1215.4215  17.7687      12957.1    513.0118 -59.01     1.744     1.692   0.0046        459     54.72167
 4.69   1154.6307  20.8271     774.7131   1353.0853 -56.52     1.612     1.412   0.0901        460     64.24563
 3.50   1219.7524  18.2192     8556.898   1195.0623  47.81     1.918     1.903   0.0078        461     61.67476
 5.03   1229.3567  21.8706     296.3168   1153.9326 -13.34     1.229     0.989   0.1875        462     51.15449
 3.50   1208.4735  20.2301     1342.656    838.8270 -35.35     1.394     1.273   0.0346        463     42.83042
 5.23   1195.7808  19.8836     1847.475    124.2719  85.27     1.875     1.703   0.0507        464      86.2884
 4.55   1205.1183  22.4988     166.1439   1217.1880 -44.51     0.858     0.657   0.2093        465     32.01767
 4.93   1262.9902  22.2506     208.8193    855.3846   0.11     1.019     0.768   0.2057        466     39.55595
 4.38   1202.6338  20.1779     1408.703    339.0765 -83.95     1.516     1.396   0.0455        467     58.99195
 4.00   1238.4276  22.0343     254.8533     48.1247 -11.79     1.158     0.950   0.1656        468     38.86797
 5.56   1028.6923  24.2266     33.83386    463.6869 -44.70     0.557     0.343   0.7267        469     22.63991
 3.50   1211.5623  17.6546     14393.06   1279.0439  81.01     5.652     3.475   0.0108        470     143.0931
 5.62   1182.5493  22.0289      256.124    176.5511   8.16     1.425     0.969   0.2578        471     60.79364
 5.57   1159.2971  23.6962     55.14807    970.3315 -43.15     0.560     0.341   0.4458        472     22.63991
 4.80   1183.5492  21.7745     323.7421    673.2097 -21.31     1.027     0.930   0.1458        473     43.45572
 4.30   1130.0508  21.3767     467.0175    547.4385 -65.12     1.184     1.024   0.0989        474     42.51432
 3.52   1152.1665  20.5153     1032.475     99.4363  -5.07     1.309     1.208   0.0430        475     40.89721
 7.58   1167.6770  22.4911     167.3219   1599.3630  46.34     0.885     0.518   0.2384        476     36.72678
 3.50   1165.9740  16.3807     46527.23   1299.8141 -73.19     1.994     1.896   0.0014        477     61.89307
 4.29   1134.6660  22.3625     188.3627    607.3837 -45.52     0.986     0.862   0.2139        478     37.09223
 3.70   1173.1541  18.4126      7160.59    757.8781 -78.56     3.576     3.345   0.0178        479     117.6404
 3.50   1152.4623  13.3745     741645.7    693.8153 -37.57     3.504     3.217   0.0002        480     108.0791
 0.00   1169.6912  99.0000    -7.221436    385.3456  43.30     0.572     0.336  99.0000        481     26.98856
 3.50   1181.6404  21.5555     396.1041    549.2858 -17.70     1.166     0.942   0.0912        482     33.25751
 3.62   1158.6710  18.8018     5003.565    236.4378 -45.47     1.660     1.640   0.0121        483     55.69892
 6.85   1197.1642  22.3154     196.7115   1053.6813  19.67     0.936     0.685   0.2765        484     50.08865
 4.87   1201.8149  20.7022     869.1896   1442.1520 -87.53     1.659     1.491   0.0885        485     70.83605
 6.43   1178.4944  25.1978     13.83203   1597.7561  72.38     1.154     0.262   2.5467        486     32.43621
 7.15   1142.0636  21.7203     340.3236    661.8563 -73.51     0.961     0.718   0.1730        487     54.22644
 3.50   1080.7614  16.8588     29956.33    512.1377 -66.90     1.874     1.779   0.0021        488     58.53286
 5.41   1121.0293  19.6239     2346.622    329.8812  58.47     2.566     1.726   0.0484        489     104.5263
 3.50   1108.1862  18.5998      6026.48    427.9433 -54.08     1.692     1.627   0.0095        490     52.96812
 5.36   1111.4923  20.1254     1478.537    479.1404  -7.99     2.159     1.548   0.0662        491     90.11169
 5.31   1115.1155  21.1696     565.1399    674.4976 -60.84     1.343     1.079   0.1125        492     58.53286
 3.50   1095.7281  16.9484     27582.42    778.1761 -41.61     1.938     1.855   0.0024        493     61.23578
 5.17   1091.6051  21.1032     600.7897    468.4292 -68.10     1.906     0.987   0.1176        494     65.08002
 4.46   1105.9491  21.1537     573.4952    679.0923  38.97     1.516     1.082   0.0988        495     52.19856
 5.41   1095.1104  22.3826     184.9059   1136.4398 -85.66     1.091     0.933   0.2958        496     50.35722
 3.50   1082.6000  18.2272      8494.08   1148.1749 -75.07     1.756     1.711   0.0071        497     55.69892
 5.58   1040.7959  22.0789     244.5917    467.1765  60.45     1.002     0.638   0.1801        498     40.56606
 6.46   1085.8284  22.6727     141.5483   1452.5986  76.35     0.929     0.621   0.3474        499     45.27982
 6.13   1066.0032  20.5226      1025.51   1562.7290 -64.61     2.578     1.374   0.1126        500     106.3175
 7.78   1020.1995  22.2696     205.1844   1267.6206  25.73     0.733     0.656   0.2622        501     49.54714
 5.27   1004.8460  24.0463     39.94519   1237.8386  49.76     0.764     0.567   0.8705        502     32.01767
 7.53   1052.5183  22.8026     125.5934    238.0324  26.05     1.259     0.570   0.5101        503     58.99195
 3.50   1030.9935  19.9912     1673.081    302.5808  71.36     2.461     1.757   0.0434        504     66.91938
 0.00   1001.6425  99.0000    -35.59949   1025.6887 -46.97     0.578     0.332  99.0000        505     23.22806
 7.86   1044.5297  23.1360     92.38684    809.4821 -44.15     0.509     0.490   0.4403        506     37.45411
 3.50   1039.5049  18.3536     7560.873    525.3945 -59.24     1.681     1.610   0.0078        507     53.97712
 8.77   1042.6610  23.4687     68.00415   1095.3132  46.21     0.571     0.337   0.5747        508     35.98475
 3.50   1024.3846  13.9208     448407.6     50.1910 -43.62     2.321     2.148   0.0002        509     72.34337
 3.50   1041.0366  16.5826     38634.67    633.0386 -49.21     1.900     1.824   0.0017        510     60.34826
 3.50   1026.5739  17.4324     17661.85   1379.9857 -68.53     1.930     1.815   0.0037        511     60.34826
 5.52   1038.8489  21.2754     512.6554    121.9955 -35.31     2.009     0.803   0.1379        512     65.08002
 3.50   1010.6155  17.6345     14661.92    813.6567 -57.65     1.843     1.780   0.0043        513     57.60371
 0.00   1026.6541  99.0000    -35.33557   1028.6674 -45.54     0.582     0.330  99.0000        514     23.80167
 7.37   1038.3229  24.0779     38.80139    242.3527 -43.78     0.581     0.331   0.7962        515     28.44844
 5.53   1014.3884  21.9164     284.0868    453.2856 -71.18     0.977     0.589   0.1459        516     38.16759
 3.50   1012.0173  19.7249     2138.147    344.6626 -58.15     1.552     1.358   0.0242        517     47.60335
 4.00   1000.6549  20.8200     779.8605   1273.9332 -43.42     1.549     1.290   0.0720        518     51.67916
 3.68   1002.4809  19.6294     2334.653    542.4350  72.62     1.531     1.462   0.0232        519     49.81863
 5.95   1020.8218  23.8191     49.24548   1154.6001  71.58     0.761     0.450   0.7334        520     33.25751
 4.18   1011.5944  22.4915     167.2588    268.0587 -42.84     1.170     0.663   0.2237        521     34.45277
