#   1 KRON_RADIUS            Kron apertures in units of A or B                         
#   2 MAGERR_APER            RMS error vector for fixed aperture mag.                   [mag]
#   3 Y_IMAGE                Object position along y                                    [pixel]
#   4 X_IMAGE                Object position along x                                    [pixel]
#   5 THETA_IMAGE            Position angle (CCW/x)                                     [deg]
#   6 FLUX_APER              Flux vector within fixed circular aperture(s)              [count]
#   7 A_IMAGE                Profile RMS along major axis                               [pixel]
#   8 B_IMAGE                Profile RMS along minor axis                               [pixel]
#   9 FLUX_RADIUS            Fraction-of-light radii                                    [pixel]
#  10 FLUXERR_APER           RMS error vector for aperture flux(es)                     [count]
#  11 MAG_APER               Fixed aperture magnitude vector                            [mag]
#  12 NUMBER                 Running object number                                     
 3.50   0.0001    182.7405   1107.2815 -34.01     794535.9     5.694     4.919      6.421     73.11893  13.2997          1
 3.89   0.0028     54.0678     63.6179  -6.92     28184.84     4.656     4.450      8.409     73.18516  16.9250          2
 3.68   0.0165     17.3637    984.8643 -88.08     4818.613     3.945     1.796      6.289     73.16033  18.8427          3
 3.50   0.0231     18.7794     91.0175 -64.26     3438.123     1.540     1.445      3.024     73.16033  19.2092          4
 3.50   0.0080     15.4458   1445.5846 -51.60     9987.447     1.656     1.523      3.106     73.16861  18.0514          5
 5.58   0.2990     10.2966   1183.4696  -2.39     265.6322     0.786     0.714      3.243     73.13549  21.9893          6
 5.93   0.3845      7.9055   1469.7234 -62.96     206.4794     0.891     0.213      1.312     73.11065  22.2628          7
 0.00  99.0000      5.0201     54.9799 -45.00    -247.8517     1.229     0.289    -40.411     67.79842  99.0000          8
 6.28   1.3575      4.2469    145.0632 -10.48     52.46039     1.031     0.624      1.990     65.57342  23.7504          9
 5.18   0.5228     18.1515    384.1561  42.53     152.0209     0.978     0.838      2.495     73.17689  22.5952         10
 4.30   0.0030    235.8859    403.0980 -62.15     26105.87     5.675     4.962     11.983     73.07751  17.0082         11
 7.30   0.2967     24.4480    383.4140 -78.67     267.8525     1.489     0.404      3.672     73.18516  21.9803         12
 3.50   0.0017     60.5787   1078.2400  78.50     45645.88     1.980     1.820      3.429     73.17689  16.4015         13
 3.63   0.1452     25.4014    367.1157 -13.67      547.329     1.355     1.112      2.619     73.16033  21.2044         14
 7.62   1.3341     27.9211   1357.2938  87.31     59.51429     0.837     0.454      5.024     73.11065  23.6134         15
 4.76   0.2481     31.3545   1108.9049  75.04     319.9536     0.854     0.706      3.060     73.09408  21.7873         16
 7.29   0.6897     34.4380    326.1239 -84.93     115.1695     1.042     0.952      1.916     73.14378  22.8967         17
 6.89   0.1616     35.2352   1110.4044 -83.18     491.5779     1.143     0.792      3.156     73.16861  21.3210         18
 5.47   0.2012     39.7402   1170.7202 -35.51     394.7077     1.312     0.617      3.281     73.13549  21.5593         19
 3.50   0.3803     38.8173   1521.2510  34.17     208.9563     1.138     0.596      2.171     73.17689  22.2499         20
 0.00  99.0000     36.6734    334.0000 -28.22    -146.4026     0.910     0.211     -9.833     73.20998  99.0000         21
 0.00   3.2794     42.5088   1233.0178 -63.10     24.22512     1.201     0.496      7.203     73.15205  24.5893         22
 5.60  99.0000     40.1198   1225.9401 -56.84    -21.66589     1.032     0.386      2.061     73.13549  99.0000         23
 4.62   0.2190     43.1543    915.5667 -39.00     362.9635     1.055     0.712      3.173     73.19344  21.6503         24
 3.50   0.0018     80.9682    537.4006 -63.19     44268.54     1.863     1.768      3.313     73.15205  16.4348         25
 7.60   0.2894     44.8834    441.2556  63.30     274.3079     0.870     0.216      2.304     73.11065  21.9544         26
 8.16   0.1606     43.3650     46.9430 -28.77      494.763     0.927     0.207      2.391     73.17689  21.3140         27
 3.50   0.7726     47.1420    473.7140  63.43     102.7858     0.926     0.202      1.280     73.11893  23.0202         28
 7.42   0.1282     47.3209     47.5859  42.35     619.8613     0.603     0.311      3.181     73.18516  21.0693         29
 6.53  99.0000     47.3486     29.0000  -0.00    -93.07848     0.807     0.477      3.462     73.20998  99.0000         30
 6.90   0.3756     48.2545    440.0000   0.00      211.683     0.713     0.436      3.123     73.20998  22.2358         31
 6.11   0.3657     51.0360   1435.1759 -34.24      217.252     0.783     0.497      2.452     73.16033  22.2076         32
 7.35  99.0000     52.3333    266.6667  45.00    -223.0946     0.577     0.333      2.194     73.11065  99.0000         33
 5.25  99.0000     56.3026   1263.6053  41.67    -12.41017     0.588     0.324      0.275     73.14378  99.0000         34
 3.92   0.0614     75.8943    127.6812 -33.15     1293.608     1.254     1.163      2.871     73.11065  20.2705         35
 0.00   1.2581     72.8095    953.8096  45.00     63.12621     1.181     0.289      7.086     73.12721  23.5495         36
 4.18   0.1029     92.0422    377.0393 -77.55      772.242     1.894     1.601      3.952     73.19344  20.8306         37
 5.50   0.2910     82.9585    421.5509 -54.03     273.1008     1.270     0.623      2.530     73.18516  21.9592         38
 3.50   0.0012    122.5924    788.9217 -59.46      65517.4     1.960     1.816      3.403     73.17689  16.0091         39
 0.00  99.0000     83.6667    179.0218  27.82    -341.9452     0.932     0.206      5.589     73.17689  99.0000         40
 3.64   0.0356     97.3301     56.0065 -20.83     2231.401     1.350     1.269      2.972     73.19344  19.6786         41
 0.00   0.3235     92.0239   1075.6587 -61.52     245.6969     0.916     0.210    -25.492     73.19344  22.0740         42
 8.46   0.3208     92.1013    495.2714 -63.06     247.5117     0.886     0.214      2.160     73.11065  22.0660         43
 0.00  99.0000     94.3855     89.6816  47.31     -319.846     0.592     0.322      0.000     73.17689  99.0000         44
 6.58   0.1395     99.1556    452.2036 -33.18     569.8494     1.374     0.783      3.456     73.20171  21.1606         45
 6.57   0.2594     96.5928   1075.6500  22.40     306.4378     1.188     0.206      2.872     73.19344  21.8341         46
 3.50   0.0003    194.4159    317.8738 -63.56     279140.9     2.296     2.048      3.497     73.20998  14.4354         47
 3.50  99.0000    107.9521    185.3652 -61.41    -142.9244     0.933     0.206      0.117     73.17689  99.0000         48
 7.24   9.4062    114.0205    270.3128 -89.22     8.446796     0.829     0.464      3.256     73.16033  25.7333         49
 7.18   4.7946    118.0000     66.5487  57.15     16.58244     0.773     0.319      3.336     73.20998  25.0009         50
 3.50   0.0021    163.1416   1468.1309 -54.85     37116.07     1.856     1.772      3.324     73.13549  16.6261         51
 6.41   0.4301    132.4888    418.1703 -25.83     184.6793     1.473     0.469      2.315     73.13549  22.3840         52
 3.50  99.0000    131.3822     62.3194 -47.20    -170.1251     0.591     0.323      0.638     73.18516  99.0000         53
 0.00  99.0000    141.0000    178.9660   0.00     -256.926     0.878     0.289     -6.294     73.14378  99.0000         54
 3.50   0.0094    171.1748    877.1529  75.67     8457.705     1.557     1.509      3.140     73.19344  18.2319         55
 7.25   0.4132    152.3333   1279.3923 -43.23     192.3868     0.601     0.315      1.770     73.20171  22.3396         56
 7.27   0.1620    160.4779   1148.2367  15.26     490.3665     1.493     0.914      7.409     73.14378  21.3237         57
 3.90   0.0819    165.8038   1445.6472   5.07     970.4903     1.275     0.973      2.881     73.20171  20.5825         58
 5.62   0.0599    172.4979    324.9993  86.12       1325.8     1.358     1.232      4.419     73.12721  20.2438         59
 3.50  99.0000    163.1070    126.3048 -63.08    -177.4852     0.936     0.201      0.578     73.08579  99.0000         60
 6.78   0.5290    163.9584    629.0416 -45.00     150.2293     1.223     0.289      5.783     73.17689  22.6081         61
 3.91   0.1878    167.4874    104.0908 -30.28     422.7788     1.111     0.868      2.830     73.09408  21.4847         62
 0.00  99.0000    166.0419    274.0000  90.00    -73.74156     0.849     0.289     -7.180     73.17689  99.0000         63
 3.86   0.2029    170.9909   1368.0988 -45.99     391.3231     1.303     0.607      2.424     73.12721  21.5687         64
 6.93   0.2684    169.0000    651.7692  90.00     295.9071     0.679     0.421      2.800     73.14378  21.8721         65
 5.11   0.1340    181.0742    574.6080  50.74     592.9392     1.296     0.874      4.073     73.18516  21.1175         66
 7.63   0.1750    187.0528   1354.2338  56.77     454.2802     1.421     0.779      4.994     73.18516  21.4067         67
 4.35   0.0702    193.5174   1350.4446 -41.44     1131.949     1.305     0.928      2.965     73.13549  20.4154         68
 4.08   0.0219    211.6083    827.3955  -9.36     3633.542     3.731     1.899      7.486     73.15205  19.1492         69
 3.60   0.0405    207.4825    548.8375 -64.15     1963.239     1.396     1.179      3.041     73.15205  19.8176         70
 6.41   0.4084    196.2269    267.9209   3.76     194.5328     0.670     0.417      2.353     73.16033  22.3275         71
 4.39   0.0251    231.0004    562.1113 -29.07     3162.423     3.228     2.772      8.044     73.14378  19.2999         72
 5.63   0.0788    209.3964    349.7953  42.44     1008.321     1.540     1.144      3.809     73.13549  20.5410         73
 7.54   0.4885    196.6142   1159.6317 -45.43     162.6846     0.614     0.304      1.972     73.17689  22.5216         74
 7.66   0.0857    205.2521    301.1124  75.49     926.1069     1.533     0.512      5.636     73.11065  20.6333         75
 3.50   0.1144    211.3650    684.4688  86.20      694.525     1.579     1.065      3.155     73.16861  20.9458         76
 3.50   0.0487    213.0156   1305.8958  64.26     1632.401     1.267     1.116      2.841     73.15205  20.0179         77
 5.43   0.3232    204.3531    250.7012  59.54     245.4587     0.717     0.627      2.921     73.06093  22.0751         78
 6.65   0.1917    205.8955    937.1046 -45.00     413.8144     1.210     0.289      3.257     73.06093  21.5080         79
 5.65   0.0292    229.7400    414.9763 -37.42     2722.183     1.751     1.628      7.140     73.18516  19.4627         80
 6.99   0.1264    207.3063    415.3468 -43.11     628.4879     0.571     0.336      2.568     73.12721  21.0543         81
 3.85   0.0414    224.5091   1225.8743 -77.75     1918.413     1.418     1.212      3.109     73.11893  19.8426         82
 6.29   0.0939    223.5637    345.8375 -52.05     846.9101     1.667     1.442      5.412     73.20998  20.7304         83
 6.63   0.2052    219.0222    740.5000 -56.89     386.9101     1.457     0.611      5.228     73.10236  21.5810         84
 0.00   5.6509    211.5958    608.7021 -48.74     14.05701     0.589     0.322      0.000     73.14378  25.1803         85
 8.31   0.0748    217.0000    414.5498 -90.00     1062.716     0.741     0.498      4.334     73.20998  20.4840         86
 3.50   0.0007    260.5682    997.2298 -57.01     119734.1     1.971     1.854      3.356     73.18516  15.3545         87
 3.96   0.0959    223.1898    774.7103 -28.21     828.5377     1.147     0.906      2.697     73.15205  20.7542         88
 8.02   0.1133    219.0000   1126.6863 -61.65     701.1082     0.893     0.215      3.955     73.14378  20.9355         89
 3.50   0.0010    266.6972     67.3779 -75.77     83588.53     1.966     1.875      3.392     73.12721  15.7446         90
 4.10   0.0647    244.3301    112.7150  74.17     1227.045     2.024     1.468      4.480     73.11065  20.3278         91
 0.00  99.0000    224.4765     84.0626 -32.38   -0.4109244     0.789     0.315      0.000     73.11893  99.0000         92
 4.34   0.5604    232.0000     20.0353   0.00     141.7098     0.831     0.289      1.916     73.12721  22.6715         93
 4.59   0.0221    256.4008    612.6790 -30.02     3592.837     2.267     1.671      5.289     73.17689  19.1614         94
 5.94   0.1046    239.8350    838.3710 -20.31     759.8112     1.451     0.794      4.324     73.16033  20.8482         95
 6.27   0.1252    250.8141    107.8769 -74.34     635.2041     1.569     1.055      4.741     73.20998  21.0427         96
 6.44   0.4594    240.3460   1478.8618 -47.85     172.8895     1.076     0.282      2.349     73.13549  22.4556         97
 3.50   0.0002    313.2050    439.2146 -58.88     342887.3     2.225     2.052      3.402     73.13549  14.2121         98
 7.47   0.1206    253.0191   1372.5363  88.52     659.0878     0.935     0.498      3.581     73.17689  21.0026         99
 4.78   0.3693    254.2934   1352.3800  21.43     215.0664     0.819     0.369      1.892     73.14378  22.2186        100
 3.50   0.0040    288.3638   1486.2595 -50.06     19820.61     1.730     1.592      3.175     73.16861  17.3072        101
 5.48   0.3387    261.3333     84.2922 -47.26     234.4545     0.559     0.342      1.282     73.12721  22.1249        102
 5.94   0.1717    270.6706   1273.9196 -40.56     462.5423     1.404     1.014      4.112     73.11893  21.3871        103
 3.50   0.0180    282.7119   1522.1971 -53.12      4405.75     1.396     1.295      2.961     73.14378  18.9399        104
 3.98   0.0446    290.4916    514.7990 -75.95     1781.541     1.798     1.477      3.910     73.13549  19.9230        105
 3.50   0.0054    303.9724    201.5991 -71.10     14615.11     1.677     1.559      3.170     73.14378  17.6380        106
 3.50   0.0014    319.4947    905.2546 -62.41     57704.91     1.905     1.795      3.315     73.11065  16.1470        107
 3.91   0.0424    294.7829   1327.3722  22.05     1873.343     1.246     1.243      3.029     73.16861  19.8685        108
 3.83   0.0762    298.4533   1413.6970 -37.05       1041.6     2.489     1.309      5.104     73.10236  20.5057        109
 3.50   0.0003    352.2306    890.5782 -55.05       304111     2.185     2.027      3.370     73.16033  14.3424        110
 5.46   0.0681    294.2862   1475.5724 -56.07     1167.288     1.236     0.945      3.728     73.15205  20.3821        111
 3.50   0.2049    285.7057    430.6276 -41.61      387.534     0.575     0.332      0.876     73.12721  21.5792        112
 3.50   0.0003    352.2426   1345.7185 -50.78     293023.2     2.162     2.010      3.342     73.14378  14.3827        113
 3.80   0.0927    302.6447    563.4781  78.23     856.4413     1.226     1.003      3.157     73.13549  20.7183        114
 3.50   0.0080    322.8607    697.1566 -65.12     9896.484     1.562     1.502      3.219     73.16033  18.0613        115
 7.29   0.1458    308.2585     85.3362  -9.80     544.8735     1.278     0.681      4.668     73.12721  21.2093        116
 3.50   0.0799    322.0946    641.3365 -62.74      993.679     2.440     1.055      4.092     73.13549  20.5569        117
 4.71   0.0426    328.1742    595.2105  73.58     1865.746     1.458     1.438      4.086     73.15205  19.8729        118
 5.18   0.0815    310.7306    421.6347 -39.96     975.0016     0.561     0.338      1.650     73.16861  20.5775        119
 3.50   0.4691    314.0000    326.0000  90.00     169.4042     0.857     0.289      2.418     73.17689  22.4777        120
 3.50   1.1687    331.2698    183.0000   0.00     68.01279     0.855     0.444      0.622     73.19344  23.4685        121
 7.84   0.4804    318.3266    226.3266 -45.00     165.2861     0.571     0.337      2.506     73.11065  22.5044        122
 3.81   0.0152    356.5799    431.6029 -76.34     5217.432     1.846     1.569      3.677     73.15205  18.7564        123
 6.20   0.6416    323.0000    968.9377   0.00     123.9141     0.852     0.289      1.521     73.20998  22.8172        124
 3.80   0.0119    347.1124    866.9248 -32.94     6651.854     1.695     1.476      3.304     73.10236  18.4926        125
 5.47   0.2965    335.7198   1440.2043  84.72     268.0197     1.131     0.665      2.687     73.16861  21.9796        126
 4.72   0.1815    332.9469     93.2883 -11.73     437.5793     1.125     0.860      3.166     73.11893  21.4474        127
 4.12   0.1835    330.2740   1545.6711 -32.71     432.5574     0.997     0.657      2.442     73.09408  21.4599        128
 7.04   0.2162    339.9679    803.0641 -46.74     367.5555     0.904     0.491      2.871     73.16861  21.6367        129
 0.00  14.1207    339.3253   1453.3494 -44.01     5.622817     0.581     0.331      0.000     73.11065  26.1751        130
 3.50   1.1968    340.3113    179.6887  45.00     66.31461     0.558     0.343      0.686     73.07751  23.4960        131
 3.94   0.0778    350.8347     54.4691  76.81     1020.838     1.181     1.089      2.987     73.16861  20.5276        132
 3.51   0.0079    368.9974    760.8605 -60.60     10012.49     1.551     1.481      3.094     73.20998  18.0486        133
 7.14   0.1994    351.0782    920.1328 -13.25     398.1046     0.988     0.607      4.610     73.10236  21.5500        134
 6.94   0.3551    348.7854     42.1722 -15.90     223.7749     0.890     0.343      2.555     73.17689  22.1755        135
 3.57   0.2339    359.9514    532.6904  36.10     339.4806     1.656     1.032      3.102     73.11065  21.7230        136
 3.50   0.0411    362.0010   1500.1412   8.09     1936.589     1.306     1.171      2.858     73.20998  19.8324        137
 3.71   0.0201    368.2740    442.6691 -49.15     3955.465     1.494     1.273      3.068     73.10236  19.0570        138
 3.50   0.6388    353.2529    349.8478 -18.72     124.3834     1.225     0.679      2.887     73.16033  22.8131        139
 3.50   0.0016    396.0186    231.2769 -59.08     48743.55     1.810     1.767      3.277     73.20171  16.3302        140
 3.56   0.1279    361.2871   1033.8175 -47.32     620.8934     0.935     0.779      2.292     73.15205  21.0675        141
 3.50   0.6812    360.0421    151.0000  90.00     116.6567     0.873     0.289      1.082     73.17689  22.8827        142
 6.36   0.2039    369.5382    210.7691  82.98      389.686     1.090     0.403      2.793     73.16033  21.5732        143
 4.57   0.1593    374.3807   1083.7490 -45.04     498.8493     1.277     0.931      3.157     73.17689  21.3051        144
 4.09   0.1075    373.8611    992.1259  74.32     738.6651     1.049     0.879      2.880     73.13549  20.8789        145
 7.43   0.1963    371.0736     71.6402  18.67     404.7176     0.950     0.681      3.208     73.15205  21.5321        146
 6.78   0.0797    377.0766    754.1260  38.20     996.1423     1.702     0.883      5.983     73.11893  20.5542        147
 3.50   0.0114    397.8547   1460.9972 -66.73     6960.072     1.530     1.480      3.108     73.21825  18.4435        148
 7.65   0.0733    372.6172    752.9365  28.61      1084.15     0.945     0.202      2.533     73.17689  20.4623        149
 3.50   0.0101    399.0069    354.3418 -79.11     7834.192     1.578     1.455      3.045     73.20998  18.3150        150
 6.92   0.5070    376.7931     86.0456  27.46     156.7691     1.524     0.222      1.616     73.19344  22.5618        151
 3.50   0.0473    394.4658   1088.6558 -38.77     1680.908     1.346     1.287      3.060     73.13549  19.9861        152
 3.50   0.0018    420.3878    433.1454 -56.35     44566.15     1.876     1.736      3.307     73.19344  16.4275        153
 3.50   0.2220    385.1057    218.2981 -86.27     357.4616     0.832     0.455      1.311     73.07751  21.6669        154
 5.09   0.6220    389.7463   1195.3679 -81.62     127.7707     1.180     0.455      3.029     73.18516  22.7839        155
 3.50   0.0037    416.4534    837.1935 -73.05     21566.61     1.731     1.675      3.207     73.22652  17.2155        156
 7.03   0.4696    390.3333    260.3919 -43.24     169.2908     0.601     0.315      2.390     73.20998  22.4784        157
 6.08   0.3292    397.0396    977.8889  -2.00     241.2394     1.138     0.537      2.583     73.13549  22.0939        158
 6.18   0.1013    397.9491    626.5798  25.15     784.6895     1.466     0.519      3.641     73.17689  20.8133        159
 6.33   0.2316    407.3269    281.8119  86.10     343.2415     1.028     0.385      2.723     73.20171  21.7110        160
 6.00   0.3958    404.9796    814.3265  89.16     200.8356     0.820     0.469      2.974     73.20171  22.2929        161
 8.41   0.1277    404.5678    526.5000   0.00     621.5421     0.500     0.495      3.000     73.08579  21.0663        162
 0.00   1.3816    409.0000    699.4041  90.00     57.50573     0.772     0.491     -2.178     73.16033  23.6507        163
 3.50   0.0050    438.7709    251.9374 -58.79     15989.57     1.697     1.562      3.213     73.16861  17.5404        164
 3.50   0.0006    461.8540    807.3651 -53.71     137987.8     2.000     1.895      3.376     73.16861  15.2004        165
 4.61   0.0844    421.7827    158.7669  48.52     941.3133     1.506     1.389      4.236     73.17689  20.6157        166
 7.87   0.0731    412.2602      1.3011  69.97     818.8486     0.906     0.359      3.905     55.10498  20.7670        167
 3.72   0.0209    425.0006    926.1539 -23.12      3796.43     1.446     1.338      3.115     73.20998  19.1016        168
 6.46   0.3005    412.6539    198.9616  28.69     264.4165     0.914     0.210      2.203     73.16033  21.9943        169
 6.93   0.1922    415.6761    558.2352  47.71      413.263     1.077     0.348      3.126     73.14378  21.5094        170
 7.90   0.5748    415.3738   1561.3535 -45.60     138.2874     0.603     0.315      2.574     73.19344  22.6980        171
 5.85   0.2287    419.4586   1204.6608 -19.76     347.1855     1.038     0.707      2.959     73.12721  21.6986        172
 3.50  99.0000    418.0000   1425.9369   0.00    -55.16066     0.843     0.289      0.911     73.20998  99.0000        173
 5.24   0.1341    427.7235   1179.3151  16.90     591.7342     1.364     0.886      3.758     73.09408  21.1197        174
 6.74   0.1178    420.6667    134.0000  28.16     674.7201     0.919     0.209      2.779     73.19344  20.9772        175
 3.50   0.0582    433.8001   1421.7810  -3.23     1366.221     1.400     1.148      2.860     73.16033  20.2112        176
 6.14   0.1367    431.7533    717.7677  83.86      581.404     1.303     1.115      5.117     73.19344  21.1388        177
 7.66   0.4146    425.2677   1064.0605 -27.55     191.5608     0.860     0.219      2.330     73.12721  22.3442        178
 5.37   0.1182    434.9251    151.0960  33.14     671.5651     1.042     0.753      3.305     73.11065  20.9823        179
 3.60   0.0151    451.1159     21.1307 -28.99     5272.837     1.573     1.407      3.162     73.11065  18.7449        180
 3.51   0.1116    440.7083    305.4556 -67.83     711.4975     1.236     0.947      2.754     73.12721  20.9196        181
 6.43   0.3894    432.9384   1307.6188 -86.47     204.0419     0.785     0.484      2.542     73.16861  22.2757        182
 4.06   0.0809    448.7227    884.3640 -35.62     982.4853     2.127     1.306      4.582     73.14378  20.5692        183
 6.71   0.5562    436.3333    378.0371 -27.61     142.8411     0.940     0.204      5.459     73.16033  22.6629        184
 4.73   0.0189    468.6122    850.4824  22.29     4211.345     6.922     1.706     10.847     73.17689  18.9889        185
 3.71   0.0140    458.6747     34.3954 -77.18     5683.932     1.477     1.351      3.081     73.20171  18.6634        186
 5.25   0.0834    446.1402    122.2486 -40.13     952.3506     1.535     0.986      3.974     73.15205  20.6030        187
 7.76   0.3796    446.3053   1504.6737  43.88     209.2139     0.562     0.341      2.783     73.11893  22.2485        188
 3.66   0.0454    464.6884    468.4339 -68.02     1750.376     1.455     1.347      3.041     73.15205  19.9422        189
 3.50   0.2917    453.9791    838.6875 -89.21     272.3954     0.829     0.463      1.052     73.16033  21.9620        190
 7.05   0.2432    453.8297   1533.0110   0.29     326.8012     0.711     0.376      2.455     73.17689  21.7643        191
 5.15   0.1285    461.9737   1096.1793 -25.12     618.3765     0.893     0.832      2.959     73.16033  21.0719        192
 4.39   0.0497    471.9914    254.1268 -68.29     1598.421     1.380     1.146      3.244     73.18516  20.0408        193
 4.12   0.0354    472.9775    734.7632 -49.31     2242.698     1.304     1.164      3.102     73.16861  19.6731        194
 3.50   0.0273    478.8101    922.8268 -42.08     2909.813     1.386     1.316      2.835     73.16033  19.3903        195
 6.59   0.1764    462.5501    724.5497 -15.88     450.5992     1.098     0.412      3.211     73.19344  21.4155        196
 3.72   0.0653    478.8665   1276.7662 -61.04     1217.505     1.412     1.028      2.847     73.17689  20.3363        197
 6.48   0.1034    489.4742    839.6249  73.85      768.106     1.967     0.666      5.374     73.16033  20.8364        198
 3.50   0.0658    484.9024   1070.4305 -49.51     1206.223     1.266     1.104      2.717     73.10236  20.3464        199
 4.14   0.3641    481.7586   1308.7133 -21.46     218.1939     1.068     0.925      2.595     73.14378  22.2029        200
 6.68   0.2787    476.7118   1167.9108  -5.84     284.8194     0.676     0.450      2.732     73.08579  21.9136        201
 4.20   0.0054    533.8306    518.5675  33.39     14724.37     3.745     3.288      7.999     73.18516  17.6299        202
 5.46   0.3863    479.8537    682.4716  28.83     205.5822     0.983     0.433      1.958     73.11893  22.2675        203
 3.50   0.0068    513.3150   1302.2297 -61.95     11701.81     1.739     1.634      3.137     73.16033  17.8794        204
 5.05   0.0357    496.8585     82.7383  -5.61     2226.509     2.095     1.775      5.967     73.12721  19.6809        205
 4.52   0.0402    496.3172   1187.4573  -5.93      1977.31     2.518     1.698      6.235     73.12721  19.8098        206
 5.25   0.0632    505.2542    762.8261  70.94     1257.644     1.576     1.351      4.796     73.19344  20.3011        207
 3.50   0.0302    516.3976   1461.3540  24.87     2632.756     3.657     1.596      6.013     73.20171  19.4990        208
 4.25   0.1215    502.7435    863.3569  83.13     653.7626     1.102     1.026      2.864     73.15205  21.0114        209
 5.09   0.1747    498.9187    365.9331 -28.31     454.5162     1.087     0.794      3.551     73.10236  21.4061        210
 6.24   0.0983    510.6279    165.8429  11.50     808.3992     1.070     0.766      4.227     73.19344  20.7809        211
 5.36   0.1832    502.2211   1310.0114 -40.76     433.5635     0.885     0.626      2.400     73.15205  21.4574        212
 4.14   0.0476    514.1871   1310.0648  67.84     1668.291     1.321     1.208      3.361     73.19344  19.9943        213
 7.43   0.4507    504.9781    324.6303 -88.83     176.2784     0.794     0.483      4.405     73.16033  22.4345        214
 4.12   0.0999    514.6473   1179.0461 -54.74     795.5867     1.215     0.860      2.718     73.18516  20.7983        215
 8.54   0.0962    511.6317    161.4211  -2.86     826.0536     0.959     0.481      4.669     73.16033  20.7575        216
 5.69   0.1275    520.2023    641.5094 -38.14     623.0423     1.005     0.778      3.707     73.12721  21.0637        217
 3.50   0.2406    519.2086   1518.7914  31.83     330.0235     0.775     0.675      2.000     73.12721  21.7536        218
 3.50   0.6314    522.9827    182.0000 -44.02     125.8408     0.876     0.500      1.279     73.16033  22.8004        219
 3.50   1.1042    525.0419     54.0419  45.00     71.95581     1.224     0.289      2.712     73.16033  23.4073        220
 3.50   0.0003    588.6831   1315.8579 -53.18     315197.3     2.147     2.005      3.327     73.12721  14.3035        221
 3.77   0.0500    540.8998    999.7103 -60.25     1587.913     1.386     1.105      2.868     73.06921  20.0479        222
 7.35   0.1714    537.3206    405.2668  70.52     463.1515     0.841     0.363      2.672     73.10236  21.3857        223
 3.50   0.4907    535.3262    745.0215  -0.89     162.0135     0.821     0.469      1.442     73.20171  22.5261        224
 3.50   0.0001    632.4907    483.0338 -31.90     571344.1     2.824     2.589      3.497     73.12721  13.6578        225
 3.50   0.0112    573.4323   1242.7062 -71.56     7063.469     1.605     1.494      3.066     73.11893  18.4275        226
 3.60   0.0339    559.8713   1041.4833 -17.01      2344.18     1.392     1.288      3.007     73.10236  19.6250        227
 4.33   0.0483    571.7242     45.7268  71.42     1642.209     1.854     1.237      4.253     73.11065  20.0114        228
 5.14   0.3496    556.0762    805.6731  62.81     227.1545     0.951     0.198      1.535     73.11893  22.1592        229
 3.50   0.0083    581.4414    144.8173 -74.00     9521.388     1.613     1.482      3.167     73.16861  18.1032        230
 7.03   0.2746    556.5564    778.4312 -45.45     289.4215     0.543     0.444      2.686     73.19344  21.8962        231
 3.50   0.0507    572.1414   1447.5884  18.73     1566.715     2.026     1.558      4.193     73.18516  20.0625        232
 4.42   0.1452    565.5605    139.7155 -61.30     547.2579     1.052     0.799      2.845     73.15205  21.2045        233
 3.90   0.0169    597.6890    782.6691 -13.37     4705.472     3.025     2.906      7.183     73.10236  18.8685        234
 3.50   0.0083    582.9789    318.9885 -22.80     9579.936     1.574     1.504      3.145     73.15205  18.0966        235
 5.51   0.0556    575.6917   1336.6508 -58.26     1428.535     1.344     1.090      4.055     73.13549  20.1628        236
 6.95   3.5853    564.0000    905.0739   0.00     22.17031     0.905     0.289      1.577     73.19344  24.6856        237
 6.11   0.3807    570.0448    113.0000  90.00     208.8179     0.865     0.289      2.432     73.19344  22.2506        238
 5.58   0.1331    577.2756   1001.4764 -49.95      596.618     1.479     0.782      4.235     73.12721  21.1108        239
 5.50   0.3269    576.2576    549.4323 -38.17     243.0653     0.577     0.322      2.095     73.17689  22.0857        240
 0.00   1.1448    579.9186   1104.9186  45.00     69.37228     1.173     0.289      0.000     73.12721  23.4470        241
 7.03   0.3604    579.5756    740.7031 -49.01      220.362     0.595     0.315      2.108     73.13549  22.1922        242
 4.16   0.0978    585.4998     75.9832   3.10     812.0995     1.185     0.945      2.645     73.13549  20.7760        243
 3.50  99.0000    581.6818    897.6591 -43.98    -55.30928     0.574     0.335      3.444     73.12721  99.0000        244
 7.33   0.7439    585.9781   1101.0000  90.00     106.7872     0.878     0.289      1.751     73.14378  22.9787        245
 0.00  99.0000   1009.6518   1324.0001  28.01    -123.6119     0.939     0.204    -29.955     73.20998  99.0000        246
 4.16   0.0821   1597.9541    655.1415 -49.34     815.8853     1.907     1.129      3.752      61.7001  20.7709        247
 6.44   0.3471   1599.0642     19.6310 -61.16     180.4221     0.927     0.207      1.307     57.66135  22.4093        248
 3.52   0.5007   1597.8390     32.1611  45.00     134.8096     1.191     0.289      1.167     62.15971  22.7257        249
 5.36   0.1561   1595.7672    373.9221  31.21     475.4501     1.375     0.977      3.670     68.33227  21.3572        250
 4.27   0.0522   1566.7288    784.6782 -79.03     1521.085     1.722     1.111      3.811     73.11065  20.0946        251
 0.00   0.7496   1552.6969    131.9093 -27.08     105.8819     0.926     0.205      0.000     73.08579  22.9879        252
 3.50   0.0773   1547.0565    863.3168  86.37     1027.648     1.311     1.162      3.187     73.11893  20.5204        253
 7.32   1.1042   1542.0460    635.0460  45.00     71.98787     1.201     0.289      3.541     73.19344  23.4069        254
 7.38  17.3977   1542.3176    330.9529   1.85     4.564762     0.825     0.465      4.213     73.12721  26.4015        255
 7.87   6.0617   1539.6814    263.2965  46.29     13.09383     0.554     0.344      2.450     73.08579  25.2573        256
 0.00   1.8429   1539.6504     24.9756  28.39     43.13727     0.927     0.208     -3.919     73.20171  23.9629        257
 5.89   0.5169   1520.2021     84.3736  78.66     153.6773     1.114     0.613      2.418     73.15205  22.5835        258
 4.69   0.2041   1515.5050    483.6837 -65.34      388.715     1.213     0.808      2.794     73.06921  21.5759        259
 3.51   0.0104   1515.7380    392.7282 -44.44     7655.775     1.575     1.504      3.250     73.11893  18.3400        260
 4.12   0.0869   1505.0243    723.4653  10.72     914.3033     1.179     0.918      2.915     73.16861  20.6473        261
 0.00  99.0000   1250.9791   1304.7014  61.04    -143.8607     0.859     0.218      0.000     73.11065  99.0000        262
 3.50   0.0001   1222.1958    995.1822 -29.72     971156.6     6.316     5.134      6.858     73.13549  13.0818        263
 6.34   0.0937   1230.6919    599.3118   7.98     847.3084     1.456     1.283      5.187     73.09408  20.7299        264
 5.11  99.0000   1184.9763    211.0236 -45.00    -39.80473     1.183     0.289      1.579     73.17689  99.0000        265
 5.50   0.1352   1183.6479    673.2463  14.64     587.9142     1.251     0.749      3.732     73.18516  21.1267        266
 8.47   0.2403   1230.7001    913.0201  28.10     330.3675     0.885     0.216      2.566     73.11065  21.7525        267
 3.50   0.1506   1181.8446    549.0359 -36.53     527.6957     1.198     0.854      2.456     73.19344  21.2440        268
 5.92   0.3838   1182.4340    176.5399  10.29     207.0296     1.285     0.915      2.981     73.16861  22.2599        269
 4.35   0.0141   1173.2797    757.9658 -79.98     5617.764     3.389     3.272      7.615     73.14378  18.6761        270
 7.62   0.1258   1179.3232    971.4334 -74.58     631.5455     0.810     0.463      4.365     73.14378  21.0490        271
 4.76   0.0535   1152.1494     99.4870  13.81     1484.014     1.304     1.097      3.357     73.11893  20.1214        272
 7.00   0.3195   1167.9810   1600.0000  90.00     183.1645     0.855     0.289      2.569     53.88249  22.3929        273
 3.50   0.0026   1139.3308    148.1031 -31.59     30272.82     1.754     1.684      3.346     73.13549  16.8474        274
 8.54   0.0865   1141.9038    714.2844 -46.00     917.8685     1.254     0.724      6.524     73.06921  20.6430        275
 7.05   0.1362   1141.7671    661.9088 -21.65     582.9247     1.177     0.730      4.823     73.12721  21.1360        276
 6.66   0.1995   1134.7821    607.4400  -6.85     398.4392     0.940     0.750      4.256     73.18516  21.5491        277
 3.50   0.0050   1130.7299    183.5773 -81.17     15978.81     1.597     1.563      3.263     73.19344  17.5411        278
 5.17   0.2547   1131.9856    358.7660 -25.89     311.9426     1.187     1.012      3.294     73.16861  21.8148        279
 4.94   0.1274   1130.8446    219.3437 -35.29     623.4445     1.439     0.937      3.178     73.15205  21.0630        280
 0.00  99.0000   1131.6534   1251.0398   1.86    -121.5006     0.808     0.475      4.846     73.16033  99.0000        281
 5.03   0.1045   1130.0151    547.5107 -54.19     760.4964     1.113     0.971      2.982     73.16033  20.8473        282
 3.50   0.5944   1130.3884    503.9588   2.46     133.6829     0.781     0.487      2.020     73.16861  22.7348        283
 3.50   0.8798   1129.3101    963.0701  -2.63     90.24177     0.828     0.461      4.300     73.11065  23.1615        284
 8.31  41.7700   1124.0000    918.3257  61.77     1.902563     0.909     0.212      0.321     73.17689  27.3517        285
 5.77   0.0991   1115.3094    674.5095  84.49     801.0734     1.342     1.099      5.066     73.07751  20.7908        286
 0.00  99.0000   1113.0000   1390.0214   0.00    -116.1581     0.828     0.289      4.967     73.14378  99.0000        287
 0.00  99.0000   1112.6877    827.0841  27.14    -42.40199     0.935     0.203      0.000     73.11893  99.0000        288
 3.50   0.0119   1108.2020    427.9749 -49.25     6693.261     1.563     1.476      3.242     73.15205  18.4859        289
 0.00  99.0000   1106.9767    200.3254  89.04    -33.00447     0.821     0.468      0.000     73.16861  99.0000        290
 5.94   0.0980   1091.4374    468.3976 -62.58     810.7036     1.709     0.832      4.542     73.15205  20.7778        291
 3.50   0.0076   1105.3206    751.8403 -51.43      10399.3     1.584     1.481      3.215     73.12721  18.0075        292
 5.06   0.2552   1079.9875    329.9959 -46.55     311.1884     1.031     0.826      2.370     73.12721  21.8174        293
 6.56   0.2850   1080.7024     52.5954 -41.23     278.7156     0.589     0.322      2.160     73.14378  21.9371        294
 5.17   0.0465   1072.8773   1219.1769 -74.69     1708.562     2.145     1.588      4.843     73.16033  19.9684        295
 3.50  99.0000   1074.6160    915.3461  46.10    -5.308814     0.604     0.314      2.527     73.18516  99.0000        296
 4.82   0.0806   1066.7207   1562.5005 -58.37     984.4647     2.406     1.314      5.285     73.08579  20.5670        297
 0.00  99.0000   1069.7161   1084.4321  40.13    -183.4002     0.591     0.316      0.000     73.16033  99.0000        298
 3.92   0.3047   1066.6434   1597.2023  30.34     229.0274     1.134     0.835      2.322       64.258  22.1503        299
 4.84   0.2744   1067.5416    568.7209 -76.53     289.4971     1.208     0.581      2.440     73.13549  21.8959        300
 6.00   0.1799   1063.8567      7.2529  89.49     437.2649     0.863     0.755      3.244     72.45329  21.4481        301
 6.35   0.1279    979.1786    452.8419 -65.60     621.1172     0.889     0.802      3.885     73.17689  21.0671        302
 7.77   0.9088    977.7546   1280.7546  71.48     87.44363     0.859     0.351      3.078     73.17689  23.1957        303
 4.64  99.0000    975.3115   1443.6448  43.11     -37.8525     0.577     0.333      1.321     73.12721  99.0000        304
 0.00   3.1682    972.3511   1499.6312  44.45     25.08658     0.600     0.318      0.000     73.18516  24.5514        305
 3.50  99.0000    969.0247    620.6750  88.99    -181.7585     0.821     0.468      2.104     73.15205  99.0000        306
 5.12   0.1848    965.8401    416.3604 -23.78     430.2229     0.932     0.672      2.360     73.19344  21.4658        307
 3.50  99.0000    955.0853    303.2907 -87.14     -120.405     0.839     0.453      5.032     73.10236  99.0000        308
 5.02   0.0996    952.0719    654.0964  53.10     796.8879     1.706     1.234      4.833     73.11893  20.7965        309
 4.79   0.9007    952.7904     61.2708 -41.63     88.26545     1.224     0.667      3.346     73.20171  23.1855        310
 5.56   1.1357    952.6730    887.3650  43.60      69.9498     0.588     0.326      2.476     73.15205  23.4380        311
 7.84   2.0318    951.6251    826.9586  -2.28     39.12164     0.790     0.483      2.042     73.19344  24.0690        312
 5.58   0.2363    950.4416    268.2458 -84.47     336.3783     1.143     0.418      2.652     73.17689  21.7329        313
 5.51   0.1117    948.7700    445.1736 -21.05      711.612     1.029     0.568      3.162     73.16861  20.9194        314
 3.50   0.4698    947.7188    133.5208  71.15     169.0104     0.725     0.466      1.866     73.11893  22.4802        315
 0.00  99.0000    944.3251     76.6502  43.99    -17.53716     0.581     0.331      0.000     73.11065  99.0000        316
 4.18   0.0457    939.8646   1067.0360 -61.06     1738.529     1.399     1.122      3.049     73.16033  19.9495        317
 5.49   0.1192    937.9736    515.8405  68.76     667.1177     2.181     0.812      5.003     73.19344  20.9895        318
 3.50   0.0054    930.5154   1178.4441 -85.08     14700.92     1.665     1.614      3.272     73.13549  17.6316        319
 6.38   1.4857    933.5454   1027.5303  44.23     53.45435     0.519     0.477      2.352     73.12721  23.7300        320
 0.00   3.5074    932.7028   1006.0181  28.16     22.64771     0.880     0.217      0.000     73.14378  24.6624        321
 4.57   0.0811    929.1963   1322.3903 -72.77     979.6326     1.309     1.180      3.019     73.13549  20.5723        322
 3.50   1.3587    929.2763   1498.6666  41.56     58.42243     0.551     0.344      1.248     73.09408  23.6336        323
 6.48  18.1505    933.4293   1118.6073  43.25     4.378388     0.997     0.547      1.586     73.17689  26.4467        324
 7.75   0.7507    927.2894    934.1692  -5.81     105.7952     0.829     0.448      3.261     73.13549  22.9888        325
 6.70  99.0000    925.9588   1106.0000  90.00    -52.99079     0.849     0.289      1.402     73.17689  99.0000        326
 5.60   0.4250    926.0001     46.9569   0.00     187.0521     0.769     0.638      2.841     73.19344  22.3701        327
 0.00  99.0000    920.2391   1027.9855  50.94    -120.5989     1.020     0.291     -2.781     73.18516  99.0000        328
 7.75   0.2176    918.3492    252.6746  45.98     364.9317     0.581     0.331      2.453     73.11065  21.6445        329
 4.75   0.0896    913.7162    838.4712 -58.89      885.775     1.164     1.047      3.285     73.10236  20.6817        330
 8.04   0.7484    914.9571   1118.3761  87.62     106.2101     0.789     0.484      3.549     73.19344  22.9846        331
 3.99   0.1814    913.1610   1000.7853   8.81     438.2465     1.350     0.879      3.104     73.18516  21.4457        332
 6.12   0.2701    908.8936    658.6951 -63.08      293.879     0.936     0.202      1.934     73.08579  21.8796        333
 4.75   0.1980    908.0001    157.2937 -61.45      401.037     0.865     0.218      1.359     73.12721  21.5420        334
 5.55   0.2137    905.2256   1315.1576  44.53       372.08     1.371     0.915      2.912     73.20171  21.6234        335
 3.50   0.0129    901.2242    302.8381 -64.60     6147.975     1.501     1.389      3.060     73.16861  18.5782        336
 0.00  99.0000    902.6825    875.9526  -1.86    -74.15728     0.825     0.465      0.000     73.12721  99.0000        337
 3.50   0.0001    882.8229    183.6518 -35.41     798480.6     3.980     3.531      4.220     73.20171  13.2943        338
 7.97   0.0923    897.2171    158.2609  15.95     860.9413     0.855     0.352      3.433     73.16033  20.7126        339
 5.80   0.1926    894.7897   1425.7336 -39.05     412.7788     1.144     0.840      3.581     73.19344  21.5107        340
 4.40   0.0202    881.5032    224.4157  87.65     3923.172     5.848     1.887     11.003     73.15205  19.0659        341
 4.01   0.0869    889.7144    325.0488  30.19     913.9205     1.557     0.877      3.784     73.12721  20.6477        342
 4.87   0.1549    886.7603   1304.8337  74.27     512.9594     1.807     1.226      2.864     73.17689  21.2748        343
 3.50   0.0007    881.0616   1592.5116 -55.90     111026.3     1.931     1.812      3.348     73.11893  15.4364        344
 5.85 141.1085    900.7428    379.5905 -38.23    0.5635026     0.570     0.329      0.118     73.21825  28.6728        345
 3.87   0.1105    886.5408   1500.3883  47.44     719.0265     1.299     1.101      3.130     73.18516  20.9081        346
 3.50   0.1800    885.9301    339.0668 -71.14     441.2225     1.344     0.699      2.378     73.11065  21.4384        347
 5.24   0.0728    879.0587   1177.2458  61.56     1090.612     2.084     1.695      4.543     73.15205  20.4558        348
 7.81   0.9329    898.5586    987.7567 -53.11     85.18202     0.572     0.322      2.375     73.17689  23.2241        349
 4.73   0.2404    878.3835    960.8666  37.49     330.6382     1.144     1.033      2.578     73.19344  21.7516        350
 4.19   0.0562    896.8283    538.6429  -8.38     1415.356     2.032     1.364      4.402     73.18516  20.1728        351
 4.94   0.2942    877.5875    541.9125 -33.88     270.0605     0.734     0.330      1.754     73.16861  21.9713        352
 4.52   0.0321    870.2298   1103.7103 -73.44     2471.563     2.037     1.597      4.080     73.13549  19.5676        353
 3.50   0.0003    860.0765   1224.5005 -48.03     292931.2     2.206     2.040      3.459     73.09408  14.3831        354
 3.73   0.3089    870.4454    643.5135 -54.48     257.1456     1.142     0.764      2.598     73.13549  22.0246        355
 7.02   0.1538    901.3706    151.0746  29.02     516.6619     0.923     0.207      2.912     73.15205  21.2670        356
 0.00  99.0000    892.3071   1453.3464 -43.16    -70.10201     0.571     0.336      0.000     73.11893  99.0000        357
 6.98   0.4415    867.6667    454.0001  28.15     180.0309     0.919     0.209      1.939     73.19344  22.4116        358
 6.64  99.0000    897.3264   1127.1046  -4.38    -26.86738     0.816     0.466      3.863     73.11893  99.0000        359
 4.39  99.0000    864.0000   1015.3030  30.59    -89.29268     0.904     0.559      1.973     73.14378  99.0000        360
 7.11   0.3255    863.7709    269.5084  74.74     243.9708     0.859     0.462      3.058     73.12721  22.0817        361
 3.50   5.7030    862.8576    637.2549 -80.21     13.92681     0.906     0.718      0.927     73.13549  25.1904        362
 4.33   0.1082    860.3510   1157.4426   1.63     734.7073     1.314     1.198      3.305     73.17689  20.8847        363
 8.45   0.0971    864.2909    219.3545 -41.88     817.9387     0.567     0.337      2.960     73.11065  20.7682        364
 4.65   0.1377    859.2015   1339.6395 -72.99      577.151     1.379     1.041      3.152     73.16861  21.1468        365
 7.01   0.0395    871.5024    224.8528  87.48     2011.022     2.994     1.073      9.824     73.08579  19.7915        366
 3.50   0.2785    856.2928    544.9838  17.22     285.3194     1.169     0.880      2.856     73.16033  21.9117        367
 6.98   0.1698    855.0227    224.9773 -45.00     467.8426     1.209     0.289      4.496     73.16033  21.3748        368
 4.66   0.0818    868.6576    939.4283  32.30     972.1293     2.151     1.336      4.435     73.18516  20.5807        369
 8.25   0.1876    848.0260    359.4051  25.67     423.5303     1.131     0.450      3.896     73.16861  21.4828        370
 6.95   0.0979    845.4634   1206.2610   9.83     811.4667     1.403     0.993      6.264     73.13549  20.7768        371
 4.88   0.1582    845.9462   1063.5466 -53.17     502.1143     1.216     0.925      2.983     73.16033  21.2980        372
 5.15   0.0740    844.0069   1106.1471  18.76     1074.559     1.541     1.225      3.618     73.21825  20.4719        373
 5.84   0.0422    839.0446   1246.8259 -45.31     1885.122     2.504     1.684      6.692     73.19344  19.8617        374
 6.32  99.0000    845.3188   1168.9346  27.33     -55.3093     0.935     0.204      3.373     73.10236  99.0000        375
 3.50   0.0585    837.4356    298.7454  -8.66     1357.835     1.236     0.999      2.706     73.16861  20.2179        376
 5.80   0.6128    837.5001   1520.6576  13.33     129.4849     0.825     0.475      2.293     73.06921  22.7695        377
 5.41   0.2637    836.7518    819.0476  -1.49      301.453     0.936     0.684      3.121     73.19344  21.8519        378
 0.00  99.0000    829.0392   1086.9608 -45.00    -183.5954     1.211     0.289     -7.375     73.17689  99.0000        379
 3.63   0.0123    823.7006    654.3640 -43.74     6450.176     1.505     1.471      3.253     73.08579  18.5261        380
 6.83   0.6636    823.0000    329.9346   0.00     119.8134     0.859     0.289      1.851     73.20998  22.8537        381
 6.74   0.9542    821.0000   1398.1022   0.00     83.23037     0.767     0.289      1.344     73.12721  23.2493        382
 5.69   0.5192    819.4669    702.4687 -77.34     152.9195     0.906     0.654      2.788     73.10236  22.5888        383
 0.00  99.0000    819.2968    892.6594  42.75    -41.33057     0.564     0.339      0.000     73.10236  99.0000        384
 4.10  99.0000    823.6507   1039.6747 -45.98    -75.63638     0.581     0.331      1.472     73.11065  99.0000        385
 7.14   1.4764    810.8054    843.1619   0.92     53.81342     1.452     0.395      4.999     73.16033  23.7228        386
 0.00   2.0427    809.1946    616.4501  60.05     38.92179     0.936     0.197    -21.461     73.20998  24.0745        387
 3.50   0.0139    803.9039   1378.6149 -20.19     5697.282     1.583     1.483      3.070     73.15205  18.6608        388
 3.50   0.0050    800.1184    695.5565 -62.97     15876.25     1.908     1.713      3.518     73.13549  17.5481        389
 4.11   0.0278    795.4760    695.4899 -70.35     2855.862     1.259     1.084      2.531     73.11065  19.4107        390
 4.92  99.0000    805.0230    859.9770  45.00     -11.5806     1.209     0.289      1.536     73.17689  99.0000        391
 3.74   0.0284    801.5092     41.0885 -27.74     2797.956     1.412     1.193      3.027     73.09408  19.4329        392
 4.21   0.1613    794.2848    295.9999  28.64     492.5555     0.852     0.219      1.607     73.16033  21.3189        393
 5.41   0.4462    790.3035    407.9999  28.45     178.0365     0.878     0.217      2.376     73.14378  22.4237        394
 0.00  99.0000    789.3176    872.3412 -43.94     -124.062     0.574     0.335      0.000     73.11893  99.0000        395
 4.52   0.4355    786.2717   1348.8356  26.32     182.4716     0.915     0.203      1.711     73.16861  22.3970        396
 3.50   0.0334    774.7050   1427.5829 -75.43     2380.326     2.568     1.892      5.234     73.15205  19.6084        397
 8.29  99.0000    776.9772   1154.6438  61.72    -80.60646     0.936     0.205      0.685     73.17689  99.0000        398
 7.72   1.8744    774.6102    826.9153  28.88     42.38907     0.941     0.203      1.276     73.16033  23.9819        399
 3.83   0.3669    773.0837    500.0000  90.00      216.537     0.878     0.289      1.839     73.16033  22.2112        400
 3.50   0.0531    767.4979    391.7724  87.57     1495.683     1.507     1.092      3.036     73.12721  20.1129        401
 6.77   0.1732    768.3767    140.7048 -64.73     458.6326     1.260     0.531      3.844     73.14378  21.3963        402
 4.69   0.5069    765.4050    567.7098  71.08      156.665     1.181     0.257      1.423     73.12721  22.5626        403
 6.44   5.8024    764.9337    834.6593 -87.00     13.68532     0.810     0.473      3.524     73.11893  25.2094        404
 0.00  99.0000    762.6815    957.0001  28.30    -86.79762     0.899     0.213      1.145     73.16033  99.0000        405
 3.50   0.5858    761.6746    362.9761  -0.98     135.6467     0.821     0.468      0.249     73.16861  22.7190        406
 3.50   2.8711    761.3489     42.0000   0.00     27.69167     0.807     0.477      1.199     73.20998  24.4441        407
 0.00   0.7186    759.6014   1020.3090  71.26     110.5123     1.220     0.259     -2.502     73.12721  22.9415        408
 6.43   0.4432    754.7154    433.6240 -40.88     179.2449     0.572     0.333      1.514     73.15205  22.4164        409
 7.41   0.1533    754.7360    195.0280   1.27     518.4124     0.726     0.441      3.400     73.16033  21.2633        410
 4.49   0.0532    743.5812    556.2143 -23.67     1493.772     1.169     1.130      2.992     73.15205  20.1143        411
 7.81   0.1041    742.7152    387.3576  41.36     762.7515     0.565     0.338      2.706     73.14378  20.8440        412
 3.50   0.0002    724.9375    404.7084 -51.03     385300.6     2.269     2.062      3.456     73.13549  14.0855        413
 4.32   0.1432    738.8983   1157.9392  -5.09     554.3151     1.189     0.975      2.765     73.10236  21.1906        414
 3.50   0.0012    727.4346    848.3108 -62.23     65933.38     1.940     1.833      3.346     73.13549  16.0022        415
 9.22   0.0553    729.0000    387.2788 -61.30     1436.812     0.843     0.220      3.355     73.17689  20.1565        416
 3.50   0.1985    722.0692   1394.6014 -54.18     400.4831     1.100     0.942      2.580     73.19344  21.5435        417
 5.85   0.1263    736.9974    649.5864 -75.14     628.9036     1.041     0.923      3.207     73.13549  21.0535        418
 4.39   0.0786    728.2222   1178.2740 -88.23     1011.702     1.259     1.184      3.144     73.18516  20.5374        419
 0.00  99.0000    720.0156   1198.6881  37.94    -23.09215     1.020     0.310      6.122     73.15205  99.0000        420
 3.81   0.0531    716.8065    808.1864 -61.94     1496.478     1.400     1.131      3.184     73.11065  20.1123        421
 4.67   0.0629    709.7144   1163.7175  35.68     1263.077     1.260     1.180      3.047     73.10236  20.2964        422
 5.30   3.6297    707.8643    794.4329  68.73     21.88931     0.612     0.475      3.525     73.16033  24.6994        423
 4.23   0.0493    705.0021   1339.0493 -26.08     1613.161     1.702     1.368      4.094     73.20998  20.0308        424
 3.91   0.0332    703.5070    952.4028  48.68     2391.893     1.412     1.372      3.230     73.12721  19.6031        425
 4.09   0.1291    699.6138    582.3784  -6.14     615.5245     1.751     1.076      3.963     73.14378  21.0769        426
 0.00   1.3527    693.7501   1315.9832  -0.81     58.74976     0.695     0.433      2.135     73.17689  23.6275        427
 6.25   0.0923    692.6816   1213.4618 -13.18      859.911     1.195     0.874      3.909     73.11065  20.7139        428
 6.48   0.1108    687.8628   1213.5135 -68.83      716.913     1.594     0.708      4.755     73.11065  20.9113        429
 7.34   0.2709    692.9616    315.8236 -89.02     293.3897     0.737     0.381      2.562     73.17689  21.8814        430
 3.50   0.5763    693.3108    275.0000  28.38      137.838     0.889     0.215      1.736     73.14378  22.7016        431
 0.00   1.2931    692.0004    686.0004  45.00     61.45565     1.190     0.289      7.141     73.17689  23.5786        432
 5.66   0.0402    684.3461    472.4061  38.47     1976.378     2.643     2.083      8.833     73.22652  19.8103        433
 4.77   0.0410    682.3437    543.4695 -76.00     1938.568     1.951     1.352      4.972     73.12721  19.8313        434
 0.00  99.0000    682.0001    711.3259 -61.77    -26.55742     0.909     0.211     -1.762     73.17689  99.0000        435
 0.00  99.0000    679.9166    873.2916  62.82    -9.878052     0.907     0.211      0.000     73.11893  99.0000        436
 3.69   0.0394    686.2920    644.1158  18.15     2015.648     1.388     1.259      3.093     73.10236  19.7890        437
 3.50   0.3019    688.1910    130.8397 -41.23     263.1999     0.715     0.558      1.639     73.17689  21.9993        438
 0.00   3.1198    676.0004    863.6665 -61.84     25.47854     0.919     0.209      5.516     73.19344  24.5346        439
 6.93   0.1937    669.6745   1221.2551 -61.16      410.062     0.941     0.540      3.523     73.12721  21.5179        440
 7.18   0.4725    667.1979   1180.2952  -4.06     168.1404     0.990     0.393      3.657     73.15205  22.4858        441
 3.50   0.0012    649.1277   1464.2970 -60.35     65443.83     1.880     1.776      3.235     73.11065  16.0103        442
 3.65   0.6135    657.3133    525.3934 -42.28     129.5022     0.592     0.321      1.317     73.15205  22.7693        443
 4.54   0.1238    655.6267    870.9739  53.62     641.8412     1.000     0.763      2.691     73.16033  21.0314        444
 6.40   1.6363   1555.3479   1333.3260 -45.90     48.52273     0.580     0.331      2.529     73.11065  23.8351        445
 3.50   0.0077    640.5852    536.7446 -82.77     10361.39     1.596     1.515      3.164     73.18516  18.0115        446
 3.50   0.2073    642.5608    276.5155  60.43     383.1954     1.468     0.756      2.620     73.15205  21.5914        447
 3.50   0.4878    639.1344    205.5995  81.25     162.9789     0.768     0.481      2.161     73.20998  22.5197        448
 3.50   0.3406    635.0000    106.0459   0.00     233.4302     0.874     0.289      1.430     73.20998  22.1296        449
 4.32   0.1078    631.4093    806.0199 -89.03     736.9968     1.272     0.961      3.013     73.14378  20.8813        450
 3.50   0.0012    630.0000    483.0770  -1.13     63943.04     1.537     0.535      2.379     73.17689  16.0355        451
 3.50  99.0000    629.7132    942.1152 -50.72     -28.9938     0.870     0.488      2.336     73.10236  99.0000        452
 0.00  99.0000    628.0646    868.6452  86.82    -107.4575     0.801     0.477      0.000     73.16033  99.0000        453
 3.99   0.0748    624.2648   1581.3938 -31.86     1062.488     1.221     0.954      2.730     73.20171  20.4842        454
 7.52   0.2790    620.0558   1153.0000 -88.99     285.0643     1.301     0.582      3.091     73.22652  21.9126        455
 6.63   0.2725    619.1547   1150.5011  88.81     291.2461     1.090     0.500      2.708     73.08579  21.8893        456
 5.31  99.0000    616.5001   1234.7808  17.68      -9.1368     0.887     0.442      2.176     73.11065  99.0000        457
 3.93   0.1770    647.0811    652.9031  50.68     448.5004     0.833     0.618      2.156     73.08579  21.4206        458
 0.00  99.0000    613.3334   1026.9763 -28.57     -129.453     0.906     0.212      2.292     73.17689  99.0000        459
 7.08   0.9282    613.0000    995.0459   0.00      85.6606     0.882     0.289      2.632     73.20998  23.2180        460
 5.27   0.4904    610.2855    945.0281  80.74     162.0257     0.780     0.694      2.065     73.16033  22.5260        461
 4.68   0.5921    608.4211   1011.8708  31.56     134.2496     0.800     0.307      1.964     73.19344  22.7302        462
 4.04   0.0640    606.3718    586.1050   2.68     1240.169     1.259     1.040      2.947     73.12721  20.3163        463
 3.50   0.0014   1564.5637    304.2741 -49.92      57268.8     1.844     1.738      3.416     73.14378  16.1552        464
 6.57   0.0859    601.2082   1300.2982 -35.15     924.2101     0.503     0.348      2.563     73.12721  20.6356        465
 5.02   0.2021   1532.8790    415.9925 -15.18     393.1192     1.620     1.145      4.025     73.16861  21.5637        466
 3.65   0.0484   1571.3882     92.6983 -52.64     1640.502     1.348     1.198      3.012     73.11893  20.0126        467
 5.55   0.4961   1581.2239   1414.2240  64.13     160.1912     1.155     0.498      2.902     73.17689  22.5384        468
 5.30   0.0817   1566.3282    678.9262  27.21     971.1699     0.952     0.198      1.937     73.09408  20.5818        469
 6.46   0.5943    588.9406   1139.6997 -62.53     133.5594     0.907     0.211      1.096     73.09408  22.7358        470
 5.09   0.2924   1592.7048    566.6732 -42.44     271.5361     1.137     0.680      3.482     73.11065  21.9654        471
 6.88   0.2859   1594.3400   1383.3201 -45.89     271.5767     0.574     0.335      2.443     71.48557  21.9653        472
 7.06   0.7321   1561.6597   1568.2986  47.12     108.4353     0.565     0.339      1.672     73.10236  22.9621        473
 3.83   0.0691   1585.8881   1108.8702 -62.88     1149.681     1.229     1.087      2.792     73.10236  20.3986        474
 0.00  17.2629   1586.6826      9.9761 -27.91     4.602479     0.911     0.211      0.000     73.16033  26.3925        475
 5.04   0.2301   1576.0000   1491.1226   0.00     345.3368     0.857     0.289      1.841     73.17689  21.7044        476
 3.96   0.0367   1567.5634     22.0702 -33.11     2166.822     1.550     1.347      3.300     73.16861  19.7104        477
 3.70   0.2945   1586.4114   1069.5791  -2.91     269.7229     1.034     0.490      2.251     73.15205  21.9727        478
 6.49   0.4199   1561.7128    385.2873  45.00     189.0779     0.536     0.350      2.048     73.10236  22.3584        479
 3.50   0.0752   1562.1268    861.5934  31.51     1057.322     1.172     1.030      2.703     73.19344  20.4895        480
 0.00   2.9247   1576.9572    503.6237 -87.62     27.17546     0.789     0.484      1.630     73.18516  24.4646        481
 0.00  99.0000   1571.6411   1338.6986 -47.58    -17.07939     0.574     0.334      0.000     73.09408  99.0000        482
 0.00   1.9834   1570.8909     33.8909  45.00      40.0142     1.199     0.289      0.000     73.07751  24.0445        483
 3.92   0.1536   1551.5569   1221.8110  35.83      517.299     0.832     0.789      2.445     73.16861  21.2656        484
 3.50   0.0047   1553.5067    682.1590 -30.40     16992.29     4.469     3.626      8.066     73.08579  17.4744        485
 3.50   0.0014   1558.8643    487.7159 -47.49     56740.43     1.801     1.716      3.408     73.11893  16.1653        486
 0.00  99.0000   1489.0229    432.0000  90.00    -160.8124     0.879     0.289      5.273     73.14378  99.0000        487
 3.50   0.0323   1543.4835    654.6154 -49.72     2460.209     1.316     1.183      2.902     73.17689  19.5726        488
 3.50   0.2664   1537.1063   1429.5767 -58.05      298.134     1.861     1.083      2.678     73.13549  21.8640        489
 3.55   0.0244   1542.7063    135.1601 -60.54      3257.23     1.451     1.311      3.168     73.08579  19.2679        490
 6.66   1.4473   1534.0240    457.6747  62.15     54.90156     0.922     0.209      1.277     73.16861  23.7010        491
 4.49   1.6803   1522.0972    576.6375  32.06     47.24139     1.364     0.181      4.766     73.09408  23.8642        492
 3.50   0.3401   1499.7462    844.1355 -48.30     233.5454     0.908     0.443      1.448     73.13549  22.1291        493
 6.24   0.2414   1525.5830    378.8531  22.24     329.1779     0.754     0.434      2.992     73.18516  21.7564        494
 6.61   0.2212   1521.7194   1100.9550 -75.91     358.9507     1.050     0.578      3.933     73.12721  21.6624        495
 6.20   0.3230   1489.3719     77.5806  85.86     245.9868     0.966     0.731      2.598     73.16033  22.0727        496
 5.81  99.0000   1506.0000   1470.6666  61.84    -29.04652     0.919     0.209      2.295     73.19344  99.0000        497
 5.54   0.2049   1515.9574   1546.9021  79.94      387.505     1.466     1.003      4.055     73.10236  21.5793        498
 3.50  99.0000   1510.0638    958.3121 -87.57    -35.97826     0.827     0.462      1.584     73.12721  99.0000        499
 6.66   0.7365   1502.2192   1412.3424  16.00     107.8905     0.821     0.360      2.293     73.16861  22.9675        500
 7.79   0.3252   1523.1821     14.5840  60.01     244.3017     0.864     0.274      2.740     73.16033  22.0802        501
 3.50   0.0026   1508.0385    269.3915 -55.20     30774.38     1.701     1.598      3.360     73.16861  16.8295        502
 6.83   1.1162   1504.0840   1313.0000  90.00     71.18052     0.886     0.289      1.521     73.16033  23.4191        503
 8.23   0.0763   1510.0000    260.2902 -61.41     1041.096     0.859     0.219      2.831     73.14378  20.5063        504
 7.79   0.2463   1256.3108    911.9326   2.54     322.3889     0.828     0.462      3.807     73.11893  21.7790        505
 5.10  99.0000   1254.3495    506.0243  28.39    -72.48779     0.927     0.208      0.605     73.20171  99.0000        506
 0.00  99.0000   1252.0455     81.3561  61.32     -159.327     0.922     0.208      5.533     73.18516  99.0000        507
 5.18   0.1331   1483.4835    574.6194 -42.18     596.9697     1.736     0.877      4.769     73.16861  21.1101        508
 7.06   0.1550   1476.0719    998.6124 -82.28     513.1064     0.889     0.477      3.426     73.20998  21.2745        509
 5.50   0.4617   1263.2410    215.6861  38.95     172.0296     0.526     0.349      1.955     73.14378  22.4610        510
 7.52   1.3552   1477.9769    199.0000  90.00     58.61281     0.879     0.289      1.423     73.14378  23.6300        511
 5.83   0.2544   1274.2544    698.6299 -77.15     312.4275     1.145     0.628      3.829     73.17689  21.8131        512
 8.88   0.0877   1259.7471   1015.4485 -12.09     905.7253     1.294     0.724      7.509     73.16033  20.6575        513
 7.31   0.0847   1262.0000   1016.0001  -4.96     938.7674     1.292     0.656      6.214     73.17689  20.6186        514
 7.11  99.0000   1448.3494     36.9759 -28.38    -31.00016     0.926     0.208      5.559     73.20171  99.0000        515
 3.50   0.0001   1367.0525   1159.7625 -46.91     763696.1     3.193     2.937      3.820     73.16861  13.3427        516
 3.50  99.0000   1468.0000    555.9626   0.00    -34.60751     0.782     0.289      1.338     73.16033  99.0000        517
 4.13   0.0473   1416.4312   1386.5653  58.44     1679.389     1.480     1.276      3.134     73.16861  19.9871        518
 4.99  99.0000   1468.9537   1195.0000  90.00    -40.00326     0.865     0.289      5.189     73.20998  99.0000        519
 3.50   0.5637   1437.3202   1346.9045  56.07     140.8083     1.152     0.660      1.915     73.09408  22.6784        520
 6.61  99.0000   1269.1689    361.5000 -74.68    -81.38668     0.848     0.463      2.114     73.08579  99.0000        521
 7.69   3.9673   1450.7170     88.4736  73.12     20.01315     0.857     0.452      1.399     73.11065  24.7967        522
 3.50  99.0000   1442.0627    968.6458  86.93    -65.69131     0.802     0.477      0.410     73.13549  99.0000        523
 0.00  99.0000   1451.0000   1263.0450   0.00    -126.9641     0.865     0.289      5.189     73.20998  99.0000        524
 8.25   0.0860   1446.2559   1083.8065   5.43     924.6218     0.843     0.431      4.343     73.22652  20.6351        525
 0.00  99.0000   1455.6666    512.6858 -45.92    -38.42304     0.569     0.338      0.000     73.10236  99.0000        526
 6.64   1.1525   1387.9233   1384.7798  78.43     68.96132     1.020     0.829      2.772     73.18516  23.4535        527
 0.00  99.0000   1454.9799    661.6464 -89.02    -25.79098     0.804     0.478     -0.199     73.17689  99.0000        528
 3.50   3.2550   1419.6957    618.0654  27.38     24.39798     0.915     0.209      1.412     73.12721  24.5816        529
 3.69   0.0311   1440.6885    619.1634  12.09      2550.25     1.261     1.144      2.954     73.13549  19.5335        530
 7.31  99.0000   1389.2616   1584.8923  26.84    -77.39754     0.875     0.216      5.250     73.13549  99.0000        531
 3.50   0.0006   1435.2314   1090.4421 -51.90     138505.5     1.959     1.841      3.432     73.19344  15.1963        532
 5.98   0.1696   1439.5906   1271.1183  77.30      468.439     0.918     0.670      2.775     73.15205  21.3734        533
 5.42   0.3069   1439.5249    646.8514  46.08       258.72     1.185     0.527      2.698     73.11065  22.0179        534
 5.90   0.2036   1432.8444    341.4586   2.64     390.2142     1.599     1.241      4.362     73.15205  21.5717        535
 3.60   0.0236   1436.1575    224.7849 -42.72     3366.712     1.419     1.279      3.024     73.16861  19.2320        536
 0.00  99.0000   1424.7158    273.1053   3.40    -12.46394     0.841     0.449      0.000     73.06921  99.0000        537
 3.50  99.0000   1394.0149    410.8730  27.54    -44.71637     0.931     0.578      1.309     73.20998  99.0000        538
 0.00  99.0000   1434.6666   1456.9235 -27.16     -20.8179     0.960     0.195      0.000     73.09408  99.0000        539
 3.50   0.0325   1409.0771    308.3878  15.10     2442.612     1.404     1.330      3.058     73.20171  19.5804        540
 3.50  99.0000   1394.9999    993.6860  61.65    -147.0309     0.893     0.214      2.969     73.14378  99.0000        541
 5.13   0.1816   1389.8104    806.5948 -88.45     437.1515     0.889     0.775      2.883     73.11893  21.4484        542
 3.50   0.0045   1420.1815   1126.3538 -55.03     17617.02     1.819     1.634      3.462     73.17689  17.4352        543
 0.00  99.0000   1429.4386   1169.2900 -49.50    -19.52766     0.596     0.312      0.000     73.12721  99.0000        544
 4.00   0.0315   1391.2644    713.2376  33.46     2519.163     1.334     1.240      3.199     73.16033  19.5469        545
 0.00  99.0000   1425.9121   1568.0879 -45.00    -286.6006     1.196     0.289      0.000     73.09408  99.0000        546
 0.00  99.0000   1423.6742    366.9551 -27.55    -54.59039     0.934     0.205      2.050     73.12721  99.0000        547
 4.82   0.1928   1407.0568    329.9243  75.74     411.9147     1.506     1.131      2.439     73.14378  21.5130        548
 0.00  99.0000   1418.6593    195.3626  44.25    -183.1396     0.593     0.323      0.000     73.16861  99.0000        549
 5.56   0.1182   1412.0884    350.1978  48.05     672.0427     1.434     1.148      4.265     73.14378  20.9815        550
 0.00  99.0000   1412.3408   1410.0446  28.89    -84.63725     0.903     0.212      2.130     73.14378  99.0000        551
 6.22   0.1867   1414.7061      1.1895  79.63      317.696     1.222     0.330      3.095     54.63035  21.7950        552
 0.00  99.0000   1382.6748    693.9757 -27.84    -92.98167     0.922     0.209      5.532     73.16033  99.0000        553
 0.00  99.0000   1303.2579   1075.2581  69.85    -32.01794     0.845     0.348      0.000     73.12721  99.0000        554
 6.90  99.0000   1399.2905     84.3548 -41.84    -47.49572     0.567     0.337     -3.715     73.11065  99.0000        555
 3.50   0.0010   1394.2742    114.4737 -50.74     77433.81     1.885     1.760      3.431     73.12721  15.8277        556
 3.72   0.0111   1389.6078   1428.4995 -42.95     7186.049     1.478     1.438      3.127     73.12721  18.4088        557
 3.50   0.0543   1393.0530   1038.7119  58.83     1461.205     1.316     1.174      2.928     73.10236  20.1382        558
 0.00   1.5474   1400.3477   1312.6523  45.00     51.34682     0.590     0.325      0.000     73.16033  23.7737        559
 5.40   0.0120   1360.3036   1135.1484  79.60     6586.422     6.594     5.075     19.334     73.07751  18.5034        560
 5.01   0.0814   1401.4481   1031.5967  30.48     976.3355     1.176     1.073      3.883     73.20171  20.5760        561
 3.50   0.5218   1381.6510   1189.3256  45.96     152.1712     0.581     0.331      0.176     73.11065  22.5942        562
 7.50   0.2863   1386.1420   1275.5720 -60.72      277.562     0.949     0.197      1.795     73.18516  21.9416        563
 3.50   0.0094   1373.4570   1018.9459 -27.80     8492.031     1.696     1.552      3.299     73.14378  18.2275        564
 0.00  99.0000   1375.3101    728.0230  -0.86    -112.6789     0.830     0.462      0.000     73.15205  99.0000        565
 0.00  18.9639   1290.5000    132.7500  83.38     4.183476     1.124     0.416      0.000     73.05264  26.4962        566
 0.00   1.8773   1281.3851   1003.0607 -87.42      42.3222     0.967     0.646    -19.314     73.16033  23.9836        567
 0.00  99.0000   1348.0000    121.0000   0.00    -194.5498     0.857     0.289   -136.917     73.17689  99.0000        568
 0.00  99.0000   1380.3252   1357.9756  27.84    -57.99508     0.922     0.209     -3.678     73.15205  99.0000        569
 7.29   0.4301   1380.4744    319.0000  31.14     184.7701     0.827     0.301      1.926     73.17689  22.3834        570
 0.00  99.0000   1296.3486   1144.6743  45.94    -137.6311     0.580     0.331      0.000     73.11065  99.0000        571
 4.47   0.2761   1300.1038     54.2707 -30.47     287.5572     1.337     0.699      2.992     73.11893  21.9032        572
 5.13   0.3252   1346.3318    605.5659 -40.63     244.3194     1.145     0.821      3.185     73.16861  22.0801        573
 3.50  99.0000   1331.3257    555.6969  46.22    -20.81489     0.561     0.341      1.270     73.10236  99.0000        574
 7.20   2.6556   1368.9774   1299.0226 -45.00     29.91926     1.221     0.289      4.124     73.16033  24.3601        575
 6.87   0.2179   1371.1169   1215.5745  58.31     364.6451     0.797     0.309      3.426     73.15205  21.6453        576
 8.06   0.1148   1352.3207   1179.0190 -27.96     692.3738     0.913     0.211      3.366     73.17689  20.9491        577
 7.88   0.1546   1353.4500    152.7114 -80.35     513.6663     1.344     0.399      3.958     73.11893  21.2733        578
 6.21   0.0747   1331.2952   1139.4503 -74.95     1062.519     1.775     1.344      6.149     73.09408  20.4842        579
 9.13   0.1735   1352.0409    150.6394 -61.47     458.0368     0.931     0.206      3.515     73.18516  21.3977        580
 3.88   0.0269   1308.4222    669.6282 -80.31     2956.597     1.345     1.332      3.191     73.16861  19.3730        581
 3.50   0.3458   1282.0000   1028.9387   0.00     229.8929     0.844     0.289      2.175     73.20998  22.1462        582
 7.14  99.0000   1371.3474    706.3052 -46.98    -75.45058     0.571     0.336      2.343     73.11065  99.0000        583
 0.00  99.0000   1349.8795   1582.3936 -60.42    -249.8098     0.921     0.205   -101.136     73.16033  99.0000        584
 6.51   0.8695   1347.2411    194.2411  72.37     91.41553     0.871     0.353      1.577     73.19344  23.1474        585
 5.15   0.0958   1333.6509    107.5257 -35.84      828.509     1.248     0.989      2.861     73.11065  20.7543        586
 3.50   0.0027   1320.9098    659.9946 -46.88     29093.04     1.770     1.642      3.319     73.12721  16.8905        587
 0.00  99.0000   1323.0000   1076.0571   0.00    -69.23138     0.815     0.289     -4.599     73.22652  99.0000        588
 7.65   2.6485   1327.6888   1115.9556 -27.64       29.989     0.914     0.210      4.184     73.13549  24.3576        589
 4.37  99.0000   1290.7700   1195.4596 -77.25    -26.52826     0.852     0.473      2.497     73.18516  99.0000        590
 4.41   0.1098   1305.6620    892.7547 -51.43     723.3515     1.116     0.966      3.025     73.13549  20.9016        591
 8.77   0.5288   1251.3209    943.4158 -20.51     150.2724     1.165     0.995      6.989     73.17689  22.6078        592
 5.92   0.2118   1331.1888    386.7252  -4.13     375.2714     1.355     0.916      3.252     73.20171  21.6141        593
 5.16   0.1629   1319.9032    264.2714 -51.80     487.4942     1.419     0.702      2.697     73.11893  21.3301        594
 4.07   0.0204   1330.7682    655.8207  18.63     3885.689     1.526     1.453      3.687     73.16033  19.0763        595
 4.16  99.0000   1308.0000    573.9775   0.00    -28.08304     0.887     0.289      1.635     73.14378  99.0000        596
 3.50   0.0004   1299.2595    724.8721 -47.04     181855.9     2.012     1.888      3.448     73.12721  14.9007        597
 4.94   0.0319   1308.6597   1036.3319 -34.20     2486.642     2.470     1.724      5.812     73.13549  19.5610        598
 3.77   0.0074   1273.6069    609.9993 -57.71     10740.49     3.936     2.320      6.616     73.12721  17.9724        599
 4.49  99.0000   1315.0793    501.0793  45.00    -71.95248     1.174     0.289      7.042     73.12721  99.0000        600
 7.59   0.9114   1369.3282    149.2370 -52.15      87.1722     0.530     0.347      2.581     73.16033  23.1991        601
 3.50   0.0882   1293.9402    412.7855  26.41     900.5619     1.239     1.029      2.714     73.16033  20.6637        602
 3.50   0.0120   1292.1848    762.1121 -28.24     6612.021     2.005     1.505      3.514     73.15205  18.4992        603
 4.80   0.2734   1292.1505    545.3431  -1.12     290.5611     1.119     0.644      1.815     73.15205  21.8919        604
 4.05   0.0631   1260.2583    432.3774 -69.20     1258.991     1.935     1.766      4.557     73.18516  20.2999        605
 3.91   0.0195   1278.8846   1331.4535 -58.61     4082.563     1.471     1.370      3.307     73.11893  19.0227        606
 6.23   0.7495   1278.2515    343.6308 -72.57     106.0335     0.820     0.435      3.416     73.17689  22.9864        607
 5.25   0.0497   1294.4254    742.3442  80.28     1599.394     1.265     1.095      3.907     73.17689  20.0401        608
 5.23   0.1913   1229.1621   1154.0226  -5.19     415.5218     1.208     0.877      3.182     73.17689  21.5035        609
 5.90   7.4727   1269.2751    382.8086  43.64     10.63707     1.139     0.352      3.284     73.19344  25.4829        610
 3.74   0.0086   1211.5797   1279.0302  81.77      9275.31     5.606     3.439      9.110     73.16033  18.1317        611
 3.97   0.0950   1243.2916    672.6605 -69.17     835.5587     1.228     0.983      2.983     73.11893  20.7451        612
 3.50   0.0244   1266.2174    807.8788 -56.79     3259.414     1.453     1.380      3.107     73.18516  19.2672        613
 0.00  99.0000   1026.3267   1028.4064 -42.71    -152.5256     0.603     0.312      0.000     73.19344  99.0000        614
 6.25   0.7186   1245.0000    615.0000  90.00     110.5919     0.885     0.289      2.184     73.17689  22.9407        615
 6.11   0.0815   1208.6383   1037.8812  30.29       974.35     0.881     0.212      2.296     73.14378  20.5782        616
 3.71   0.0475   1208.4725    838.8318 -65.35      1671.08     1.241     1.109      2.740     73.16033  19.9925        617
 5.32   0.1822   1262.9879    855.0240 -23.86     436.0802     1.061     0.721      3.107     73.15205  21.4511        618
 0.00  99.0000   1243.3547   1580.0000 -27.94    -190.8792     0.947     0.202     -7.979     73.20998  99.0000        619
 0.00  99.0000   1240.6968    254.3258  43.78    -30.80018     0.561     0.341      0.000     73.11065  99.0000        620
 5.86   0.2180   1238.4458     48.1274 -37.78     364.2619     1.094     0.970      4.078     73.12721  21.6465        621
 3.75   0.0086   1219.6714   1195.0010 -33.04     9246.745     1.697     1.571      3.369     73.19344  18.1350        622
 3.72   0.0557   1202.5297    339.0960 -80.36     1426.619     1.631     1.251      3.299     73.11893  20.1642        623
 7.86   1.2466   1232.9341    180.9341  45.00     63.69223     1.180     0.289      3.972     73.11065  23.5398        624
 0.00  99.0000   1258.9534   1338.0000  90.00    -80.58353     0.865     0.289     -2.517     73.20998  99.0000        625
 3.50   0.0056   1215.4136    513.0159 -58.64     14221.54     1.621     1.535      3.220     73.16033  17.6676        626
 5.63   0.3818   1238.5009    857.4757  45.04     207.8639     1.022     0.788      2.903     73.07751  22.2556        627
 3.50   0.8402   1225.9999   1092.6749 -61.77     94.58862     0.908     0.212      0.565     73.17689  23.1104        628
 6.32   0.1391   1197.3890   1053.5745  -4.75     571.0043     1.299     0.465      3.339     73.15205  21.1584        629
 7.16   0.2016   1212.3805    829.3199 -47.13     394.1235     0.591     0.323      2.459     73.17689  21.5609        630
 5.26   0.0501   1195.6740    124.2791  83.25     1586.408     2.138     1.722      4.403     73.12721  20.0490        631
 0.00   1.6883   1214.3412     72.3177 -46.06     47.03864     0.574     0.335      0.000     73.12721  23.8689        632
 0.00  99.0000   1209.0000    483.0223   0.00    -40.04387     0.835     0.289     -9.030     73.14378  99.0000        633
 4.40   0.0781   1201.8032   1442.1143  60.99     1017.663     1.636     1.434      4.125     73.15205  20.5310        634
 5.52   1.6053   1021.2867   1154.5536  40.28     49.47546     0.596     0.310      1.645     73.13549  23.8140        635
 5.24   1.0157   1185.6385    313.6807 -46.67      78.1978     0.583     0.329      1.366     73.13549  23.3170        636
 4.17   0.0295   1235.1315    304.8505  51.76     2693.605     1.322     1.309      3.223     73.12721  19.4742        637
 0.00  99.0000   1217.6882   1558.9139 -27.12     -107.186     0.936     0.203      0.000     73.11065  99.0000        638
 7.14   0.4932   1157.6038    568.9056  28.96      161.049     0.942     0.202      2.676     73.13549  22.5326        639
 3.61   0.0142   1158.6912    236.4640  16.89     5578.384     1.456     1.402      3.122     73.13549  18.6837        640
 0.00  99.0000   1183.6312    148.9787  -1.13    -44.19056     0.794     0.482      4.280     73.16033  99.0000        641
 0.00  99.0000   1213.5168   1389.5336  45.75    -132.9298     0.515     0.483      0.000     73.09408  99.0000        642
 6.30   0.0787   1137.7151    703.8547 -26.54     1008.569     0.926     0.202      2.273     73.12721  20.5407        643
 3.50   0.0003   1152.5004    695.5374 -42.93     266959.7     1.985     1.382      2.553     73.12721  14.4839        644
 4.60   0.0944   1154.3536   1352.9137 -24.84      841.744     1.603     1.366      3.527     73.14378  20.7370        645
 3.50   0.0002   1153.4352    692.5617 -83.42     523901.5     3.743     3.173      3.854     73.17689  13.7519        646
 5.27   0.0526   1204.0123   1075.7374  22.79     1510.526     2.108     1.639      4.298     73.18516  20.1022        647
 5.86   0.4737   1158.0002    185.6608  61.91     167.8437     0.927     0.207      2.100     73.20998  22.4877        648
 3.50   0.0016   1165.9758   1299.8174  86.08     48744.85     1.814     1.766      3.385     73.15205  16.3302        649
 4.36   0.0489   1237.9348   1553.4390   8.63     1626.337     1.463     1.342      3.213     73.16033  20.0220        650
 6.25   0.0627   1212.2479   1431.1888 -42.58     1266.852     3.016     2.153     12.937     73.18516  20.2932        651
 7.88   0.2409   1159.0317    970.2592 -61.86      329.942     0.832     0.221      2.337     73.17689  21.7539        652
 5.26   0.1929   1162.5293    887.8868 -52.19     411.5959     1.354     1.008      2.904     73.10236  21.5138        653
 0.00  99.0000   1190.9773    534.3257  89.07    -12.01309     0.821     0.468      0.000     73.16861  99.0000        654
 8.04   0.6796   1189.0192   1051.2949 -61.84     116.8885     0.877     0.217      1.350     73.14378  22.8806        655
 7.32   0.1560   1189.7167    963.6524 -41.57     508.9843     0.560     0.340      2.871     73.11065  21.2832        656
 0.00  99.0000   1164.0001      3.0001  45.00    -8.002604     1.165     0.289     -2.192     61.59203  99.0000        657
 5.74   0.0588   1111.4352    479.1222  -8.52     1350.572     2.187     1.547      7.662     73.14378  20.2237        658
 3.50   0.7406   1205.4451   1217.0800 -43.31     107.2314     1.099     0.651      2.251     73.12721  22.9742        659
 0.00  99.0000   1162.0000   1068.0000  45.00    -2.504727     1.115     0.289      6.691     73.17689  99.0000        660
 5.46  99.0000   1141.3711   1010.9774   1.22    -7.562306     0.793     0.483      3.335     73.16033  99.0000        661
 0.00  99.0000   1143.0000    978.0190   0.00    -110.9522     0.847     0.289      5.085     73.16033  99.0000        662
 3.50   0.0025   1080.7655    512.1357 -63.94     31984.62     1.744     1.653      3.324     73.16033  16.7876        663
 4.55   0.0360   1120.9689    329.7619  60.06     2208.672     2.154     1.642      5.048     73.17689  19.6897        664
 6.33   0.2638   1123.0479    740.5641 -25.70     301.3034     1.166     0.452      3.358     73.17689  21.8525        665
 3.74   0.6332   1116.7327   1170.2500  44.31     125.4259     1.106     0.353      1.242     73.13549  22.8040        666
 3.50   0.0027   1095.7242    778.1731 -37.67     29087.23     1.806     1.695      3.322     73.15205  16.8907        667
 5.41   0.4143   1095.3680   1136.3704 -66.27     191.8448     0.949     0.793      2.128     73.18516  22.3426        668
 5.95   0.0979   1105.5768    678.7652  76.53     811.6849     1.559     1.301      5.717     73.16033  20.7765        669
 5.44   0.2364   1085.9333   1452.5042  86.20     335.9746     0.794     0.498      3.125     73.13549  21.7342        670
 0.00  99.0000   1105.6191    602.7209 -49.63     -18.5211     0.571     0.333      0.000     73.17689  99.0000        671
 0.00  99.0000   1100.9542   1366.6666 -88.03    -6.455108     0.816     0.471      0.000     73.15205  99.0000        672
 4.95   0.0937   1096.0582   1526.3982 -89.13     848.5706     1.227     1.127      3.292     73.20998  20.7283        673
 0.00  99.0000   1001.6260   1025.6870 -47.33    -207.0651     0.585     0.327      0.000     73.16033  99.0000        674
 3.50   0.0087   1082.6125   1148.1832 -78.89     9131.599     1.612     1.518      3.163     73.15205  18.1486        675
 3.50   0.0261   1090.0613    642.3896 -55.29     3049.337     1.601     1.309      3.116     73.20171  19.3395        676
 4.64   0.1060   1073.9154      6.6395 -56.73     732.4555     1.161     1.092      3.752     71.46863  20.8880        677
 5.93   0.1373   1084.5046     42.9181  60.53     578.3724     1.119     0.844      3.856     73.10236  21.1445        678
 6.87  99.0000   1019.6667    899.3334  45.00    -47.83233     0.577     0.333      1.760     73.11065  99.0000        679
 3.59   0.0707   1002.3831   1555.3815 -79.67     1124.114     1.259     1.135      2.796     73.16033  20.4230        680
 5.23   0.0823    981.5894    797.9408 -39.68      966.176     1.340     1.131      3.895     73.20998  20.5874        681
 4.70   1.0636    982.9169   1487.0116 -62.85     74.70693     0.831     0.504      1.941     73.16861  23.3666        682
 0.00  99.0000    984.3702    762.6741  46.60    -104.1326     0.589     0.325      0.000     73.14378  99.0000        683
 0.00  99.0000   1056.0649   1021.6884  87.54    -161.9298     0.828     0.462      0.000     73.12721  99.0000        684
 4.58   0.0510    987.5650    454.0040 -84.24      1557.01     1.726     1.240      4.766     73.16861  20.0693        685
 3.50   0.0028    985.6558    558.4437 -55.81     28658.35     1.717     1.613      3.309     73.15205  16.9069        686
 6.91   0.2552    999.2665    232.6801  41.31     311.1298     0.541     0.347      2.241     73.11065  21.8176        687
 4.52   0.1026   1000.7357   1273.7418 -65.17     773.8879     1.239     1.100      2.916     73.13549  20.8283        688
 5.16   0.0739   1060.8451    726.9872  26.80     1075.087     1.655     1.432      4.512     73.16861  20.4714        689
 7.42  99.0000   1049.0684    960.6971  62.65     -78.2128     0.915     0.209      1.300     73.13549  99.0000        690
 8.51   0.1832    992.5286      9.4857  22.71     433.2349     1.195     0.207      2.836     73.09408  21.4582        691
 7.12   0.1348   1037.3073     27.9023  27.01     588.8354     0.935     0.202      3.099     73.09408  21.1250        692
 3.50   0.0096   1039.5090    525.3908 -47.91     8294.568     1.517     1.445      3.119     73.13549  18.2530        693
 3.50   0.0019   1041.0369    633.0376 -47.27      41525.7     1.789     1.677      3.351     73.20998  16.5042        694
 4.95   2.4305   1042.6063   1095.0000  -0.00      32.6747     0.779     0.489      2.806     73.12721  24.2645        695
 7.78   0.2615   1041.4174    467.0413 -31.64     303.9119     0.795     0.309      2.431     73.17689  21.8431        696
 3.50   0.0002   1024.3850     50.1911 -45.63     456260.1     2.205     2.028      3.542     73.11893  13.9020        697
 6.00   0.1251   1038.6262    121.9165 -34.01     634.9922     1.953     0.752      4.591     73.15205  21.0431        698
 3.50   0.0449   1031.1124    302.6949  69.31     1769.254     2.540     1.700      4.965     73.07751  19.9305        699
 3.50   0.0049   1010.6171    813.6671 -62.86     16132.91     1.682     1.606      3.297     73.18516  17.5307        700
 3.84   0.0292   1002.4553    542.4584  62.45     2717.961     1.381     1.267      3.175     73.12721  19.4644        701
 3.64   0.0339   1011.9658    344.7172 -70.11     2345.046     1.373     1.135      2.989     73.15205  19.6246        702
 8.26   0.3771   1014.6600    453.6800 -45.89     210.6456     0.574     0.335      3.039     73.13549  22.2411        703
 3.53  99.0000   1004.9222   1237.7092  53.03     -85.7139     1.052     0.491      1.317     73.11065  99.0000        704
 6.51   0.2337   1012.6344    267.1780 -74.01     340.0193     1.490     0.546      4.869     73.17689  21.7212        705
 8.77   0.0739   1034.7372     32.9039  -2.70     1074.597     0.854     0.439      4.660     73.11893  20.4719        706
 0.00   0.5895   1004.3821    111.0418  28.25     134.8138     0.958     0.198     -1.376     73.17689  22.7257        707
 3.50   0.0042   1026.5737   1379.9996 -66.16     18750.86     1.765     1.651      3.272     73.14378  17.3674        708
