#   1 KRON_RADIUS            Kron apertures in units of A or B                         
#   2 Y_IMAGE                Object position along y                                    [pixel]
#   3 MAG_BEST               Best of MAG_AUTO and MAG_ISOCOR                            [mag]
#   4 FLUX_BEST              Best of FLUX_AUTO and FLUX_ISOCOR                          [count]
#   5 X_IMAGE                Object position along x                                    [pixel]
#   6 THETA_IMAGE            Position angle (CCW/x)                                     [deg]
#   7 A_IMAGE                Profile RMS along major axis                               [pixel]
#   8 B_IMAGE                Profile RMS along minor axis                               [pixel]
#   9 MAGERR_BEST            RMS error for MAG_BEST                                     [mag]
#  10 NUMBER                 Running object number                                     
#  11 FLUXERR_BEST           RMS error for BEST flux                                    [count]
 3.50      8.5337  18.5334     6407.004    753.8251  60.49     1.375     1.363   0.0140          1     82.76802
 3.98     33.6869  20.4138     1133.624    450.4712 -45.79     1.232     1.145   0.0787          2     82.19123
 8.71     69.8053  21.3278     488.4951   1463.4071 -71.30     0.761     0.450   0.1976          3     88.86594
 9.38     96.1218  20.3253      1229.94   1125.8981 -76.47     0.992     0.705   0.1193          4     135.1596
 3.72     95.9752  18.9384     4412.183    917.6512   8.18     1.345     1.282   0.0208          5     84.47475
 3.67     95.3703  21.2347     532.2759    347.6633 -41.15     0.970     0.857   0.1160          6     56.87688
 6.46    107.2876  21.3203     491.8947     47.8193 -73.14     1.074     0.656   0.2077          7     94.06711
 5.82    126.5465  22.3409     192.1549    301.4945  36.21     0.502     0.495   0.2917          8     51.61493
 3.50    151.7228  19.7978     1999.245     46.1761  12.84     1.247     1.146   0.0397          9     72.99453
 6.17    144.6546  22.6251     147.8904    213.2779  48.77     0.557     0.341   0.3509         10     47.78614
 6.89    159.4227  21.3272     488.7706     50.8405  64.72     1.123     0.576   0.2101         11      94.5715
 3.50    213.1703  16.3075        49772    967.8254   6.11     1.690     1.644   0.0022         12     100.4267
 3.72    186.2118  20.4651     1081.308    378.7480  -8.72     1.115     1.041   0.0700         13     69.65967
 8.58    184.6100  21.4428     439.4025   1263.2317 -17.68     0.736     0.455   0.2115         14     85.59367
 4.25    205.7045  22.0413     253.2094    986.0535   7.47     0.713     0.672   0.2133         15     49.73739
 3.77    206.9375  21.4640     430.9269     21.8411  -5.76     0.908     0.735   0.1346         16     53.42653
 3.50    238.2898  16.8922     29048.08   1390.1582  -3.69     1.593     1.538   0.0035         17      94.5715
 3.50    225.9340  19.8200     1958.794   1093.7515  -6.04     1.211     1.140   0.0386         18     69.65967
 8.08    219.6556  21.8974     289.1068   1021.6714 -45.65     0.580     0.332   0.2375         19     63.21512
 6.60    227.1519  21.2968     502.6779    975.7388  23.84     0.947     0.665   0.1954         20      90.4577
 6.70    237.4840  21.8074     314.0897    837.9660   0.46     0.799     0.500   0.2478         21     71.67921
 4.65    243.6980  21.1100     597.0323    567.0759   5.73     1.012     0.867   0.1363         22     74.92424
 4.93    248.5117  21.3831     464.2649    578.0966  76.98     0.974     0.870   0.1854         23     79.24435
 4.06    259.9771  20.1933      1388.97   1427.0297  32.54     1.079     1.060   0.0596         24     76.18356
 6.18    287.5581  20.0043     1653.042   1328.6306 -75.04     1.710     1.123   0.0968         25     147.2868
 6.90    279.9722  22.3022     199.1224   1129.0000  90.00     0.842     0.289   0.2962         26     54.30967
 3.50    282.1113  21.7538     329.9806    955.6761  18.33     0.884     0.682   0.1540         27        46.78
 4.51    314.7289  21.2746     513.0385    793.1882  -7.86     1.095     0.833   0.1572         28     74.28658
 7.99    324.9998  21.8542     300.8411    290.0000  90.00     0.820     0.289   0.2465         29     68.28014
 3.98    333.7581  20.6467     914.7948    789.7813 -85.07     1.149     1.032   0.0889         30     74.92424
 3.85    339.0500  19.5894     2422.326    596.8334  21.31     1.347     1.203   0.0379         31     84.47475
 3.50    374.9164  16.7884     31962.97   1263.4199 -11.08     1.642     1.558   0.0033         32     98.02955
 6.01    362.1308  21.5181     409.9948    709.0848 -45.63     0.858     0.668   0.2083         33     78.64172
 5.33    361.2755  22.7380     133.2874    640.6434  40.68     0.560     0.339   0.3372         34     41.38401
 6.53    364.4894  22.3695     187.1512    504.5386 -48.87     0.504     0.494   0.3202         35     55.17868
 6.31    375.8721  20.3860     1163.101   1364.7144 -44.39     1.518     1.170   0.1354         36     145.0082
 5.69    373.6692  22.5661     156.1575   1563.6791 -45.47     0.571     0.337   0.3034         37     43.62258
 4.26    390.4198  21.1854     556.9769   1463.5830 -51.15     1.057     0.829   0.1345         38     68.97335
 4.41    393.4999  22.1757     223.7231   1318.5051 -45.08     0.505     0.495   0.1894         39     39.01722
 7.72    402.7296  21.2982     502.0114    825.3961 -72.26     0.749     0.454   0.1688         40     78.03444
 3.50    414.5235  19.8561     1894.839     67.9640 -88.51     1.241     1.170   0.0418         41     72.99453
 3.50    418.0926  19.4880     2659.618   1308.7546   3.31     1.335     1.217   0.0316         42     77.42239
 3.50    434.0663  22.0652      247.702    658.3311  82.38     0.744     0.644   0.1814         43     41.38401
 3.50    458.7441  18.0717     9801.698     13.2296 -37.37     1.492     1.401   0.0096         44     86.69816
 6.71    452.7018  21.0970     604.2513   1221.1836  40.36     1.095     0.694   0.1847         45      102.768
 3.50    466.9967  18.7639     5181.487   1075.5585 -20.62     1.427     1.273   0.0173         46     82.76802
 3.50    489.1604  20.7355      842.965    574.9230 -19.29     1.101     1.035   0.0824         47     63.96325
 4.24    506.3505  20.6862     882.0922   1142.7244  14.55     1.038     0.914   0.0891         48     72.33986
 5.31    509.2778  22.6040     150.8038   1563.6588  41.37     0.555     0.342   0.2980         49     41.38401
 6.40    530.2516  21.9638     271.9545    212.6039 -72.48     0.755     0.454   0.2554         50     63.96325
 3.50    548.4669  19.7810     2030.573    374.6524 -51.27     1.288     1.176   0.0390         51     72.99453
 8.55    538.6262  21.0735     617.4375    353.7966  17.85     0.770     0.444   0.1515         52     86.14769
 3.74    558.4240  19.7555     2078.757   1456.6426   6.24     1.280     1.147   0.0411         53     78.64172
 3.50    562.7390  19.2082     3441.396    583.6765 -16.93     1.355     1.223   0.0248         54     78.64172
 3.50    567.6361  19.4093     2859.447    956.5933  15.22     1.442     1.242   0.0312         55     82.19123
 3.73    573.9706  19.4886     2658.115   1028.8879  38.10     1.257     1.245   0.0331         56     81.02534
 7.00    580.9031  21.4532     435.2147   1366.3043  23.29     0.899     0.675   0.2360         57      94.5715
 6.26   1015.3428  22.5969     151.7878   1447.2975 -47.29     0.565     0.339   0.3489         58     48.77152
 3.50    943.5165  19.0288     4059.505    690.0786  44.57     1.322     1.305   0.0209         59     78.03444
 4.62    937.6874  21.0242     646.1328    842.4064  48.68     1.018     0.918   0.1291         60     76.80547
 3.50    920.0018  18.3779     7393.422    620.5195 -33.60     1.483     1.397   0.0127         61     86.14769
 3.50    914.4984  22.8231     123.2472    471.5129 -45.48     0.505     0.495   0.2977         62      33.7899
 5.34    912.5112  21.6495       363.26    567.6704  18.28     1.466     0.550   0.2525         63     84.47475
 3.50    880.6385  17.5060     16504.95    166.1975 -41.67     1.558     1.488   0.0061         64     93.05014
 3.50    880.5171  20.2154     1360.953   1341.4749   9.62     1.209     1.098   0.0561         65     70.33929
 6.80    875.4247  20.9525     690.2538     39.7761  86.87     0.956     0.724   0.1535         66     97.54305
 5.55    874.3450  21.0543     628.4812    448.3039  43.81     0.990     0.862   0.1545         67     89.39968
 3.50    863.2215  15.3667     118390.2   1395.8429 -43.35     1.804     1.772   0.0010         68     108.6193
 3.50    850.7582  18.7534     5231.707    215.2323 -15.35     1.419     1.270   0.0171         69     82.19123
 3.50    840.5008  16.6782     35375.52    275.8560  -5.60     1.631     1.541   0.0029         70      95.0732
 3.85    829.3097  22.9003     114.7852    910.3375 -43.66     0.569     0.338   0.3061         71     32.35137
 7.29    795.2935  22.2130     216.1804    936.6273  41.56     0.575     0.332   0.2684         72     53.42653
 3.50    787.8984  19.4392     2781.841    528.0440  -7.80     1.357     1.174   0.0302         73     77.42239
 3.50    777.6007  17.4102     18026.79    728.2275 -17.65     1.551     1.487   0.0055         74     91.50349
 3.59    771.6260  18.7828     5091.942    369.8672 -20.92     1.358     1.285   0.0174         75     81.61037
 5.83    729.6534  22.5966     151.8339   1577.3302  45.66     0.582     0.331   0.3197         76     44.69984
 7.36    723.1130  19.0359     4033.178    199.3556  77.08     1.775     1.505   0.0561         77      208.295
 4.80    710.7004  21.3461     480.3541   1354.8799  30.74     0.982     0.870   0.1708         78     75.55652
 3.50    711.4685  22.0032      262.256    555.9477 -79.89     0.747     0.662   0.1714         79     41.38401
 5.92    703.1860  21.6053     378.3455   1040.1483 -39.52     0.792     0.684   0.2187         80     76.18356
 3.78    698.8950  20.5999     955.0581     97.0887 -20.52     1.115     1.020   0.0784         81     68.97335
 3.54    669.6442  20.5642     987.0359   1090.6628   8.72     1.047     1.002   0.0687         82     62.45803
 3.50    665.5748  16.3530     47730.79   1487.1353 -35.97     1.683     1.600   0.0022         83     98.51365
 3.50    655.1586  21.4460     438.1351    312.7132 -16.37     0.942     0.825   0.1324         84     53.42653
 5.95    654.0309  21.7670     326.0012     16.6808 -78.37     0.721     0.673   0.2432         85     72.99453
 6.22    637.3861  20.7849     805.4849    871.4728 -25.80     1.153     0.959   0.1528         86     113.3348
 7.31    614.4613  22.1591     227.1787    572.5083 -37.94     0.502     0.496   0.3093         87     64.70274
 4.70    612.9728  22.1251     234.4073    590.0347   3.86     0.616     0.604   0.2214         88     47.78614
 4.33    586.6627  22.7370     133.4155    389.6753 -45.56     0.575     0.334   0.2750         89      33.7899
 3.50   1576.1272  22.0695     246.7173   1129.8270 -45.15     0.714     0.555   0.1717         90     39.01722
 6.87    990.9874  21.6665     357.6056    213.5000  88.54     0.780     0.500   0.2177         91     71.67921
 4.21   1567.7410  21.1795     559.9935     19.5486 -16.06     0.948     0.896   0.1311         92      67.5798
 5.70   1560.4543  20.5771     975.3411   1362.2059 -55.20     1.014     0.892   0.1042         93     93.56001
 3.64   1462.3051  19.0034     4155.843    251.3973 -29.15     1.361     1.283   0.0218         94     83.34081
 6.87   1525.6722  22.4473     174.2173   1294.9987  28.23     0.911     0.211   0.3159         95     50.68485
 6.33   1524.5082  22.3533     189.9762   1515.4877 -45.11     0.511     0.488   0.3154         96     55.17868
 4.20   1535.6650  20.6634     900.8616    875.8801  -6.41     1.177     0.918   0.0911         97     75.55652
 3.50   1511.4844  18.2797     8093.344   1282.0679 -12.86     1.396     1.325   0.0112         98     83.34081
 3.50   1466.7014  18.0395     10097.12    534.0131   7.30     1.485     1.406   0.0094         99     87.78874
 6.98   1473.5054  22.2405     210.7565   1563.5198  45.70     0.507     0.492   0.2887        100     56.03421
 4.57    996.0776  20.3675     1182.996    145.2588 -57.67     1.157     1.067   0.0816        101     88.86594
 3.50   1416.8661  19.0710     3904.701    953.8477 -14.13     1.338     1.256   0.0220        102     79.24435
 3.50   1002.2164  19.4559     2739.239    998.0946 -24.76     1.272     1.210   0.0300        103     75.55652
 6.76   1421.0579  21.4840     423.0457   1049.7332 -84.33     0.734     0.667   0.2065        104     80.43606
 5.22   1007.1936  21.6653     357.9821   1353.1521  11.97     0.930     0.677   0.2154        105     71.01241
 5.30   1021.9153  20.8153     783.2173    106.6269  18.07     1.213     0.932   0.1353        106     97.54305
 6.91   1028.5962  20.4579     1088.568    607.5695 -21.97     1.473     0.868   0.1359        107     136.2115
 3.50   1399.4707  20.7484      832.981    899.5739 -11.32     1.124     0.939   0.0804        108     61.69164
 3.50   1385.8469  18.3915     7301.555    907.5899 -24.23     1.459     1.308   0.0125        109     83.90971
 7.29   1341.2932  22.3202     195.8478    390.3075 -44.10     0.548     0.346   0.2963        110     53.42653
 3.50   1037.6610  22.8092     124.8306    208.6505 -44.61     0.587     0.327   0.2079        111     23.89307
 6.29   1029.7521  21.5503     398.0135    310.5815 -19.83     0.986     0.572   0.2290        112     83.90971
 8.74   1041.5128  22.1466      229.804     23.5005  44.65     0.507     0.493   0.3571        113     75.55652
 3.50   1368.0732  19.7000     2187.667   1439.2480   4.56     1.202     1.170   0.0353        114     71.01241
 4.19   1040.8652  22.0579     249.3667   1084.6525 -77.15     1.067     0.424   0.2166        115     49.73739
 3.97   1238.0380  20.6089     947.1952    384.3324 -47.75     1.162     0.969   0.0837        116     72.99453
 4.52   1239.3766  21.1551     572.7596   1246.1620  83.09     1.113     0.816   0.1396        117     73.64339
 5.55   1308.5393  20.9156     714.1204    133.5595 -25.13     1.015     0.999   0.1446        118      95.0732
 3.50   1312.5579  17.7715     12924.52    923.8445 -14.76     1.515     1.403   0.0075        119     89.39968
 5.81   1278.6492  21.4187     449.2761    260.9317 -60.73     0.875     0.681   0.1916        120     79.24435
 6.60   1276.3993  21.9428     277.2509    569.8483 -19.92     0.734     0.448   0.2505        121     63.96325
 3.50   1285.5226  22.7636     130.1787   1127.4628 -47.20     0.505     0.493   0.2819        122      33.7899
 4.28   1249.1250  20.4217     1125.464     37.9862 -30.12     1.104     0.982   0.0741        123     76.80547
 4.32   1252.7129  21.3185     492.7223    492.8547  79.93     1.093     0.705   0.1426        124     64.70274
 6.90   1242.5549  21.5711     390.4485    865.7887  77.15     0.838     0.621   0.2381        125     85.59367
 3.50   1215.0698  17.3858     18436.62   1195.0428 -78.16     1.476     1.470   0.0054        126      90.9821
 3.50   1245.1102  18.2420     8379.062    570.5760 -22.37     1.442     1.362   0.0110        127     85.03606
 3.50   1111.9489  21.8346     306.3134      1.8598 -42.34     0.807     0.612   0.1383        128     39.01722
 3.50   1229.8593  19.5588     2491.524   1333.8658  -9.71     1.293     1.205   0.0332        129     76.18356
 4.20   1229.8514  21.3151     494.2821    319.1284 -41.42     0.857     0.839   0.1338        130     60.91562
 3.50   1187.1475  21.6723     355.6842     31.4201 -20.18     0.857     0.651   0.1397        131     45.75174
 4.66   1132.9907  22.3725     186.6423    529.0000  90.00     0.781     0.289   0.2340        132     40.21803
 3.92   1194.6493  19.7193     2149.258   1031.4041 -23.51     1.276     1.133   0.0418        133     82.76802
 4.26   1179.7045  21.2882     506.6689      6.4451 -61.55     0.997     0.933   0.1536        134     71.67921
 4.19   1174.6692  22.5275      161.802   1126.6654 -44.84     0.577     0.334   0.2268        135      33.7899
 3.50   1142.4834  22.0403     253.4464    937.0837  -1.92     0.719     0.499   0.1672        136     39.01722
 7.91   1146.6865  22.1802     222.8048    720.6721 -44.28     0.566     0.339   0.2969        137     60.91562
 4.08   1154.6710  20.9353     701.2327    195.5327   4.60     1.130     0.937   0.1130        138     72.99453
 3.50   1131.2783  19.1984     3472.533    620.9372 -10.55     1.352     1.281   0.0250        139     79.84242
 5.02   1111.6760  21.2880     506.7725   1268.2570 -43.85     1.055     0.848   0.1761        140     82.19123
 4.08   1043.7810  21.0071     656.3887    424.6862   0.46     1.163     0.829   0.1164        141     70.33929
 3.50   1091.0695  20.6227     935.2607    792.6173  57.02     1.128     1.058   0.0751        142     64.70274
 3.50   1095.6605  20.5636     987.5128     16.4552  68.25     1.076     1.007   0.0695        143     63.21512
 4.46   1058.5704  20.6953     874.7427    239.6436 -28.15     1.108     0.998   0.1006        144     81.02534
 7.05   1031.4886  22.0344     254.8276    765.5862 -57.52     0.505     0.487   0.2494        145     58.52583
