#   1 KRON_RADIUS            Kron apertures in units of A or B                         
#   2 MAGERR_APER            RMS error vector for fixed aperture mag.                   [mag]
#   3 Y_IMAGE                Object position along y                                    [pixel]
#   4 X_IMAGE                Object position along x                                    [pixel]
#   5 THETA_IMAGE            Position angle (CCW/x)                                     [deg]
#   6 FLUX_APER              Flux vector within fixed circular aperture(s)              [count]
#   7 A_IMAGE                Profile RMS along major axis                               [pixel]
#   8 B_IMAGE                Profile RMS along minor axis                               [pixel]
#   9 FLUXERR_APER           RMS error vector for aperture flux(es)                     [count]
#  10 MAG_APER               Fixed aperture magnitude vector                            [mag]
#  11 NUMBER                 Running object number                                     
 4.78   0.0068     53.0699     63.6729   5.60     36086.15     4.018     3.653     227.2549  16.6566          1
 4.70   0.0416     16.6790    984.9742 -88.37     5938.868     2.949     1.612     227.2549  18.6157          2
 4.64   0.0793     17.7365     91.2467  29.82     3112.007     1.585     1.564     227.2641  19.3174          3
 3.82   0.0241     14.6941   1445.5282 -33.47     10259.16     1.864     1.823     227.2919  18.0222          4
 6.96   0.1681     24.8550    367.3481  76.17     1468.398     1.077     0.413     227.2641  20.1329          5
 3.50   0.0051     59.7846   1078.2339  63.30     47978.58     2.318     2.255     227.3753  16.3474          6
 3.50   0.0053     80.1137    537.5026  22.50     46474.95     2.274     2.216     227.2549  16.3820          7
 5.72   0.2617     74.9609    127.8366  40.18     943.2131     1.269     1.228     227.3105  20.6135          8
 3.50   0.0036    121.7266    788.9883 -20.09     68681.83     2.362     2.343     227.3012  15.9579          9
 5.20   0.1474     96.3947     55.8314 -19.64      1675.54     1.351     1.259     227.3475  19.9896         10
 3.50   0.0064    162.3537   1468.0764 -48.36     38657.84     2.240     2.184     227.2456  16.5819         11
 3.52   0.0272    170.2823    877.1949 -21.19      9069.78     1.990     1.866     227.2549  18.1560         12
 6.63   0.1744    192.3161   1350.3054 -43.42     1414.999     0.961     0.761     227.2734  20.1731         13
 6.93   0.0525    210.5079    826.8788  -8.99     4700.904     2.129     1.474     227.2734  18.8695         14
 5.80   0.1077    206.2401    548.8522 -12.15     2293.256     1.228     1.170     227.3197  19.6489         15
 5.43   0.1606    212.1731   1305.9990  33.24     1536.866     1.289     1.084     227.2919  20.0834         16
 4.31   0.1266    223.6748   1225.5410  21.48     1949.192     1.362     1.284     227.3012  19.8254         17
 3.50   0.0020    259.5799    997.2325 -12.05     125161.2     2.518     2.449     227.3568  15.3063         18
 7.55   0.3227    222.3089    774.6771  44.26     764.8112     0.562     0.341     227.2827  20.8411         19
 7.86   0.0563    229.2374    561.4114  -5.38     4382.353     1.961     1.282     227.3753  18.9457         20
 3.50   0.0028    265.5658     67.4446   6.06     87807.89     2.440     2.402      227.329  15.6912         21
 7.61   0.1344    243.6204    112.7715  16.62      1838.01     0.964     0.645     227.3938  19.8891         22
 5.03   0.0577    255.0403    612.7062 -17.94     4279.551     2.020     1.618     227.2271  18.9715         23
 3.64   0.0118    287.4840   1486.1232 -68.22     20942.44     2.057     2.044     227.2734  17.2474         24
 4.47   0.0532    281.9365   1522.0270  12.36     4644.203     1.606     1.534     227.3105  18.8827         25
 3.71   0.0158    302.8096    201.5882 -10.72     15624.66     2.034     1.978      227.366  17.5655         26
 3.50   0.0237    321.7043    697.1205  -1.30     10407.95     1.978     1.790     227.2919  18.0066         27
 6.62   0.1096    327.1210    595.3193  77.23      2253.12     1.189     1.017     227.3012  19.6680         28
 7.82   0.1816    349.7188     54.6317 -19.52     1359.029     0.987     0.596     227.2364  20.2169         29
 3.87   0.0223    367.8108    760.9422 -23.13     11082.09     1.947     1.892      227.366  17.9384         30
 4.92   0.1202    360.8477   1500.0731  49.68     2052.499     1.286     1.166     227.2641  19.7693         31
 3.50   0.0048    394.8365    231.2965  41.77     51186.56     2.342     2.276       227.19  16.2771         32
 3.79   0.0339    396.8710   1460.8988  19.06     7269.955     1.856     1.733     227.2549  18.3962         33
 3.53   0.0304    397.8305    354.3654  44.79     8133.275     1.880     1.748     227.3753  18.2743         34
 5.31   0.1506    393.6917   1088.5494  89.56      1639.19     1.201     1.013     227.2919  20.0134         35
 3.55   0.0146    437.5111    251.9211  10.63     16871.12     2.046     2.000     227.3012  17.4821         36
 7.41   0.2333    420.7387    160.2448 -19.03     1058.123     0.875     0.354     227.2734  20.4887         37
 3.50   0.0017    460.6596    807.4059  -9.18     143956.7     2.536     2.442      227.329  15.1544         38
 5.14   0.1779    432.4911   1422.0449  46.46     1387.435     1.374     1.035     227.2827  20.1945         39
 4.26   0.0430    449.7294     21.2904 -30.48     5739.635     1.732     1.698     227.3012  18.6528         40
 7.70   0.3097    440.0000    306.0034   0.00     797.4934     0.851     0.289     227.3938  20.7957         41
 6.46   0.1989    444.0940    122.7514 -35.96     1240.818     1.097     0.521     227.2827  20.3157         42
 4.29   0.0371    457.3223     34.5136  41.73     6645.568     1.728     1.708     227.2919  18.4937         43
 6.42   0.0397    467.3464    850.1620  24.15     6224.951     4.168     1.533     227.3012  18.5647         44
 5.89   0.1322    463.3722    468.1685  79.67     1868.413     1.359     1.209     227.4215  19.8713         45
 4.92   0.0984    471.6060    735.0527 -58.35     2507.935     1.407     1.301      227.329  19.5517         46
 5.10   0.1351    470.9091    254.1991  49.03     1826.668     1.311     1.018     227.2271  19.8958         47
 5.03   0.0859    477.5140    922.9158  -6.96     2873.418     1.587     1.405     227.2734  19.4040         48
 6.20   0.2455    477.5089   1276.5143 -73.41     1005.167     1.022     0.733     227.2549  20.5444         49
 6.26   0.2535    483.7009   1070.2642  14.35     973.7449     1.125     0.991     227.2641  20.5789         50
 7.66   0.0900    495.1989     82.1738  72.36     2744.359     1.283     0.950     227.3105  19.4539         51
 8.53   0.1194    494.4341   1189.1519  78.86     2066.917     0.889     0.613     227.3105  19.7617         52
 6.31   0.4288    501.2008    863.6279 -73.08     575.6108     0.728     0.454     227.2919  21.1497         53
 5.17   0.0199    530.9677    518.7624  20.70     12421.46     3.402     1.962     227.3568  17.8146         54
 6.81   0.0812    514.9670   1460.7094  27.91     3038.091     2.253     1.208     227.2178  19.3435         55
 9.16   0.3017    513.5115   1178.5464 -51.68     818.0446     0.503     0.494     227.2641  20.7681         56
 4.60   0.1441    539.8800    999.7950  62.93     1713.119     1.209     1.168     227.2641  19.9655         57
 5.32   0.1111    558.6191   1041.6227 -49.67     2222.068     1.472     1.300      227.366  19.6831         58
 3.93   0.0247    580.0731    144.9285  70.03     9982.659     1.889     1.824     227.2364  18.0519         59
 4.08   0.0243    581.5791    319.2335  61.17        10182     1.924     1.874      227.366  18.0304         60
 6.84   0.1289    570.7509     45.9504  48.62      1914.47     1.416     1.002     227.2827  19.8449         61
 9.08   0.1614    570.5883   1447.2086 -20.05     1530.295     0.773     0.441     227.3753  20.0881         62
 6.18   0.0405    596.4893    782.4855  81.08     6101.305     2.181     1.972     227.2827  18.5864         63
 6.54   0.2147   1001.1887   1555.3247  19.94     1149.437     1.009     0.856     227.2641  20.3988         64
 3.50   0.0042   1557.4813    487.5983  82.38     59394.44     2.327     2.312     227.2734  16.1156         65
 6.03   0.2183   1560.4124    861.2794 -68.61     1130.721     0.956     0.600     227.2456  20.4166         66
 4.66   0.0990   1542.0265    654.5806 -83.09     2495.364     1.466     1.245     227.3753  19.5572         67
 3.51   0.0073   1079.4902    512.2261  52.36      33671.1     2.272     2.250     227.2178  16.7319         68
 4.37   0.0281   1038.2451    525.3906  64.14     8800.727     1.940     1.862     227.3475  18.1887         69
 7.64   0.4071    999.8316   1273.8098  44.65     606.5077     0.774     0.572     227.3475  21.0929         70
 3.58   0.0082    984.3803    558.4131  38.19     30012.42     2.240     2.206      227.366  16.8567         71
 8.40   0.1139    986.5677    453.8015  -8.78      2166.88     1.032     0.475      227.329  19.7104         72
 5.08   0.1467    938.8494   1066.8739 -33.36     1682.614     1.335     1.210     227.2641  19.9850         73
 8.08   0.2520    928.0016   1322.3192 -89.59     979.5716     0.751     0.672     227.2734  20.5724         74
 7.49   0.3683    912.4890    838.6716 -89.47      670.196     0.940     0.470     227.2827  20.9845         75
 3.90   0.0375    899.8823    302.7985  34.33     6584.797     1.806     1.751     227.2734  18.5036         76
 5.99   0.1434    896.3807    538.8925 -45.35     1720.516     1.258     0.848     227.2086  19.9609         77
 3.50   0.0020    880.0104   1592.4095  61.59     115404.2     2.500     2.434     213.4323  15.3944         78
 5.78   0.0967    869.0081   1103.1799 -33.97     2552.426     1.486     1.474     227.3475  19.5326         79
 7.24   0.2678    843.1048   1106.8746 -75.23       921.55     0.977     0.710     227.2734  20.6387         80
 6.00   0.1852    836.2337    298.4426 -87.00     1333.251     1.213     1.019     227.3197  20.2377         81
 3.70   0.0362    822.4516    654.3922  62.20     6812.953     1.904     1.700      227.329  18.4667         82
 4.37   0.0431    802.7779   1378.5225 -60.86     5729.382     1.724     1.702     227.2641  18.6547         83
 3.77   0.0139    798.0681    695.6058  88.39     17718.31     2.554     2.009      227.366  17.4289         84
 4.77   0.0884    799.9539     41.0704  76.56     2792.962     1.478     1.355     227.2734  19.4348         85
 6.60   0.0946    774.1367   1427.0630 -85.17     2607.822     1.892     1.254     227.2734  19.5093         86
 5.37   0.1365    742.3917    556.7034  78.13     1807.296     1.276     1.149     227.2086  19.9074         87
 3.50   0.0036    726.2004    848.3846   5.29      68753.1     2.387     2.346     227.3475  15.9568         88
 5.94   0.2958    726.7937   1178.3159  -8.79     834.3594     0.905     0.765     227.2364  20.7466         89
 5.27   0.1621    715.3685    808.1309 -14.16     1523.218     1.204     0.956     227.3012  20.0931         90
 5.02   0.1984    708.2617   1163.7618  76.33     1244.486     1.319     1.038     227.3012  20.3125         91
 7.18   0.1213    703.4435   1338.5858  50.36      2036.12     1.192     0.802      227.403  19.7780         92
 4.18   0.1178    702.1779    952.2958 -57.04     2094.419     1.515     1.367     227.1993  19.7473         93
 5.61   0.1169    685.3095    644.2097 -60.68     2111.521     1.359     1.289     227.1993  19.7385         94
 3.50   0.0036    648.0182   1464.2284  13.98     68199.02     2.373     2.348      227.366  15.9656         95
 5.20   0.2323    623.0888   1581.3657 -33.28     1062.017     1.049     0.838     227.2086  20.4847         96
 4.19   0.2303   1584.5095   1108.9585   4.45     1071.806     1.144     0.965     227.2641  20.4747         97
 5.94   0.1603   1569.9242     92.4716  -7.79     1539.667     1.285     1.194     227.2641  20.0814         98
 5.35   0.1065   1566.0743     21.9107  87.52     2318.458     1.514     1.200     227.2827  19.6370         99
 3.50   0.0041   1563.1904    304.0690  22.06     59803.63     2.296     2.239     227.3197  16.1082        100
 7.73   0.1476   1565.9939    784.4824 -27.52     1671.968     1.053     0.674     227.2549  19.9919        101
 4.19   0.0109   1552.2479    682.1069 -16.41        22745     3.495     3.226     227.2827  17.1578        102
 4.81   0.0736   1541.2142    134.9950  35.19     3356.411     1.596     1.481      227.366  19.2353        103
 3.62   0.0077   1506.6533    269.2621  13.58     32233.11     2.212     2.142     227.2734  16.7792        104
 3.53   0.0082   1094.5632    778.2180  54.25     30122.12     2.279     2.098     227.3845  16.8528        105
 4.26   0.0320   1514.2589    392.6498 -68.73     7701.432     1.858     1.829     227.2734  18.3336        106
 8.07   0.3526   1504.0000    723.0259   0.00     700.0822     0.838     0.289     227.3012  20.9371        107
 8.96   0.1186   1109.7919    478.5934  71.14     2081.411     0.771     0.447     227.3938  19.7541        108
 4.06   0.0347   1107.0256    428.0916  60.21      7104.75     1.938     1.741     227.2086  18.4211        109
 6.72   0.0979   1119.7235    329.5730  63.94     2520.192     1.763     1.198     227.2549  19.5464        110
 3.50   0.0077   1138.0656    148.1535  52.72     31868.56     2.318     2.274     227.2549  16.7916        111
 7.48   0.3226   1129.3524    219.6698  45.87     765.1628     0.584     0.329     227.2641  20.8406        112
 6.72   0.3154   1292.9857    412.3103 -84.44     782.2552     0.748     0.674     227.1993  20.8166        113
 9.22   0.1804   1259.5833    431.8011  19.69     1368.828     0.761     0.447     227.3475  20.2091        114
 4.45   0.0349   1291.0527    761.9366 -40.45     7079.877     1.946     1.766     227.2827  18.4249        115
 3.50   0.0030   1392.8568    114.4532  75.58     81170.52     2.420     2.376     227.2641  15.7765        116
 7.17   0.1062   1293.1210    742.0746 -54.42     2324.364     1.182     1.156     227.2919  19.6342        117
 8.85   0.2871   1304.5039    892.5346  49.55     859.8585     0.503     0.496     227.2827  20.7139        118
 3.70   0.0019   1435.5669   1088.6056  44.99     126984.1     2.557     1.518     227.3475  15.2906        119
 4.51   0.0748   1434.7941    224.7793  59.57     3301.895     1.608     1.526      227.329  19.2531        120
 5.41   0.1264   1414.9445   1386.1927  58.70     1953.943     1.328     1.112     227.3382  19.8227        121
 4.13   0.0954   1439.2008    619.2315   9.90     2587.159     1.402     1.321     227.3197  19.5179        122
 4.15   0.0326   1388.3762   1428.3523  82.14     7576.001     1.903     1.793     227.3568  18.3514        123
 5.28   0.1046   1407.5312    308.2362 -44.17     2359.104     1.442     1.281     227.3012  19.6181        124
 3.50   0.0013   1298.0531    724.8838   7.23     190755.5     2.625     2.580     227.2641  14.8488        125
 4.91   0.0921   1389.8398    713.2196  22.48     2680.363     1.506     1.262     227.3753  19.4795        126
 3.86   0.0274   1372.0839   1018.8957  -8.96     8997.654     1.851     1.821     227.2919  18.1647        127
 3.91   0.1339   1391.7970   1038.7438  67.46     1843.931     1.303     1.097     227.3105  19.8856        128
 3.63   0.0079   1319.6772    659.9771 -46.23     31006.62     2.257     2.198     226.1965  16.8214        129
 6.77   0.3258   1332.1638    107.1231 -44.80     757.5598     0.822     0.689     227.2456  20.8515        130
 5.05   0.0421   1329.1886    655.9780 -73.88     5860.243     1.761     1.534     227.3475  18.6302        131
 8.95   0.6924   1318.5270    264.4885  41.73     356.4448     0.502     0.497     227.2734  21.6700        132
 5.50   0.0713   1307.2329    669.3615 -29.04     3461.502     1.668     1.455     227.3382  19.2018        133
 4.87   0.0185   1272.3130    610.1173 -46.83     13364.12     3.419     2.346     227.2919  17.7351        134
 4.20   0.0707   1264.9711    807.7076  45.98     3488.153     1.607     1.519     227.1993  19.1935        135
 4.35   0.0587   1277.7156   1331.1930  25.49     4207.649     1.709     1.595     227.2364  18.9899        136
 4.18   0.0882   1233.8519    304.6235  36.17     2800.033     1.448     1.297     227.3568  19.4321        137
 4.71   0.0189   1209.7463   1278.6859 -86.23      13055.5     4.313     2.794     227.2641  17.7605        138
 6.13   0.1464   1150.6638     99.5787  44.92     1685.441     1.035     0.884     227.2734  19.9832        139
 6.27   0.1522   1236.7913   1553.1951  35.94      1622.17     1.212     1.062     227.3938  20.0248        140
 8.72   0.3329   1153.6675   1353.6735 -45.27     741.3657     0.574     0.335     227.2734  20.8749        141
 4.46   0.0252   1218.5378   1194.7698 -23.65     9795.031     1.993     1.949     227.2919  18.0725        142
 3.64   0.0165   1214.2231    513.0854 -17.02     14968.84     2.069     1.988     227.2271  17.6120        143
 3.50   0.0048   1164.8165   1299.7355  51.77     50934.29     2.375     2.299     227.2919  16.2825        144
 6.20   0.1416   1206.9932    838.8483   0.27      1743.65     1.199     1.079     227.3197  19.9464        145
 5.33   0.1826   1201.3074    339.3056  -1.89     1351.922     1.243     1.068     227.2549  20.2226        146
 6.68   0.1376   1194.0555    124.2096   1.26     1794.888     1.227     0.985     227.3475  19.9149        147
 4.22   0.0413   1157.3247    236.5549  69.75     5972.855     1.809     1.722     227.2549  18.6095        148
 3.52   0.0146   1129.5792    183.6425  83.16     16885.66     2.106     2.071     227.3568  17.4812        149
 4.17   0.0262   1081.3923   1148.1611  68.20      9421.28     2.006     1.897      227.366  18.1147        150
 7.63   0.2984   1095.0028   1526.9939 -45.17     827.4526     0.912     0.531     227.3845  20.7556        151
 3.50   0.0057   1039.8917    633.0511  39.11     43377.41     2.366     2.272     227.2827  16.4568        152
 6.59   0.1267   1071.6583   1219.0597  79.90     1948.462     1.587     1.183     227.2456  19.8258        153
 7.94   0.1293   1029.6453    302.3516  63.82     1909.464     1.104     0.816     227.3197  19.8477        154
 3.79   0.0146   1009.4023    813.7109 -80.02     16953.42     2.082     2.027     227.2364  17.4769        155
 3.80   0.0127   1025.4409   1379.8496  72.80     19450.39     2.175     2.084     227.3197  17.3277        156
 5.17   0.0941   1010.7122    344.7850 -21.70     2621.177     1.428     1.290     227.1993  19.5038        157
 5.68   0.0818   1000.9541    542.7292 -56.82      3016.03     1.448     1.364     227.2734  19.3514        158
