#   1 KRON_RADIUS            Kron apertures in units of A or B                         
#   2 Y_IMAGE                Object position along y                                    [pixel]
#   3 MAG_BEST               Best of MAG_AUTO and MAG_ISOCOR                            [mag]
#   4 FLUX_BEST              Best of FLUX_AUTO and FLUX_ISOCOR                          [count]
#   5 X_IMAGE                Object position along x                                    [pixel]
#   6 THETA_IMAGE            Position angle (CCW/x)                                     [deg]
#   7 A_IMAGE                Profile RMS along major axis                               [pixel]
#   8 B_IMAGE                Profile RMS along minor axis                               [pixel]
#   9 MAGERR_BEST            RMS error for MAG_BEST                                     [mag]
#  10 NUMBER                 Running object number                                     
#  11 FLUXERR_BEST           RMS error for BEST flux                                    [count]
 3.87     54.0659  16.5046      41511.6     63.4899  10.31     5.081     4.648   0.0051          1     193.5732
 3.50     17.6085  18.7341     5325.309    984.8859 -88.11     4.180     1.842   0.0205          2     100.5567
 3.50     18.7843  19.2676     3258.128     91.0677 -71.47     1.673     1.595   0.0197          3     59.01929
 3.50     15.4372  18.1420     9187.448   1445.5699 -58.56     1.765     1.663   0.0074          4     62.36261
 8.71      7.7679  22.2990     199.7051   1469.4524 -68.75     0.745     0.449   0.2793          5     51.35972
 5.07      4.5796  21.8830     292.9651    145.2529  45.23     1.230     0.964   0.2034          6     54.86184
 7.04     10.4945  23.1398     92.06152   1183.4982  44.89     0.503     0.497   0.4000          7     33.90899
 3.50     60.5844  16.4476      43747.1   1078.2451  78.79     2.095     1.992   0.0018          8     73.32869
 7.80     14.3363  22.7837     127.7937    839.6812  45.80     0.572     0.336   0.3046          9     35.84818
 3.74     25.5083  20.8574     753.4318    367.0248 -44.59     1.386     1.224   0.0711         10     49.34483
 4.02     17.9750  21.9908     265.2703    384.0877  -6.22     1.065     0.750   0.1524         11     37.23637
 7.96     24.5876  21.4504     436.3442    383.1619  87.84     1.000     0.715   0.1719         12     69.05338
 7.77     35.5276  21.5382     402.4613   1110.5074  83.69     1.018     0.640   0.1747         13     64.75692
 6.92     34.3290  21.4673      429.625    326.4467 -55.25     1.064     0.824   0.1695         14     67.06581
 5.72     38.8936  21.8215     310.0234   1521.2977  57.82     1.154     0.680   0.1822         15     52.01401
 3.50     40.2370  24.2447     33.27563   1226.1660 -45.15     0.973     0.347   0.6575         16     20.14494
 5.89     39.8462  22.2139     215.9987   1170.4801  -0.96     0.941     0.732   0.2549         17     50.69699
 5.61     45.8528  22.0087     260.9156    440.1219 -39.18     1.403     1.002   0.2843         18     68.31482
 3.50     43.2798  22.8573     119.4159    915.3459 -44.82     1.174     0.700   0.2897         19     31.85195
 3.50     80.9599  16.4788     42508.83    537.4124 -67.89     2.020     1.918   0.0018         20     71.22312
 6.55     51.1657  22.3288     194.3075    265.9853  36.65     0.939     0.465   0.2539         21     45.41928
 6.43     51.0299  22.9232      112.389   1435.2108 -33.32     0.788     0.497   0.3893         22     40.28988
 0.00     49.3377  99.0000    -25.75085   1233.6754  45.58     0.575     0.334  99.0000         23     30.21741
 3.50     75.9613  20.3297      1224.96    127.6706  65.45     1.364     1.260   0.0412         24     46.52275
 5.74     82.8388  21.3431     481.6984    421.4473 -51.35     1.212     0.808   0.1324         25     58.73209
 4.96     91.5984  20.4604     1086.052    376.7576 -72.96     1.865     1.539   0.0864         26     86.45129
 3.50    122.5939  16.0507     63052.57    788.9185 -58.39     2.100     1.956   0.0013         27     72.86604
 3.56     97.3459  19.8138     1970.008     56.0111  -6.65     1.519     1.385   0.0296         28     53.61481
 6.17     92.9185  21.8891      291.307    495.8493  75.14     1.341     0.684   0.2253         29     60.43482
 6.08     98.7694  21.1805     559.5195    452.5779 -24.86     1.703     0.981   0.1576         30     81.20685
 8.03    114.3488  22.8516     120.0485    270.3333 -45.61     0.584     0.329   0.3409         31     37.68773
 7.06    117.8673  22.6733     141.4728     66.8318  46.85     0.748     0.562   0.3627         32     47.24407
 6.06    118.7044  24.1032      37.9054    990.6282 -41.71     0.576     0.332   0.7990         33     27.88941
 8.26    118.5058  22.9989     104.8192    154.4909  45.33     0.502     0.498   0.4345         34     41.93504
 3.50    163.1394  16.6823      35243.8   1468.1359 -60.49     1.999     1.918   0.0022         35     70.02601
 5.15    132.4923  22.5344     160.7827    418.0414   0.53     0.805     0.500   0.2389         36     35.37335
 3.50    171.1355  18.3477     7602.099    877.1223 -68.19     1.765     1.708   0.0089         37     62.36261
 6.86    152.5081  23.1534     90.91785   1279.9960  -1.46     0.803     0.500   0.5198         38     43.51804
 3.58    165.8672  21.3871     462.5464   1445.5352  -0.27     1.320     1.134   0.1058         39     45.04546
 4.17    167.5935  21.4246     446.8425    104.3066 -28.86     1.173     1.010   0.1113         40     45.79006
 5.08    170.4301  22.3792     185.4955   1368.2188 -47.27     1.080     0.717   0.2702         41     46.15786
 5.71    169.4399  23.9170     44.99719    651.5150 -35.83     0.503     0.493   0.7157         42     29.65255
 4.38    181.2359  22.4595     172.2729    574.8821  23.27     1.275     0.773   0.2840         43     45.04546
 4.34    193.3881  20.8467     760.8519   1350.3932 -35.34     1.357     1.131   0.0792         44     55.47484
 8.45    186.9875  21.1704     564.7144   1354.0367 -74.12     0.796     0.783   0.1314         45     68.31482
 3.65    211.5628  18.9675      4295.55    827.4517  -6.95     3.903     1.922   0.0261         46     103.0481
 3.50    207.5028  20.1019     1510.909    548.9205 -81.19     1.547     1.367   0.0369         47     51.35972
 3.50    211.4505  21.6390      366.777    684.4575 -82.33     1.680     1.042   0.1451         48     49.00095
 3.50    212.9739  20.2542     1313.162   1305.9010  53.86     1.403     1.346   0.0399         49     48.30587
 4.26    231.0617  18.9350     4425.835    562.2328  -9.15     3.351     2.841   0.0332         50     135.1364
 3.50    204.4279  24.4287     28.08826   1498.4841 -36.26     0.505     0.489   0.7789         51     20.14494
 8.15    205.6816  23.5980     60.36682    937.0054 -28.40     0.896     0.214   0.6780         52     37.68773
 3.61    224.5214  20.0223     1625.863   1225.8654 -53.91     1.549     1.417   0.0369         53     55.16919
 3.50    260.5747  15.5858     96753.55    997.2193 -61.30     2.158     2.026   0.0008         54     74.47273
 3.50    266.7132  15.7835     80652.63     67.3777 -78.85     2.116     1.998   0.0010         55     73.55892
 3.50    223.2263  21.2862     507.6001    774.7523 -19.32     1.202     1.068   0.0880         56     41.12069
 7.24    219.2476  22.5799     154.1835    740.7269 -18.84     0.845     0.353   0.2867         57     40.70741
 4.29    244.2685  20.1346     1466.035    112.8207  77.16     2.123     1.544   0.0589         58     79.52362
 4.43    256.2211  19.1415     3659.226    612.7919 -37.89     2.500     1.801   0.0287         59     96.78661
 5.85    239.8068  21.2513     524.1688    838.5142 -15.30     1.259     0.961   0.1363         60      65.7931
 4.86    240.0475  23.7487      52.5459   1478.8186 -53.94     0.940     0.464   0.6799         61     32.89655
 6.94    251.4614  21.1348     583.5558    107.4959 -45.23     1.084     0.836   0.1271         62     68.31482
 6.35    252.5684  19.5828     2437.225   1372.6412 -34.52     1.181     0.845   0.0320         63     71.71343
 3.50    288.3401  17.3833      18479.4   1486.2775 -54.62     1.867     1.775   0.0039         64      65.7931
 4.01    254.0000  23.2829     80.69226   1352.5071   0.00     1.051     0.289   0.3131         65     23.26137
 3.50    282.7326  19.1284     3703.887   1522.1934 -43.51     1.560     1.487   0.0163         66     55.47484
 6.90    271.2608  21.7390     334.4915   1273.5475 -11.09     1.161     0.926   0.2388         67     73.55892
 3.50    303.9948  17.7455     13237.45    201.5974 -73.98     1.829     1.713   0.0053         68     64.49528
 6.05    294.2973  21.0192     649.1007   1475.4902 -66.12     1.169     0.976   0.1118         69     66.81321
 3.50    302.8704  21.2099     544.5355    563.5295  64.72     1.317     1.259   0.0906         70     45.41928
 3.50    322.8517  18.2091     8636.747    697.1325 -67.45     1.711     1.657   0.0076         71     60.15438
 6.40    309.7060  21.1060     599.2522     85.4069 -81.45     1.983     0.885   0.1595         72     88.00211
 4.29    322.2261  20.8924      729.525    641.0490 -74.76     2.205     1.229   0.1085         73     72.86604
 4.27    328.1181  20.0114     1642.316    595.2687 -49.81     1.622     1.556   0.0457         74     69.05338
 5.36    317.8036  23.0781     97.44946    226.3809 -71.76     0.752     0.447   0.3490         75     31.31658
 5.35    332.8581  21.5544     396.5076     93.4377  -7.83     1.068     0.836   0.1451         76      52.9803
 4.19    330.3325  22.4805     168.9613   1545.6162  -6.15     0.994     0.631   0.2147         77      33.4066
 3.50    350.8575  20.9481     693.0538     54.4747 -39.25     1.290     1.224   0.0700         78      44.6685
 5.14    348.6108  22.6398     145.9069     42.2829 -59.05     0.983     0.545   0.2936         79     39.44158
 3.50    368.9763  18.1719     8937.721    760.8814 -55.04     1.738     1.635   0.0073         80     59.87262
 3.50    362.0320  20.1951     1386.581   1500.1699  10.20     1.429     1.398   0.0394         81     50.36235
 3.50    396.0084  16.3886     46193.24    231.2756 -59.51     2.003     1.932   0.0016         82     70.02601
 3.50    361.5096  22.0268     256.6178   1033.6727 -46.62     1.047     0.903   0.1456         83     34.40403
 3.55    374.0851  21.9530     274.6603   1083.9071 -43.95     1.458     0.919   0.1674         84     42.33634
 6.13    369.9420  22.4721     170.2733    210.5096  87.58     0.786     0.499   0.2516         85     39.44158
 6.59    371.1455  21.3645     472.2621     71.4292 -16.36     1.204     0.716   0.1459         86     63.43791
 6.30    376.9420  20.7433     836.9331    753.8722  42.08     1.653     0.852   0.1001         87     77.14925
 3.50    397.8753  18.6221     5904.443   1461.0035 -57.52     1.678     1.607   0.0108         88     58.73209
 5.17    376.6144  22.7241     135.0125     86.3840  23.01     1.364     0.457   0.3373         89     41.93504
 3.50    398.9595  18.4102      7176.74    354.4040 -56.85     1.757     1.640   0.0094         90     61.81795
 5.97    380.9103  22.2223     214.3243    125.6369 -22.70     0.902     0.682   0.2465         91     48.65465
 3.50    394.4868  20.1725     1415.734   1088.6790 -16.48     1.485     1.357   0.0394         92     51.35972
 6.62    389.7516  23.3665     74.71216   1195.2408 -86.38     0.902     0.749   0.8196         93     56.38185
 6.59    390.2306  23.3062     78.97778    260.4030  71.18     0.744     0.452   0.5304         94     38.57462
 5.92    397.9349  21.1836     557.8801    626.5078  15.77     1.528     0.795   0.1315         95     67.56818
 7.14    415.6719  20.2216     1353.161      2.5615  28.95     1.141     0.754   0.0445         96     55.47484
 5.89    407.6978  22.5846     153.5226    281.6329 -82.40     1.007     0.467   0.3023         97     42.73387
 7.73    404.5130  21.9535     274.5437    526.8869  -2.02     0.784     0.499   0.1979         98     50.02547
 3.50    461.8477  15.2299     134287.9    807.3699 -55.93     2.140     2.040   0.0006         99     75.59946
 7.26    413.7131  22.3692     187.2142   1562.2982 -60.78     1.155     0.451   0.3128        100     53.92928
 3.50    438.7642  17.6571     14360.83    251.9271 -54.88     1.813     1.728   0.0048        101     63.96878
 4.91    421.8596  20.5865     966.9092    158.7295  50.88     1.660     1.444   0.0879        102     78.23744
 5.46    412.6987  25.4840     10.62671    199.3263  43.64     0.560     0.342   2.5905        103     25.34849
 6.30    419.4074  22.6817     140.3813   1203.2559   2.22     1.263     0.791   0.5030        104     65.01752
 9.11    415.3150  22.4604     172.1277    558.6299  42.87     0.584     0.328   0.2542        105     40.28988
 3.50    433.6354  20.5526     997.5647   1421.9039 -17.73     1.429     1.338   0.0545        106     50.02547
 6.72    427.7105  21.4987     417.3778   1179.3110  20.69     1.301     0.989   0.2036        107     78.23744
 5.64    420.6244  23.9411     44.01282   1579.7715  17.88     0.757     0.446   0.8367        108     33.90899
 6.59    424.9908  23.2384     84.07031   1063.9623 -82.15     0.609     0.607   0.5205        109     40.28988
 6.86    431.8513  21.4253     446.5474    717.7710 -64.53     0.930     0.895   0.1581        110     65.01752
 5.00    434.9497  21.3273     488.7566    151.0015  25.47     1.154     0.980   0.1205        111     54.24191
 8.11    427.1310  21.5808      386.984    432.4409  -1.10     2.518     0.334   0.0808        112      28.7769
 7.74    427.6147  22.8358      121.814    299.6916 -47.83     0.587     0.325   0.3111        113     34.89206
 4.33    468.5287  18.3598     7517.286    850.1567  22.24     7.405     1.888   0.0241        114     166.5261
 3.51    451.1122  18.9132     4515.474     21.1382 -39.37     1.703     1.572   0.0143        115      59.3051
 5.35    446.1109  20.6555     907.4435    122.1262 -32.70     1.653     1.204   0.0939        116     78.45327
 3.50    440.8153  21.5034     415.5492    305.5591 -50.73     1.189     1.082   0.1075        117     41.12069
 7.22    434.6680  23.3578      75.3114    353.3014  46.60     0.562     0.341   0.4593        118     31.85195
 3.50    458.6750  18.7847     5083.169     34.3958 -60.50     1.679     1.537   0.0124        119     58.15343
 5.39    444.1707  22.7280     134.5294    654.5854 -70.40     0.757     0.448   0.2656        120     32.89655
 7.52    444.6976  22.7122     136.4989    173.3044  44.88     0.551     0.345   0.2776        121     34.89206
 3.51    464.5992  20.0755     1548.133    468.4731 -73.90     1.596     1.441   0.0385        122     54.86184
 4.25    453.8175  22.5427     159.5641   1533.1399  37.40     0.789     0.678   0.2168        123     31.85195
 4.77    461.9124  21.2729     513.8322   1096.1415  54.26     1.154     1.060   0.1160        124     54.86184
 3.50    472.0581  20.3097     1247.735    254.1115 -72.83     1.524     1.321   0.0444        125     51.02943
 5.24    462.3787  21.6772     354.0865    724.6503 -28.34     1.116     0.728   0.1460        126     47.60064
 7.33    457.6994  23.4099     71.78564   1223.6606 -43.04     0.565     0.339   0.4819        127     31.85195
 3.50    472.9619  19.9189     1788.341    734.7726 -38.59     1.496     1.347   0.0310        128     51.02943
 3.50    478.7603  19.6055     2386.678    922.8173 -35.32     1.542     1.446   0.0245        129     53.92928
 3.92    478.7928  20.6485     913.2816   1276.8333 -53.34     1.380     1.256   0.0630        130      52.9803
 4.35    476.5132  23.0864     96.70093   1168.0372 -89.76     0.813     0.676   0.3694        131     32.89655
 3.50    484.9571  20.7092     863.5992   1070.4276 -66.11     1.365     1.226   0.0585        132     46.52275
 4.94    496.9649  19.6072     2382.938     82.5904  56.28     2.338     2.068   0.0511        133     112.1623
 5.47    489.7042  20.9333     702.5497    839.5638  81.89     1.979     0.873   0.1155        134     74.69944
 4.63    481.6934  22.7076     137.0728   1309.1306  71.28     0.894     0.694   0.3056        135     38.57462
 3.61    479.8593  23.0960       95.854    682.6146  17.68     1.030     0.720   0.3548        136     31.31658
 3.88    496.4434  19.7896     2014.524   1186.7407 -14.15     2.923     1.792   0.0491        137     91.02452
 4.18    531.9177  17.7306     13420.56    519.0345  19.57     4.599     2.664   0.0100        138     123.3004
 5.97    481.6788  22.8192     123.6852   1520.4889  -0.10     0.921     0.467   0.3538        139     40.28988
 3.55    505.2574  20.6678     897.1763    763.0582  35.35     1.785     1.613   0.0758        140     62.63316
 3.50    516.2610  19.3729     2957.047   1461.0070  24.27     4.360     1.650   0.0355        141     96.78661
 3.50    502.7141  21.4211     448.2787    863.5473  86.71     1.246     1.113   0.1045        142     43.12774
 3.50    498.6335  22.3558     189.5387    366.2104 -49.90     1.014     0.951   0.2027        143     35.37335
 3.50    514.5807  21.4032     455.7524   1179.1083 -56.81     1.339     1.067   0.0999        144     41.93504
 5.57    510.5956  20.8369     767.8163    164.3583  -2.33     2.204     1.004   0.1206        145     85.26967
 4.31    520.2776  21.7678     325.7458    641.3948 -72.01     1.257     0.919   0.1599        146     47.95455
 8.43    511.4783  22.2316      212.507    453.4845  44.06     0.503     0.496   0.2143        147     41.93504
 3.50    519.1761  23.1359     92.39563   1518.8835  43.19     0.828     0.669   0.3132        148     26.64925
 4.34    541.0017  20.1277     1475.375    999.7307 -58.22     1.570     1.410   0.0490        149     66.55965
 4.08    536.7367  21.9612     272.5847    404.4981  50.90     1.364     0.752   0.1687        150     42.33634
 6.50    545.6520  22.4587     172.3976    933.8276  70.97     1.235     0.753   0.4112        151     65.27707
 3.67    559.8237  19.8154     1967.238   1041.5420 -18.80     1.576     1.487   0.0326        152     59.01929
 4.48    597.4241  18.6378     5819.399    782.7071 -83.49     3.546     3.355   0.0298        153     159.4719
 4.22    571.6400  20.0963     1518.661     45.6350  59.09     1.992     1.404   0.0523        154     73.09773
 4.23    556.2178  22.7610     130.5001    778.7784  45.56     0.804     0.683   0.2651        155     31.85195
 3.50    581.4234  18.2255     8507.214    144.8262 -85.18     1.779     1.649   0.0078        156     60.99184
 3.50    572.2887  20.2390     1331.714   1448.0997  21.34     2.785     1.717   0.0645        157     79.09722
 3.95    565.5809  21.6825      352.386    139.6900 -53.99     1.148     1.009   0.1329        158     43.12774
 3.50    582.9966  18.2263     8501.412    318.9901 -38.33     1.741     1.676   0.0078        159     60.99184
 6.39    563.6564  23.0814     97.14746    905.5596   5.49     1.049     0.627   0.6029        160     53.92928
 6.81    576.9733  21.9936     264.5885   1001.5247 -66.98     1.399     1.121   0.3636        161     88.57667
 3.50    585.4980  21.3336     485.9347     75.9934  34.12     1.282     1.160   0.0990        162     44.28833
 7.52    579.6700  23.0736     97.84924    740.6813 -45.55     0.569     0.338   0.3763        163     33.90899
 5.26   1004.8461  23.0478     100.1992   1237.8387  49.76     0.764     0.567   0.3885        164     35.84818
 4.64   1597.9813  21.1695     565.2075    655.1420 -30.36     1.787     1.341   0.1198        165     62.36261
 5.62   1595.9124  21.8013     315.8369    374.0342  41.13     1.272     1.258   0.2357        166     68.56189
 6.89   1594.0922  21.7053     345.0372   1384.9442 -19.49     1.473     0.518   0.1937        167     61.54381
 6.99   1592.8507  24.9704     17.05505    567.1038  41.77     0.836     0.671   3.4539        168     54.24191
 3.50   1586.8704  23.0078      103.962   1069.2076 -26.32     0.977     0.733   0.3214        169      30.7719
 3.50   1564.5637  16.2125     54322.58    304.2770 -45.70     1.968     1.875   0.0014        170     69.29781
 3.51   1571.3456  20.3774     1172.345     92.7359 -46.28     1.463     1.342   0.0473        171     51.02943
 3.53   1542.6790  19.3999     2884.338    135.1462 -57.03     1.585     1.524   0.0212        172     56.38185
 4.21   1536.6472  21.6919     349.3204   1429.4083 -57.98     1.567     0.952   0.1657        173      53.2985
 5.99   1529.5508  23.0458     100.3873    733.3308  32.68     1.023     0.681   0.5627        174     52.01401
 5.85   1525.2084  23.6001     60.24878    378.9753  80.66     1.380     0.702   1.0741        175     59.58954
 3.50   1523.4841  24.5470     25.18896     14.4994  44.62     0.509     0.490   0.8685        176     20.14494
 3.50   1515.7332  18.4540     6893.126    392.7216 -44.48     1.718     1.630   0.0097        177     61.54381
 5.42   1516.1362  21.1504     575.2205   1547.0354  59.82     1.454     1.004   0.1285        178     68.06685
 5.15   1504.9113  21.0550     628.0526    723.3754 -14.58     1.267     1.119   0.1092        179      63.1708
 6.67   1504.6394  22.6291     147.3499   1312.1969 -60.47     1.233     0.361   0.3402        180     46.15786
 5.77    951.5790  20.9780     674.1963    654.1421  77.81     2.092     1.354   0.1612        181     100.0509
 0.00    952.6561  99.0000    -73.37378    886.7119 -47.96     0.561     0.340  99.0000        182     29.07672
 7.15    951.1804  21.1005     602.2642    268.5884 -71.55     0.761     0.452   0.0634        183     35.18534
 3.50    948.7699  22.1363      231.989    445.2767  -8.37     1.064     0.909   0.1633        184     34.89206
 3.72    939.9116  20.0246     1622.363   1067.0671 -40.96     1.544     1.337   0.0371        185     55.47484
 7.57    942.2939  23.4082      71.8988    725.6534  42.34     0.565     0.339   0.4969        186     32.89655
 7.34    939.1717  20.7599     824.2478    515.9602  26.89     1.277     0.921   0.1081        187     82.03551
 5.74    933.8319  22.5544     157.8466   1118.5710  12.09     0.875     0.614   0.3021        188     43.90488
 0.00    933.5328  99.0000   -0.8551025   1027.5371  45.25     0.516     0.481  99.0000        189     34.89206
 4.85    929.1008  20.7255     850.7812   1322.4062 -85.50     1.409     1.268   0.0846        190     66.30511
 6.25    926.4553  22.6749     141.2662    665.7037 -88.92     0.928     0.456   0.3315        191     43.12774
 8.62    926.6777  24.9542     17.31116    934.3347  44.43     0.573     0.336   2.4473        192     39.01051
 0.00    919.9985  99.0000    -55.56726   1027.5399  56.68     0.762     0.323  99.0000        193     32.89655
 4.47    913.5744  20.9570     687.4095    838.4932 -17.32     1.372     1.256   0.0964        194     60.99184
 3.79    913.2420  22.0247     257.1027   1000.9395 -20.76     1.238     1.013   0.1871        195     44.28833
 8.55    908.4130  22.3342     193.3306    658.8085 -20.20     0.749     0.447   0.2829        196     50.36235
 3.50    901.2190  18.7338      5327.19    302.8275 -74.14     1.692     1.590   0.0125        197     61.26833
 5.64    900.5178  23.9653     43.04114    379.4821 -45.01     0.511     0.488   0.7188        198     28.48925
 4.99    896.8900  20.1805     1405.381    538.8267  -4.29     2.156     1.581   0.0729        199     94.30902
 8.00    898.5093  23.2963     79.70056    987.5135  45.27     0.505     0.495   0.5714        200     41.93504
 4.34    894.8568  22.5571     157.4543   1425.8367 -39.55     1.211     1.023   0.3403        201     49.34483
 0.00    892.3138  99.0000    -19.72266   1453.3175 -44.80     0.562     0.341  99.0000        202     20.14494
 3.50    881.0701  15.4772     106934.6   1592.5050 -66.14     2.128     1.981   0.0008        203     74.69944
 8.06    889.4891  22.3609       188.64    680.4580  50.40     0.503     0.495   0.2414        204     41.93504
 4.20    886.5468  20.8826     736.1462   1500.5457   3.01     1.461     1.296   0.0866        205     58.73209
 4.62    885.8091  21.8350     306.2039    339.2333 -50.56     1.331     0.893   0.1833        206      51.6879
 4.58    878.3823  21.8236     309.4292    960.6887  83.41     1.256     1.192   0.2020        207     57.56896
 7.23    879.8236  23.0057     104.1688    673.3714   4.42     0.996     0.374   0.4617        208     44.28833
 5.82    877.4668  22.5626     156.6559    541.7645 -59.48     1.012     0.778   0.3717        209     53.61481
 4.43    870.1768  19.4999     2630.483   1103.6156 -61.56     2.074     1.779   0.0363        210     87.80976
 5.29    868.6845  20.7169     857.5184    939.5432  25.12     1.995     1.411   0.1162        211     91.76457
 4.87    870.6060  22.1966      219.458    643.5376 -54.41     1.036     0.812   0.2284        212     46.15786
 4.08    889.3619  21.2239     537.5668    325.6336  17.18     1.631     1.281   0.1221        213     60.43482
 7.02    867.5193  23.1648     89.96863    454.4771 -45.32     0.506     0.493   0.4153        214     34.40403
 6.62    861.1949  22.8917     115.6984   1554.1703  42.07     0.759     0.567   0.4263        215     45.41928
 5.13    859.0752  20.6287     930.0479   1340.3101 -76.09     1.578     1.072   0.0949        216     81.23614
 6.05    856.3950  22.1666     225.6184    545.3506  53.02     1.033     0.880   0.2882        217     59.87262
 4.64    845.9663  21.2741     513.2751   1063.6743  89.16     1.197     1.105   0.1161        218     54.86184
 8.68    847.7302  22.5359     160.5579    358.9989  -0.07     0.672     0.444   0.3338        219     49.34483
 4.02    844.1765  20.6422     918.5936   1106.0085  18.02     1.649     1.396   0.0740        220     62.63316
 3.50    837.3778  20.4843     1062.367    298.7135 -30.30     1.402     1.248   0.0490        221     47.95455
 5.58    837.5710  22.9424     110.4137   1520.2875   7.21     0.957     0.484   0.3963        222     40.28988
 4.34    836.5140  22.0762     245.2034    819.0198  -0.57     1.082     0.929   0.1995        223     45.04546
 3.50    823.7400  18.6559     5723.268    654.3682 -47.01     1.694     1.608   0.0113        224     59.58954
 5.33    820.7417  22.6224     148.2638   1398.3711 -34.06     1.040     0.799   0.3639        225     49.68631
 6.27    819.5536  22.5496     158.5531    702.4224  75.69     0.930     0.815   0.3882        226     56.68095
 3.50    803.8591  18.7498     5249.271   1378.6097 -16.42     1.764     1.715   0.0130        227     62.63316
 3.50    799.2559  17.5196     16298.86    695.5489 -86.67     2.595     1.858   0.0053        228     78.88316
 3.50    801.5493  19.6735     2241.735     41.1095 -47.22     1.556     1.367   0.0257        229      52.9803
 3.50    786.3653  24.7332     21.21899   1348.2401  16.88     0.743     0.450   1.0731        230     20.96752
 4.64    774.9264  19.6069     2383.573   1427.4890 -80.02     2.968     2.202   0.0555        231     121.7061
 6.58    768.5202  21.9414     277.6117    140.3967 -56.00     1.096     0.753   0.2418        232     61.81795
 0.00    759.9717  99.0000     -47.7356   1020.4913  57.79     0.794     0.314  99.0000        233     41.93504
 8.03    758.7322  22.4971     166.4019   1341.6172 -19.13     0.999     0.595   0.4158        234      63.7039
 7.70    755.4393  21.7297     337.3856    195.3307  50.93     1.281     0.507   0.2068        235     64.23257
 8.16    753.2500  22.8928      115.575   1080.7515 -18.40     0.867     0.354   0.4406        236      46.8848
 4.09    743.5436  20.3150     1241.614    556.2997 -21.00     1.386     1.284   0.0488        237     55.77881
 6.46    740.3088  24.2675     32.58411   1272.3568 -42.92     0.576     0.333   1.0071        238     30.21741
 4.93    738.9075  21.3279     488.4863   1157.9510   1.73     1.221     1.143   0.1331        239     59.87262
 5.71    736.8117  21.0274      644.251    649.5156 -57.46     1.284     1.212   0.1244        240     73.78844
 3.50    727.4288  16.0405     63650.93    848.3036 -43.51     2.122     2.007   0.0013        241     74.01723
 4.09    728.2400  20.6307     928.3716   1178.2639 -71.75     1.493     1.272   0.0680        242     58.15343
 5.98    722.0221  21.6816     352.6731   1394.6796  55.23     1.120     1.005   0.2018        243     65.53559
 4.03    716.7179  20.3777     1171.953    808.2800 -58.15     1.484     1.251   0.0525        244     56.68095
 4.96    709.6140  20.3209     1234.882   1163.7046  -6.42     1.385     1.344   0.0618        245     70.26706
 4.23    705.2289  20.4140      1133.48   1339.0270  -7.51     1.751     1.458   0.0643        246     67.08835
 3.50    707.8699  24.3359      30.5929    794.7454 -47.11     0.787     0.662   0.8998        247     25.34849
 3.92    703.4935  19.6785     2231.608    952.2862 -18.86     1.625     1.545   0.0313        248     64.23257
 4.49    699.7202  21.2085     545.2758    582.8026   2.02     1.870     0.964   0.1247        249     62.63316
 4.59    692.6077  20.5649       986.34   1213.5939  51.67     1.289     1.128   0.0866        250     78.67226
 5.45    687.6429  21.4690     428.9456   1213.6561 -60.27     1.349     0.880   0.1395        251     55.11468
 6.02    692.7369  21.1082     598.0201    316.0250   1.66     0.713     0.689   0.0662        252     36.45429
 3.59    686.2900  19.9120     1799.772    644.0510  42.51     1.532     1.436   0.0333        253     55.16919
 3.50    688.1400  22.7197     135.5601    130.8793  46.46     0.805     0.656   0.2031        254     25.34849
 5.25    673.8572  22.8419       121.13    231.1585  61.85     1.162     0.421   0.3458        255     38.57462
 6.98    669.8129  22.1762     223.6285   1221.2018 -48.04     0.753     0.562   0.2259        256     46.52275
 4.62    667.3979  24.3947      28.9801   1180.1707  20.00     0.731     0.448   1.0222        257     27.27638
 3.50    649.1266  16.0503     63077.66   1464.2963 -59.01     2.074     1.939   0.0013        258     72.63361
 4.97    655.4445  21.3314     486.9154    870.9727   6.69     1.205     1.054   0.1271        259      56.9785
 4.19    646.8542  22.1312     233.0857    652.7485  27.68     0.962     0.824   0.1818        260     39.01051
 7.02    642.0137  22.3131     197.1356    276.5096 -87.93     0.787     0.499   0.2461        261      44.6685
 5.14    631.7795  21.3685     470.5464    805.9449 -67.46     1.254     1.123   0.1439        262     62.36261
 4.72    629.6339  23.6564     57.20728    941.6058 -21.03     1.042     0.326   0.5294        263     27.88941
 5.45    624.2539  20.6236      934.501   1581.3297 -24.63     1.442     1.261   0.0886        264     76.26751
 6.88    619.2504  21.5759     388.7227   1151.0924  28.52     1.102     0.879   0.1956        265     70.02601
 7.54    610.1631  23.1407     91.98315    944.9097  41.60     0.839     0.661   0.6727        266      56.9785
 3.50    608.4720  23.8464     48.02173   1011.9152   4.20     0.785     0.497   0.5261        267     23.26137
 3.50   1562.1376  21.0424     635.3918    861.4935   5.33     1.262     1.158   0.0730        268     42.73387
 3.76    589.0152  24.4724      26.9801   1139.4913  89.58     0.784     0.500   0.9363        269     23.26137
 4.95   1566.7649  20.3387     1214.861    784.6983 -84.12     1.821     1.377   0.0728        270     81.41481
 5.84   1581.9138  21.8966     289.3057   1414.7047  68.45     1.253     0.472   0.1719        271     45.79006
 3.51   1553.5060  17.1313     23305.81    682.1395 -30.05     4.698     3.914   0.0072        272     154.5175
 3.50   1585.7133  20.6376     922.4998   1108.7926 -47.79     1.406     1.236   0.0560        273     47.60064
 7.41   1576.4824  23.0888     96.49194   1491.4977  44.73     0.516     0.483   0.4342        274     38.57462
 3.50   1558.8717  16.2226     53823.14    487.7102 -42.21     1.948     1.877   0.0014        275     68.56189
 3.59   1562.9105  23.3547     75.53088   1566.5850 -28.67     1.434     0.440   0.4096        276     28.48925
 8.49   1562.4872  22.9196     112.7617    385.4712  70.24     0.829     0.446   0.5133        277      53.2985
 3.50   1567.4845  19.9978     1662.899     22.0536 -35.09     1.501     1.336   0.0340        278     52.01401
 3.63   1551.7889  22.0626     248.2852   1221.5983 -69.22     1.018     0.924   0.1568        279     35.84818
 3.50   1546.9426  21.0776     615.1024    863.4279  79.12     1.442     1.277   0.0865        280     49.00095
 3.80   1543.5000  19.7331     2122.063    654.6492 -44.43     1.543     1.391   0.0296        281     57.86193
 4.68   1533.0137  21.5519     397.4226    415.7943 -28.03     1.657     1.117   0.1770        282     64.75692
 6.56   1489.0807  22.4458     174.4506     77.8819 -75.41     0.962     0.688   0.3472        283     55.77881
 4.87   1519.6189  22.1843     221.9685     84.3914  80.11     1.501     0.882   0.2788        284      56.9785
 7.56   1502.3057  22.5106     164.3527   1412.6653  43.54     0.566     0.339   0.2241        285     33.90899
 8.50   1539.5172  22.7231     135.1346    263.4748  45.53     0.509     0.490   0.3497        286     43.51804
 7.05   1527.5272  23.2640      82.1134    878.5313  49.73     0.500     0.498   0.4678        287     35.37335
 3.50   1508.0370  16.9039     28737.72    269.3830 -51.48     1.875     1.773   0.0025        288      65.7931
 6.76   1521.7549  22.5549     157.7692   1100.5942 -83.81     0.998     0.482   0.3277        289     47.60064
 4.14   1515.3909  21.7388     334.5751    483.6700 -45.90     1.145     1.021   0.1474        290     45.41928
 5.17   1499.3826  22.5768     154.6254    844.6345  23.01     1.288     0.825   0.3831        291     54.55276
 7.80   1497.3390  25.4222     11.24878    930.6785  45.78     0.575     0.335   3.3686        292     34.89206
 5.02   1483.2747  21.7428      333.324    575.1030 -33.51     1.906     1.010   0.2344        293     71.93182
 5.79    977.4968  24.6757     22.37195   1280.5354  84.84     0.500     0.499   1.4394        294     29.65255
 3.50    965.8499  21.9384     278.3813    416.2972 -35.18     1.232     0.946   0.1522        295     39.01051
 7.03    982.7349  24.1311     36.94482   1487.3997 -33.14     0.950     0.546   1.5480        296     52.66018
 7.76   1477.7635  22.6994     138.1146    198.9817  -0.83     0.693     0.425   0.3422        297     43.51804
 5.84    981.6761  20.6919     877.5243    797.9858 -22.91     1.536     1.395   0.1082        298     87.42378
 7.72    972.4925  26.5134     4.117554   1499.4553 -53.16     0.502     0.495  10.9535        299     41.52986
 5.29   1476.3263  21.3859      463.043    998.5921  -9.60     1.602     0.944   0.1561        300     66.55965
 4.33    987.5529  20.2826     1279.304    453.9749  88.63     1.760     1.477   0.0619        301     72.86604
 5.48    979.2098  21.1558     572.3743    452.6704  73.39     1.079     0.952   0.1081        302      56.9785
 4.17   1479.4890  26.8059     3.145264    638.4839  46.80     0.501     0.499   6.9557        303     20.14494
 5.28   1439.3832  22.0476     251.7416   1271.1968  84.54     1.095     0.913   0.2367        304     54.86184
 3.71   1067.5957  22.1668     225.5704    568.9399 -85.07     1.064     0.782   0.1680        305     34.89206
 3.50    985.6585  16.9996     26311.64    558.4474 -60.51     1.860     1.774   0.0027        306     65.01752
 3.88   1416.2999  20.2985      1260.64   1386.6492  19.74     1.424     1.377   0.0478        307     55.47484
 5.29   1072.8474  19.7048     2178.068   1219.1344 -71.81     2.171     1.586   0.0501        308     100.5567
 4.20   1066.6592  21.7113     343.1307   1597.1162  36.70     1.159     0.981   0.1402        309     44.28833
 5.21   1065.3551  22.7811     128.1033    292.5062  -0.68     0.931     0.478   0.3118        310     36.77946
 7.20   1079.6516  23.3978     72.58911    921.6904 -46.76     0.573     0.335   0.4765        311     31.85195
 5.67    993.0270  23.3401     76.55029    500.0000  90.00     0.838     0.289   0.3957        312     27.88941
 6.66   1069.3281  25.5921     9.619751   1182.6630  44.61     0.577     0.334   3.4113        313     30.21741
 5.82   1439.4316  22.5400     159.9496    646.8270  47.40     1.087     0.718   0.3597        314      52.9803
 3.50   1440.6519  19.8124     1972.692    619.1653   9.04     1.445     1.337   0.0279        315     50.69699
 3.50   1394.2668  15.8722     74323.91    114.4738 -48.42     2.040     1.936   0.0011        316     71.93182
 8.23   1450.7783  23.6282     58.71069     88.3631 -73.90     0.748     0.452   0.9191        317     49.68631
 5.76   1453.8417  22.6674     142.2516    391.7621  21.98     1.190     0.813   0.4462        318     58.44348
 3.50   1436.1301  19.3898     2911.236    224.7948 -34.44     1.604     1.459   0.0208        319     55.77881
 4.26   1437.3093  22.4200     178.6532   1347.0367  73.01     1.028     0.724   0.2318        320     38.13375
 3.50   1219.7289  18.2254     8508.241   1195.0479  14.69     1.870     1.852   0.0086        321     67.06581
 3.50   1435.7036  15.5598      99103.8   1089.9775  43.89     1.901     1.615   0.0010        322     91.89559
 7.30   1432.6862  22.0657     247.5922    341.5507  -7.52     1.510     1.030   0.4113        323     93.76959
 3.50   1139.3179  16.9122     28517.43    148.0982 -49.63     1.915     1.847   0.0026        324     67.56818
 8.31   1094.4969  21.9811     267.6462    429.0226  -2.01     0.796     0.500   0.2214        325     54.55276
 4.56   1079.9408  21.5186      409.807    330.0614 -62.66     1.125     0.943   0.1299        326     49.00095
 4.34   1130.0508  21.3789     466.0762    547.4393 -65.16     1.185     1.025   0.1109        327     47.60064
 3.50   1389.6022  18.5439      6344.98   1428.5128 -35.92     1.644     1.588   0.0100        328     58.15343
 5.12   1131.0320  21.2301     534.4982    219.3809 -20.51     1.568     1.132   0.1447        329     71.22312
 3.51   1386.6152  21.7159     341.6894   1274.3851 -80.87     1.295     0.447   0.1086        330     34.17541
 3.50   1409.1057  19.7999     1995.522    308.4276  -7.76     1.523     1.467   0.0293        331     53.92928
 3.85   1263.1622  23.2162     85.80786    215.8559 -41.55     0.728     0.565   0.3291        332     26.00701
 4.79   1407.2278  21.3507     478.3096    329.8878  77.17     1.283     1.109   0.1353        333     59.58954
 0.00   1388.2180  99.0000      -7.2052   1384.9540   1.83     0.696     0.412  99.0000        334     34.40403
 5.62   1412.1393  20.8996     724.6987    350.1120  23.37     1.424     1.101   0.1088        335     72.63361
 6.74   1414.8446  21.6538     361.7958      1.3369  76.87     1.069     0.416   0.1118        336     37.23637
 6.02   1278.3990  24.7374      21.1377    343.4074  -1.19     0.918     0.658   2.4638        337     47.95455
 4.77   1294.3375  20.1714     1417.239    742.2962  73.62     1.413     1.260   0.0498        338     65.01752
 5.37   1292.0195  22.8959     115.2448    545.9750 -45.38     0.899     0.525   0.3333        339     35.37335
 6.24   1401.4606  20.6538     908.8197   1031.6093  31.56     1.437     1.248   0.1028        340     86.05922
 6.59   1389.5435  21.9238     282.1401    806.6453   0.75     0.950     0.943   0.2462        341     63.96878
 4.18   1391.2549  19.6792     2230.103    713.2370  26.81     1.499     1.457   0.0309        342     63.43791
 4.30   1393.0747  20.1666     1423.515   1038.7461  42.34     1.418     1.397   0.0472        343     61.81795
 5.41   1388.9937  23.6900     55.46033   1584.7758 -89.72     0.686     0.417   0.5917        344     30.21741
 5.53   1380.3506  22.8599     119.1398    318.5949  -4.36     1.034     0.628   0.4241        345     46.52275
 3.84   1278.8799  19.1294     3700.434   1331.4744 -56.45     1.646     1.542   0.0185        346      63.1708
 5.77   1371.3213  25.3592     11.92163    705.8503 -32.11     1.213     0.407   3.7459        347     41.12069
 3.50   1320.9148  16.9511     27515.61    659.9897 -44.67     1.896     1.801   0.0026        348     66.81321
 7.56   1369.4689  23.9020     45.62415    149.4737  17.41     0.499     0.499   0.9388        349     39.44158
 3.51   1373.4688  18.3228     7778.405   1018.9661 -21.90     1.834     1.715   0.0090        350     64.75692
 5.31   1331.2352  21.7655     326.4293    386.9082   1.03     1.306     0.996   0.2066        351     62.09088
 3.50   1293.9078  20.9530     689.9008    412.7370  23.44     1.287     1.129   0.0673        352     42.73387
 5.11   1346.4972  22.0391     253.7338    605.5799 -50.92     1.185     0.775   0.2170        353     50.69699
 7.57   1353.2751  21.7116     343.0598    152.0077  17.83     1.231     1.094   0.2881        354     91.02452
 5.12   1333.5925  20.9669     681.1541    107.4225 -28.91     1.327     1.156   0.1045        355     65.53559
 5.43   1320.0242  21.5212     408.7981    264.0417 -45.50     1.309     1.038   0.1734        356     65.27707
 3.83   1330.7550  19.3592     2994.451    655.8856  56.69     1.676     1.627   0.0211        357     58.21714
 4.14   1305.5653  21.1106     596.6859    892.8594 -79.27     1.297     1.158   0.0941        358      51.6879
 3.50   1299.2639  14.9225     178234.5    724.8691 -47.64     2.150     2.016   0.0005        359      75.8228
 3.70   1308.3883  19.6402     2311.732    669.6326 -17.93     1.494     1.487   0.0262        360     55.77881
 8.09   1307.6790  23.5106     65.42456    574.6573 -44.05     0.576     0.334   0.6256        361     37.68773
 3.59   1273.6150  17.7921     12680.83    609.9725 -58.64     4.087     2.422   0.0100        362     116.3069
 4.24   1300.2339  22.4456      174.491     54.0051 -29.97     1.122     0.858   0.2708        363     43.51804
 3.50   1292.2128  18.5810     6131.928    762.0967 -25.34     2.106     1.659   0.0120        364     67.56818
 3.67   1262.9900  22.4914     167.2727    855.3809   0.12     1.015     0.766   0.2169        365      33.4066
 5.04   1274.2222  23.5374     63.83057    698.2037 -79.22     1.189     0.826   0.8850        366     52.01401
 7.35   1157.5980  22.3428     191.8221    567.8342  19.03     0.772     0.445   0.2550        367     45.04546
 3.50   1266.2606  19.4876     2660.441    807.8792 -38.08     1.534     1.430   0.0219        368     53.61481
 5.60   1213.6489  20.2273     1346.089   1429.3069  77.15     2.724     2.083   0.1112        369     137.8617
 5.82   1238.9614  22.3563     189.4395    857.0588 -45.63     0.897     0.539   0.2472        370     43.12774
 3.76   1235.1207  19.5869     2427.934    304.8844 -70.00     1.601     1.472   0.0265        371      59.3051
 4.35   1260.2809  20.3281     1226.804    432.4522 -61.87     1.924     1.810   0.0735        372     83.05972
 4.00   1238.4276  22.0389      253.769     48.1247 -11.79     1.158     0.950   0.1862        373     43.51804
 6.11   1230.6050  20.7815     807.9453    599.0958  13.98     1.553     1.455   0.1277        374     95.02349
 3.50   1238.0283  20.3254     1229.867   1553.5206 -12.60     1.431     1.370   0.0451        375     51.02943
 3.50   1244.9319  23.6012     60.19214    614.1144  43.91     0.865     0.661   0.4921        376     27.27638
 4.38   1202.6338  20.1783     1408.198    339.0765 -83.96     1.516     1.396   0.0509        377     66.04961
 3.50   1215.4216  17.7686     12958.96    513.0119 -59.10     1.745     1.693   0.0051        378     61.26844
 3.50   1211.6077  17.6546     14393.51   1279.0597  80.67     5.688     3.491   0.0122        379     161.1595
 4.87   1229.3096  21.7602     328.0332   1153.9847  -3.74     1.189     0.976   0.1785        380     53.92928
 3.50   1208.4626  20.2525     1315.236    838.7981 -29.99     1.343     1.247   0.0378        381     45.79006
 5.21   1195.7804  19.9254     1777.573    124.2715  85.31     1.874     1.702   0.0585        382     95.73264
 4.53   1205.2776  22.9953     105.1628   1217.3695 -46.25     0.892     0.513   0.3178        383      30.7719
 3.89   1162.5885  21.1470     577.0288    887.7397 -48.69     1.405     1.171   0.0973        384      51.6879
 4.67   1154.6306  20.8324     770.9871   1353.0854 -56.53     1.611     1.412   0.1010        385     71.69637
 4.88   1201.8149  20.7023     869.1083   1442.1520 -87.54     1.659     1.491   0.0991        386     79.31071
 5.64   1182.5487  22.2095     216.8717    176.5511   8.16     1.425     0.970   0.3408        387     68.06685
 3.50   1181.6399  21.5555     396.0828    549.2872 -17.64     1.167     0.943   0.1021        388     37.23637
 6.47   1185.6552  23.7320     53.35559    313.7022 -47.34     0.566     0.338   0.6150        389     30.21741
 3.64   1152.1667  20.4863     1060.433     99.4371  -5.03     1.310     1.209   0.0491        390     47.95455
 3.50   1165.9730  16.3807     46529.05   1299.8149 -73.70     1.991     1.895   0.0016        391     69.29781
 3.50   1130.7355  17.6491     14466.42    183.5708 -55.72     1.823     1.729   0.0048        392     63.96878
 6.43   1178.4944  25.1983     13.82556   1597.7561  72.38     1.154     0.262   2.8527        393     36.31681
 7.58   1167.6770  22.4911     167.3311   1599.3630  46.34     0.885     0.518   0.2669        394     41.12069
 0.00   1169.6912  99.0000    -7.155518    385.3456  43.30     0.572     0.336  99.0000        395     30.21741
 3.61   1158.6713  18.8012     5006.324    236.4377 -45.44     1.659     1.639   0.0135        396     62.36261
 6.98   1131.8344  21.9981     263.4935    359.0297  34.12     1.138     1.043   0.3225        397     78.23744
 3.50   1080.7612  16.8585     29962.87    512.1377 -66.86     1.873     1.779   0.0024        398     65.53559
 5.41   1121.0597  19.6342     2324.509    329.8915  58.20     2.642     1.720   0.0555        399     118.7527
 4.68   1096.1305  20.8871     733.1157   1526.4138 -79.64     1.384     1.254   0.0955        400     64.49528
 3.50   1108.1862  18.5999     6026.235    427.9433 -54.08     1.692     1.627   0.0107        401      59.3051
 5.32   1111.4586  20.1195     1486.663    479.1580  -9.86     2.161     1.572   0.0738        402     101.0599
 3.50   1095.5962  16.9634     27204.56    778.2920  30.96     1.857     1.769   0.0031        403      76.5395
 5.17   1091.6052  21.1047     599.9651    468.4291 -68.10     1.906     0.987   0.1319        404     72.86604
 5.44   1095.1101  22.1810     222.6483   1136.4399 -85.67     1.091     0.933   0.2779        405      56.9785
 3.50   1082.6001  18.2203     8548.449   1148.1748 -75.09     1.756     1.712   0.0079        406     62.36261
 3.50   1030.9937  19.9873     1679.149    302.5811  71.37     2.462     1.757   0.0485        407     74.92546
 6.46   1085.8284  22.6764     141.0693   1452.5986  76.35     0.929     0.621   0.3903        408     50.69699
 6.13   1066.0032  20.5222     1025.962   1562.7290 -64.61     2.578     1.374   0.1260        409     119.0371
 3.50   1010.6152  17.6367     14633.08    813.6567 -57.58     1.843     1.779   0.0048        410     64.23257
 5.93   1020.8219  23.0548     99.55969   1154.6001  71.58     0.761     0.450   0.4062        411     37.23637
 7.72   1052.8062  22.9024     114.5647    238.2280  10.82     1.184     0.333   0.4742        412     50.02547
 0.00   1001.6425  99.0000    -37.98193   1025.6887 -46.97     0.578     0.332  99.0000        413     26.00701
 3.50    998.9927  23.0113     103.6244    233.2767 -18.35     1.046     0.719   0.3282        414     31.31658
 3.50   1039.5093  18.3496     7588.387    525.4048 -57.06     1.682     1.625   0.0087        415     60.71397
 5.58   1040.7959  22.0819      243.907    467.1765  60.45     1.002     0.638   0.2022        416     45.41928
 8.77   1042.6610  22.6669     142.3132   1095.3132  46.21     0.571     0.337   0.3075        417     40.28988
 3.50   1041.0314  16.5734     38961.73    633.0394 -48.28     1.946     1.863   0.0019        418     69.05338
 7.81   1044.5298  23.1325     92.67908    809.4818 -44.15     0.509     0.490   0.4914        419     41.93504
 3.50   1026.5739  17.4322     17665.35   1379.9856 -68.53     1.930     1.815   0.0042        420     67.56818
 7.28   1038.3228  24.0906     38.34863    242.3530 -43.77     0.581     0.331   0.9020        421     31.85195
 5.54   1014.3884  21.8897      291.163    453.2855 -71.18     0.977     0.589   0.1609        422     43.12774
 0.00   1026.6539  99.0000    -34.78369   1028.6675 -45.54     0.582     0.330  99.0000        423     26.64925
 5.56   1028.6923  24.2324     33.65405    463.6869 -44.70     0.557     0.343   0.8180        424     25.34849
 3.50   1012.0173  19.7257     2136.556    344.6625 -58.15     1.552     1.359   0.0271        425      53.2985
 3.88   1011.5946  22.5803     154.1296    268.0587 -42.83     1.169     0.663   0.2459        426     34.89206
 4.09   1000.6547  20.7207     854.5219   1273.9342 -43.44     1.550     1.291   0.0757        427     59.58954
 3.72   1002.4813  19.6169     2361.677    542.4351  72.56     1.532     1.462   0.0261        428     56.68095
 6.18   1020.4149  21.8410     304.5114   1267.5466 -73.09     0.874     0.686   0.1760        429     49.34483
 4.02   1002.4446  20.6269     931.5902   1555.2887 -75.10     1.475     1.318   0.0675        430     57.86193
