#   1 KRON_RADIUS            Kron apertures in units of A or B                         
#   2 MAGERR_APER            RMS error vector for fixed aperture mag.                   [mag]
#   3 Y_IMAGE                Object position along y                                    [pixel]
#   4 X_IMAGE                Object position along x                                    [pixel]
#   5 THETA_IMAGE            Position angle (CCW/x)                                     [deg]
#   6 FLUX_APER              Flux vector within fixed circular aperture(s)              [count]
#   7 A_IMAGE                Profile RMS along major axis                               [pixel]
#   8 B_IMAGE                Profile RMS along minor axis                               [pixel]
#   9 FLUX_RADIUS            Fraction-of-light radii                                    [pixel]
#  10 FLUXERR_APER           RMS error vector for aperture flux(es)                     [count]
#  11 MAG_APER               Fixed aperture magnitude vector                            [mag]
#  12 NUMBER                 Running object number                                     
 5.69   0.0037     16.5823    984.9381 -86.94     24519.31     2.491     1.473      8.536     83.78396  17.0762          1
 4.65   0.0045     17.7012     91.2437  62.60     20351.41     1.522     1.468      4.447     83.69859  17.2785          2
 3.89   0.0017     14.6993   1445.5360 -50.08     52874.33     1.774     1.715      4.142     83.74603  16.2419          3
 4.92   0.0006     53.0452     63.6400   7.51       149125     3.684     3.374     12.728     83.79344  15.1161          4
 3.50   0.0004     59.8229   1078.2557  68.73     239680.2     2.259     2.194      4.383     83.81239  14.6009          5
 3.50   0.0004     80.1066    537.4939  13.25     230266.4     2.197     2.153      4.533     83.68911  14.6444          6
 3.50   0.0000    182.1367   1107.2065 -19.35      2437949     4.434     4.162      9.160     83.83134  12.0824          7
 7.03   0.0107     74.8750    127.7219  14.01     8523.092     1.032     0.750      3.999     83.75552  18.2235          8
 6.00   0.0071     96.3360     55.9325 -15.25     12726.75     1.233     1.071      4.507     83.72706  17.7882          9
 3.50   0.0003    121.7236    788.9908 -22.68       342819     2.307     2.266      4.450     83.82187  14.2123         10
 3.50   0.0005    162.3457   1468.0594 -22.19     194756.8     2.184     2.099      4.266       83.765  14.8263         11
 3.50   0.0001    193.4410    317.9619 -18.77      1465798     2.614     2.557      4.648     83.81239  12.6348         12
 3.73   0.0021    170.3082    877.2081 -16.24     43583.32     1.853     1.720      4.354       83.765  16.4517         13
 8.43   0.0122    170.5123    325.5009 -43.32     7434.374     0.501     0.499      3.007     83.69859  18.3719         14
 5.39   0.0007    234.7470    403.5798 -33.70     136237.1     4.602     3.412     16.328     83.80292  15.2143         15
 8.52   0.0154    192.3390   1350.3169 -46.02     5900.212     0.573     0.336      2.950     83.73655  18.6228         16
 7.62   0.0048    210.6147    827.2098 -11.67     18788.23     1.692     1.270      9.262     83.74603  17.3653         17
 6.46   0.0100    206.3976    548.9096 -11.00     9111.954     1.162     0.913      4.076     83.74603  18.1510         18
 5.54   0.0099    212.3253   1305.9001  15.99     9212.604     1.207     0.956      4.015     83.67961  18.1390         19
 5.45   0.0087    223.7165   1225.4967 -32.80     10484.17     1.133     1.061      3.658     83.68911  17.9987         20
 3.50   0.0002    259.5990    997.2290 -20.35     594914.7     2.457     2.395      4.440     83.74603  13.6139         21
 9.37   0.0056    230.0000    561.9872   0.00     16173.52     0.857     0.289      4.079     83.78396  17.5280         22
 3.50   0.0002    265.5631     67.4617  12.68     438808.8     2.379     2.335      4.531     83.78396  13.9443         23
 6.10   0.0051    255.1530    612.7513 -35.09     17678.07     1.715     1.351      6.923     83.81239  17.4314         24
 8.83   0.0131    243.3442    112.6688  45.53     6950.986     0.581     0.331      3.397     83.74603  18.4449         25
 3.50   0.0001    312.1686    439.1684 -15.50      1729474     2.705     2.607      4.684     83.80292  12.4552         26
 3.72   0.0009    287.4911   1486.1422  -1.82     104168.8     2.021     1.975      4.186     83.72706  15.5057         27
 4.40   0.0039    281.8382   1522.0143  18.69     23267.64     1.568     1.414      4.032     83.81239  17.1331         28
 3.89   0.0012    302.8144    201.5877   6.89     75885.71     1.944     1.891      4.422     83.77448  15.8496         29
 7.93   0.0102    289.3437    514.9204  66.35     8920.475     0.928     0.695      4.770     83.75552  18.1740         30
 3.50   0.0003    318.4723    905.2948  -7.79     300057.2     2.338     2.258      4.441     83.73655  14.3570         31
 6.59   0.0091    293.7296   1327.4131  -1.64     10022.08     1.004     0.960      4.066     83.84082  18.0476         32
 3.50   0.0001    351.3069   1345.6638 -23.56      1498018     2.628     2.568      4.516     83.75552  12.6112         33
 3.50   0.0001    351.2153    890.6124 -13.41      1578308     2.631     2.571      4.528     83.78396  12.5545         34
 3.64   0.0018    321.6846    697.1141   7.04     50499.32     1.839     1.740      4.109     83.71758  16.2918         35
 7.01   0.0094    327.0966    595.3744  14.64     9634.593     1.033     0.756      4.980     83.75552  18.0904         36
 5.03   0.0026    346.1313    866.8199 -21.13     34729.52     1.691     1.617      5.186     83.82187  16.6983         37
 4.77   0.0032    355.4344    431.5809 -85.32     28079.07     1.780     1.651      5.160     83.78396  16.9290         38
 4.03   0.0017    367.8295    760.9108  22.87     52054.18     1.848     1.800      4.238     83.75552  16.2589         39
 4.82   0.0096    360.8949   1500.1207  43.64     9508.537     1.236     1.057      3.879     83.71758  18.1047         40
 4.73   0.0046    367.0470    442.7178  -9.05      19946.3     1.464     1.361      4.306     83.74603  17.3003         41
 3.50   0.0004    394.8083    231.3112  36.26     255022.7     2.265     2.204      4.477     83.78396  14.5336         42
 4.01   0.0022    397.8153    354.4453  68.60     41436.71     1.774     1.704      4.284     83.79344  16.5065         43
 4.29   0.0025    396.8724   1460.8997   9.72     36595.45     1.724     1.620      4.117     83.69859  16.6414         44
 6.23   0.0104    393.5096   1088.5342  83.01     8737.494     0.922     0.916      3.921     83.75552  18.1965         45
 3.50   0.0004    419.1950    433.1605  66.64     233134.1     2.241     2.225      4.384     83.79344  14.6310         46
 3.56   0.0008    415.3754    837.2552  12.49     112523.8     2.101     2.022      4.308     83.82187  15.4219         47
 4.37   0.0045    423.9159    926.2800 -40.75     20177.94     1.480     1.433      4.153     83.73655  17.2878         48
 3.76   0.0011    437.5066    251.9277   5.83     83082.34     1.969     1.898      4.362     83.73655  15.7512         49
 3.50   0.0001    460.6513    807.4163  -5.38     722207.1     2.479     2.390      4.375     83.81239  13.4033         50
 7.11   0.0135    432.4907   1421.9971  62.54     6744.101     1.090     0.655      3.873     83.74603  18.4777         51
 4.52   0.0034    449.7924     21.2016  74.12     26433.95     1.591     1.556      4.421     83.74603  16.9946         52
 4.41   0.0031    457.2684     34.4971  28.39     29655.03     1.675     1.566      4.427     83.75552  16.8698         53
 7.34   0.0042    467.6591    850.6986  25.02     21815.67     2.717     1.299     14.369     83.71758  17.2031         54
 6.62   0.0097    463.3746    468.4101 -50.36     9424.374     1.083     0.971      4.494     83.78396  18.1144         55
 5.30   0.0077    471.7219    734.9535 -62.67     11813.86     1.226     1.147      4.190     83.74603  17.8690         56
 6.46   0.0109    470.8155    254.0362  83.60     8352.794     0.927     0.757      3.982     83.81239  18.2454         57
 5.12   0.0060    477.5528    922.7881 -46.17     15139.69     1.395     1.305      4.085     83.81239  17.5997         58
 8.91   0.0155    477.5064   1276.5192 -45.77     5878.417     0.506     0.494      3.035     83.73655  18.6268         59
 6.13   0.0142    483.9977   1070.2220   1.14     6402.837     0.938     0.759      3.596     83.78396  18.5341         60
 4.00   0.0014    512.1588   1302.5399   5.76     64765.92     2.391     1.756      5.815     83.78396  16.0216         61
 5.48   0.0012    532.4893    518.7509  45.20     75991.81     2.976     2.462     11.454     83.72706  15.8481         62
 8.18   0.0066    514.7327   1460.2910  10.70     13724.97     1.419     0.674      7.605     83.74603  17.7062         63
 5.59   0.0100    539.9737    999.6816  68.50         9137     1.108     1.077      4.129     83.77448  18.1480         64
 3.50   0.0001    587.6174   1315.8351  21.37      1612762     2.605     2.544      4.509     83.79344  12.5311         65
 5.62   0.0073    558.6874   1041.5004 -74.66     12440.66     1.346     1.004      4.216     83.67961  17.8129         66
 4.12   0.0025    572.2595   1242.7538  12.07     36862.85     1.696     1.636      4.194     83.77448  16.6335         67
 4.34   0.0018    581.6237    319.2104  76.10     49723.34     1.866     1.784      4.569     83.78396  16.3086         68
 4.12   0.0018    580.1006    144.8694  38.08     49778.03     1.834     1.754      4.358     83.73655  16.3074         69
 3.50   0.0000    630.7087    483.2369  17.07      2491600     2.771     2.712      4.927     83.73655  12.0588         70
 9.63   0.0107    570.3286     45.6708  44.97     8500.978     0.574     0.335      3.441     83.71758  18.2263         71
 7.40   0.0131    574.0139   1337.2577  89.43     6959.182     0.735     0.690      4.172     83.80292  18.4436         72
 6.99   0.0038    596.4741    782.5552  81.14     23876.79     1.934     1.485      9.167     83.74603  17.1051         73
 6.01   0.0064   1000.9565    542.7247  -3.06     14228.68     1.286     1.204      4.512     83.75552  17.6671         74
 3.50   0.0002    880.0087   1592.4181  51.21     580936.2     2.445     2.380      4.338       83.765  13.6397         75
 7.60   0.0043    880.1438    224.1437  84.07     21230.17     2.800     1.309     13.700     83.74603  17.2326         76
 6.12   0.0065    868.9868   1103.1886  31.65      13932.3     1.395     1.174      5.303       83.765  17.6899         77
 3.50   0.0001    858.9574   1224.4263  25.75      1489841     2.639     2.588      4.467     83.83134  12.6171         78
 7.62   0.0089    837.2239   1247.4917  -0.45     10166.57     1.009     0.732      5.399     83.75552  18.0321         79
 6.58   0.0122    836.4489    298.4424  15.66     7486.043     0.922     0.915      4.102     83.80292  18.3644         80
 4.06   0.0027    822.4698    654.3860  51.50     33730.96     1.749     1.649      4.292     83.84082  16.7299         81
 4.47   0.0029    802.7502   1378.4924 -50.56     31004.74     1.668     1.607      4.223     83.73655  16.8214         82
 3.88   0.0010    798.0847    695.6307 -88.77     89143.26     2.469     1.952      5.398     83.78396  15.6748         83
 5.71   0.0063    800.0585     41.0773  48.00     14405.36     1.263     1.136      4.314     83.75552  17.6537         84
 8.62   0.0070    774.6725   1427.0803 -73.05     12994.25     1.065     0.754      6.388     83.73655  17.7656         85
 7.26   0.0130    766.2867    391.8763  68.87     6977.054     0.957     0.687      4.147     83.70808  18.4408         86
 6.14   0.0117    742.5024    556.5078  87.83     7781.368     0.941     0.916      4.135     83.70808  18.3224         87
 3.50   0.0000    723.6040    404.8631   9.84      1940971     2.661     2.628      4.646     83.84082  12.3300         88
 3.50   0.0003    726.1969    848.3800  15.37     345923.3     2.324     2.280      4.451     83.77448  14.2025         89
 7.85   0.0160    726.8041   1178.4011 -70.63     5679.952     0.758     0.446      3.475       83.765  18.6641         90
 6.61   0.0127    715.1652    808.1205 -42.84     7163.211     0.834     0.679      3.573       83.765  18.4122         91
 6.22   0.0126    708.2938   1163.8535  70.11     7204.475     0.949     0.690      3.640     83.74603  18.4060         92
 5.04   0.0070    702.1606    952.2911 -58.08     12994.92     1.311     1.266      4.189     83.72706  17.7656         93
 9.71   0.0106    703.5060   1338.5083  45.05      8593.17     0.509     0.491      3.052     83.70808  18.2146         94
 6.78   0.0085    685.1113    644.0930 -46.87     10734.62     1.109     1.105      4.776     83.71758  17.9730         95
 3.50   0.0003    648.0393   1464.2296  50.66       340847     2.308     2.287      4.298     83.81239  14.2186         96
 3.50   0.0003   1557.4830    487.5880  30.43     298851.9     2.223     2.198      4.406     83.79344  14.3614         97
 4.37   0.0017    639.2827    536.8463   4.93     53385.49     1.863     1.760      4.522     83.74603  16.2314         98
 8.56   0.0158    623.2075   1581.5868 -70.23     5760.043     0.750     0.448      3.531     83.72706  18.6489         99
 7.45   0.0152    605.1619    586.1762  46.13     6007.121     0.751     0.570      3.672     83.80292  18.6033        100
 5.56   0.0131   1584.3810   1108.8988  67.78     6922.321     0.932     0.696      3.488     83.74603  18.4494        101
 4.42   0.0051   1541.2722    134.9443  13.66     17821.22     1.483     1.348      4.123     83.73655  17.4227        102
 5.96   0.0106   1569.8834     92.4813 -14.03      8563.91     1.030     0.877      4.021     83.72706  18.2183        103
 3.50   0.0003   1563.1888    304.0692  33.60     301282.7     2.231     2.169      4.398     83.82187  14.3526        104
 5.24   0.0082   1566.0160     21.8608  69.12     11030.41     1.193     1.113      4.136     83.78396  17.9435        105
 3.50   0.0000    881.5714    183.9562  -7.91      2498166     2.889     2.836      6.044     83.83134  12.0559        106
 8.28   0.0170   1560.5081    861.5000 -44.77     5352.154     0.504     0.496      3.024     83.67961  18.7287        107
 4.93   0.0010   1552.1603    682.0789 -14.57     90149.54     3.248     2.869     10.866     83.75552  15.6626        108
 5.65   0.0070   1542.0186    654.5374 -87.78     12926.32     1.286     1.050      4.391     83.80292  17.7713        109
 3.58   0.0006   1506.6364    269.2758  19.22     163137.2     2.078     2.048      4.370       83.765  15.0186        110
 4.27   0.0023   1514.3198    392.6094 -65.38     40137.47     1.724     1.661      4.294     83.79344  16.5411        111
 4.40   0.0028    899.8454    302.7468  21.09     32951.53     1.705     1.644      4.358     83.78396  16.7553        112
 3.78   0.0012    929.3561   1178.3571  40.94     77613.25     1.998     1.955      4.255     83.80292  15.8252        113
 3.73   0.0006    984.3853    558.4161  48.22     150962.4     2.164     2.121      4.398     83.78396  15.1028        114
 6.45   0.0093    938.8971   1066.5717  -7.20     9765.758     1.046     0.888      3.753     83.72706  18.0757        115
 3.61   0.0005   1079.4897    512.1982  35.25     168954.2     2.200     2.174      4.486     83.74603  14.9806        116
 3.76   0.0009   1025.4875   1379.8679  70.20     99072.57     2.063     2.006      4.235     83.71758  15.5601        117
 7.59   0.0046   1365.9508   1134.3726  67.81     19970.98     1.646     1.268      9.877     83.82187  17.2990        118
 5.04   0.0071   1407.5771    308.1961 -68.88     12877.22     1.305     1.160      3.957     83.78396  17.7754        119
 4.24   0.0018   1081.4326   1148.1920  76.16     49245.35     1.879     1.827      4.399     83.79344  16.3191        120
 4.67   0.0069   1439.1356    619.1685  17.78     13199.98     1.290     1.159      3.975     83.79344  17.7486        121
 3.50   0.0001   1433.9310   1090.2480  32.64     732649.7     2.438     2.410      4.293     83.75552  13.3878        122
 3.88   0.0010   1418.8557   1126.1411 -87.77     93158.16     2.033     1.977      4.399     83.74603  15.6269        123
 4.44   0.0051   1434.6732    224.7623  43.14      17941.7     1.488     1.365      4.165     83.77448  17.4153        124
 5.82   0.0106   1415.0815   1386.3472  77.71     8578.404     1.153     0.910      3.918     83.72706  18.2165        125
 5.70   0.0101   1391.8909   1038.5494  87.37     8973.727     1.129     0.956      3.939     83.75552  18.1676        126
 3.50   0.0000   1365.8345   1159.0762   2.19      2978354     2.779     2.730      4.684       83.765  11.8651        127
 5.52   0.0069   1389.9965    713.2199  26.49     13106.54     1.441     1.139      4.296     83.77448  17.7563        128
 3.99   0.0020   1372.0872   1018.9006  73.62     45000.11     1.776     1.726      4.370     83.68911  16.4170        129
 4.18   0.0024   1388.3904   1428.3644  63.57     38305.48     1.780     1.678      4.078     83.79344  16.5918        130
 3.50   0.0002   1392.8549    114.4669  45.89     408008.1     2.350     2.328      4.551     83.75552  14.0233        131
 7.45   0.0028   1356.7125   1135.8651  34.68     32025.42     2.488     2.319     14.928     83.74603  16.7863        132
 4.06   0.0017   1104.0939    751.8116  10.97     54419.94     1.947     1.818      4.412     83.75552  16.2106        133
 4.39   0.0026   1107.1418    428.0562  49.52      35258.1     1.759     1.625      4.552     83.74603  16.6819        134
 7.11   0.0067   1307.2703   1035.9486  -5.67     13541.47     1.406     1.189      6.780     83.74603  17.7208        135
 5.37   0.0060   1307.1144    669.5201   1.91     15044.07     1.465     1.247      4.495     83.72706  17.6066        136
 7.79   0.0081   1119.6740    329.5378  76.50     11255.64     1.116     0.912      6.301     83.74603  17.9216        137
 3.76   0.0006   1319.6647    659.9721 -64.79     154208.5     2.234     2.113      4.545     83.78396  15.0797        138
 5.54   0.0052   1329.3555    656.0067 -89.98     17568.44     1.566     1.299      5.443     83.81239  17.4382        139
 3.50   0.0001   1298.0471    724.8810  10.30     960555.4     2.550     2.510      4.575     83.74603  13.0937        140
 7.82   0.0118   1293.1099    742.1282 -46.15     7683.339     0.848     0.674      4.734     83.73655  18.3361        141
 4.56   0.0054   1265.0479    807.7001  72.72     16945.67     1.509     1.370      4.078     83.66063  17.4774        142
 5.14   0.0016   1272.2990    610.1044 -50.32     56258.14     3.036     2.119      9.417     83.71758  16.1745        143
 3.82   0.0011   1129.5450    183.6320  22.84     82932.22     2.020     1.949      4.528     83.80292  15.7532        144
 4.49   0.0031   1157.4498    236.5468  12.32        29573     1.723     1.649      4.592     83.77448  16.8728        145
 4.62   0.0025   1291.0820    761.7897  88.46     36046.23     1.723     1.681      5.017     83.78396  16.6579        146
 4.52   0.0042   1277.5862   1331.1212   2.89      21863.2     1.602     1.428      4.071     83.81239  17.2007        147
 4.89   0.0065   1233.9238    304.7859  23.66     13972.26     1.288     1.172      4.097     83.84082  17.6868        148
 5.06   0.0018   1209.5433   1278.6290 -84.00     49310.71     3.687     2.463     11.707     83.81239  16.3176        149
 3.50   0.0000   1221.1451    995.1828 -15.36      2740480     4.846     4.455      9.925     83.81239  11.9554        150
 7.34   0.0098   1193.8496    124.3472  27.47     9306.955     0.760     0.654      4.563     83.78396  18.1280        151
 3.50   0.0004   1164.8112   1299.7474  53.33     255959.6     2.294     2.228      4.339     83.83134  14.5296        152
 6.25   0.0105   1236.6519   1553.3611 -39.11     8657.742     1.017     0.891      3.938     83.79344  18.2065        153
 4.58   0.0018   1218.5134   1194.7633 -41.25     49334.83     1.842     1.815      4.792     83.77448  16.3171        154
 3.68   0.0012   1214.2277    513.0873 -14.40      75267.7     1.992     1.907      4.424     83.77448  15.8585        155
 6.58   0.0104   1206.8467    838.7767 -10.08     8770.293     1.080     0.946      4.343     83.81239  18.1925        156
 8.08   0.0105   1203.1272   1075.8750  44.11     8679.308     0.850     0.676      5.103     83.72706  18.2038        157
 7.57   0.0090   1071.5475   1219.0000  79.56     10101.68     1.262     0.627      5.069     83.84082  18.0390        158
 7.86   0.0126   1150.9735     99.3088  84.90     7246.697     0.742     0.680      4.019     83.75552  18.3996        159
 6.38   0.0110   1201.2463    339.3479  21.75     8277.166     0.988     0.879      4.306     83.80292  18.2553        160
 3.50   0.0000   1151.3188    693.8892 -30.42      3035314     2.827     2.778      4.985     83.72706  11.8445        161
 6.27   0.0031   1172.6172    758.2498 -83.05     29305.33     2.325     2.091      9.754     83.80292  16.8826        162
 3.63   0.0006   1138.0608    148.1607  53.01     159172.1     2.241     2.192      4.577     83.79344  15.0453        163
 3.70   0.0006   1094.6279    778.1694  56.19     153412.2     2.188     2.100      4.551     83.80292  15.0854        164
 4.96   0.0057   1088.9498    642.6968  15.79     15940.42     1.412     1.265      4.449     83.67962  17.5437        165
 3.50   0.0004   1039.8876    633.0624  38.89     217097.1     2.281     2.203      4.460     83.73655  14.7084        166
 4.64   0.0021   1038.2603    525.3976  43.80     44280.68     1.796     1.748      4.525     83.84082  16.4345        167
 3.50   0.0000   1022.9846     50.2039  -5.55      2229090     2.736     2.690      4.655     83.75552  12.1797        168
 7.00   0.0156   1001.1524   1555.1804  43.91     5850.537     0.762     0.572      3.455     83.80292  18.6320        169
 3.91   0.0011   1009.4083    813.7189  68.05     84934.46     1.966     1.965      4.384     83.77448  15.7273        170
 5.94   0.0070   1010.7754    344.7836   5.43     12974.95     1.216     1.162      4.251     83.77448  17.7672        171
