#   1 KRON_RADIUS            Kron apertures in units of A or B                         
#   2 MAGERR_APER            RMS error vector for fixed aperture mag.                   [mag]
#   3 Y_IMAGE                Object position along y                                    [pixel]
#   4 X_IMAGE                Object position along x                                    [pixel]
#   5 THETA_IMAGE            Position angle (CCW/x)                                     [deg]
#   6 FLUX_APER              Flux vector within fixed circular aperture(s)              [count]
#   7 A_IMAGE                Profile RMS along major axis                               [pixel]
#   8 THRESHOLD              Detection threshold above background                       [count]
#   9 B_IMAGE                Profile RMS along minor axis                               [pixel]
#  10 FLUX_RADIUS            Fraction-of-light radii                                    [pixel]
#  11 FLUXERR_APER           RMS error vector for aperture flux(es)                     [count]
#  12 MAG_APER               Fixed aperture magnitude vector                            [mag]
#  13 NUMBER                 Running object number                                     
 4.86   0.0017     15.5051   1445.4932 -46.74     53074.48     1.024     204.3658     1.006      2.758     83.52609  16.2378          1
 6.39   0.0006     54.0584     63.5749 -10.08     151985.1     1.684     204.3658     1.580      6.877     83.63966  15.0955          2
 3.82   0.0004     60.7058   1078.2739 -44.06       241747     1.498     204.3658     1.421      2.832      83.5545  14.5916          3
 3.77   0.0004     81.0218    537.4087 -21.22     231866.9     1.466     204.3658     1.399      2.732     83.61128  14.6369          4
 3.60   0.0003    122.6223    788.9340 -53.89     344471.5     1.556     204.3658     1.487      2.786      83.6302  14.2071          5
 3.81   0.0000    182.6039   1107.5360 -25.85      2515255     3.720     204.3658     3.497      6.740     83.65857  12.0485          6
 3.81   0.0005    163.1475   1468.1447 -52.46     195442.6     1.447     204.3658     1.383      2.803     83.59235  14.8225          7
 5.24   0.0021    171.3526    877.1064 -77.56     43937.64     0.991     204.3658     0.873      2.647     83.54503  16.4429          8
 3.50   0.0001    194.4704    317.8973 -62.37      1474503     1.783     204.3658     1.695      2.779     83.57343  12.6284          9
 6.70   0.0007    235.9785    403.1781 -40.86       139165     1.628     204.3658     1.547      7.446      83.6302  15.1912         10
 3.50   0.0002    260.6039    997.2244 -50.01     597326.8     1.619     204.3658     1.553      2.806     83.61128  13.6095         11
 3.55   0.0002    266.7437     67.3990 -62.80     441305.6     1.543     204.3658     1.495      2.717     83.67747  13.9382         12
 4.07   0.0009    288.4044   1486.2412 -55.44     104464.2     1.295     204.3658     1.224      2.801     83.63966  15.5026         13
 6.30   0.0039    282.8256   1522.1621 -44.68     23256.77     0.749     204.3658     0.568      2.522      83.6302  17.1336         14
 3.50   0.0001    313.1986    439.2457 -59.08      1739021     1.832     204.3658     1.730      2.926     83.65857  12.4492         15
 4.33   0.0012    303.9892    201.5650 -45.08     76315.62     1.195     204.3658     1.132      2.656      83.6302  15.8435         16
 3.65   0.0003    319.5186    905.2858 -34.75     301397.8     1.524     204.3658     1.451      2.771      83.5545  14.3521         17
 4.82   0.0018    322.7849    697.0822 -57.21     50669.63     1.056     204.3658     0.978      2.640      83.6302  16.2881         18
 3.50   0.0001    352.2288    890.6065 -46.87      1585802     1.815     204.3658     1.717      2.849      83.6302  12.5494         19
 3.50   0.0001    352.2525   1345.7524 -56.54      1504457     1.778     204.3658     1.721      2.857     83.62074  12.6065         20
 5.88   0.0026    347.0532    866.9154 -48.33     34326.86     0.791     204.3658     0.773      2.647     83.56396  16.7109         21
 8.47   0.0032    356.5189    431.5003 -42.24     28087.51     0.502     204.3658     0.498      2.869     83.50715  16.9287         22
 4.74   0.0017    369.0077    760.7051 -79.69     52489.21     1.053     204.3658     1.021      2.745     83.59235  16.2498         23
 7.70   0.0045    368.4808    442.5013 -42.06     20150.69     0.502     204.3658     0.498      2.531     83.52609  17.2893         24
 3.72   0.0004    396.0456    231.2766 -35.89     256511.6     1.461     204.3658     1.380      2.671     83.57343  14.5272         25
 5.12   0.0022    399.1088    354.3893 -13.25        41584     0.992     204.3658     0.867      2.623     83.59235  16.5027         26
 5.67   0.0025    397.9830   1460.9752 -45.45     36707.58     0.788     204.3658     0.775      2.610     83.61128  16.6381         27
 3.74   0.0004    420.4218    433.1072 -52.88     234193.2     1.446     204.3658     1.377      2.727     83.58289  14.6261         28
 4.14   0.0008    416.4789    837.1694 -55.49     113053.9     1.303     204.3658     1.219      2.735     83.59235  15.4168         29
 8.22   0.0045    425.3104    926.3112 -44.96     20279.71     0.558     204.3658     0.343      2.267     83.52609  17.2823         30
 4.33   0.0011    438.8330    251.9164 -34.23     83618.84     1.177     204.3658     1.145      2.630     83.61128  15.7442         31
 3.50   0.0001    461.8869    807.3895 -44.78     724556.1     1.681     204.3658     1.582      2.835     83.61128  13.3998         32
 6.21   0.0034    451.2665     21.0131  -0.41     26484.23     0.727     204.3658     0.679      2.537     83.65857  16.9925         33
 5.95   0.0030    458.8433     34.1797  46.42     29831.11     0.802     204.3658     0.682      2.551      83.6302  16.8633         34
 4.81   0.0015    513.3164   1302.1306 -25.97     61404.48     1.111     204.3658     1.013      2.723      83.5545  16.0795         35
 6.66   0.0012    533.9017    518.6677  66.55     77143.23     1.244     204.3658     1.086      5.267     83.57343  15.8318         36
 3.50   0.0001    588.6876   1315.8713 -52.57      1619079     1.796     204.3658     1.720      2.850      83.5545  12.5268         37
 5.31   0.0025    573.4786   1242.5573 -59.29     36944.99     0.900     204.3658     0.894      2.738     83.59235  16.6311         38
 4.89   0.0018    583.1395    318.8649 -43.94     49981.47     1.062     204.3658     0.918      2.629     83.58289  16.3030         39
 5.01   0.0018    581.5244    144.7252 -73.75     50096.58     0.972     204.3658     0.943      2.638     83.57343  16.3005         40
 4.36   0.0011   1010.6372    813.6192 -39.87     85331.23     1.181     204.3658     1.104      2.691     83.63966  15.7222         41
 5.75   0.0027    823.9501    654.0552 -43.34     33991.93     0.787     204.3658     0.774      2.650     83.61128  16.7216         42
 5.98   0.0029    803.9869   1378.5068  -0.79     31076.23     0.799     204.3658     0.701      2.637     83.59235  16.8189         43
 5.14   0.0010    800.0245    695.4536 -64.67     89647.35     1.254     204.3658     1.137      3.697     83.65857  15.6687         44
 3.63   0.0003    727.4811    848.3226 -42.82       347479     1.537     204.3658     1.462      2.745     83.58289  14.1977         45
 3.50   0.0000    724.9271    404.7574 -59.90      1951132     1.832     204.3658     1.756      2.895     83.57343  12.3243         46
 3.56   0.0003    649.1620   1464.2963 -29.18       342030     1.515     204.3658     1.462      2.751     83.53556  14.2148         47
 4.96   0.0017    640.6193    536.6130 -44.49     53635.64     1.043     204.3658     0.934      2.710     83.59235  16.2264         48
 3.50   0.0000    631.9393    483.1886 -61.05      2505705     2.136     204.3658     2.048      3.181     83.63966  12.0527         49
 3.56   0.0003   1564.5635    304.2809 -28.46     302874.3     1.506     204.3658     1.423      2.611     83.60181  14.3468         50
 7.21   0.0010   1553.4933    681.9974 -23.21     91163.83     1.301     204.3658     0.954      5.861     83.57343  15.6504         51
 3.50   0.0001    860.0819   1224.5417 -43.10      1495456     1.776     204.3658     1.703      2.853     83.57343  12.6131         52
 3.61   0.0003   1558.8979    487.6865 -36.01     300360.8     1.472     204.3658     1.368      2.617     83.51662  14.3559         53
 3.80   0.0006   1508.0725    269.3786 -52.07     164109.4     1.364     204.3658     1.287      2.604     83.65857  15.0122         54
 5.03   0.0022   1515.7385    392.5552  -3.88     40369.67     0.969     204.3658     0.941      2.606     83.61128  16.5349         55
 5.70   0.0027    901.1491    302.6825  20.96     33148.26     0.884     204.3658     0.691      2.564     83.56396  16.7488         56
 3.50   0.0002    881.0755   1592.5504 -46.37     582796.2     1.606     204.3658     1.528      2.776      83.5545  13.6362         57
 3.74   0.0000    882.7612    183.7764 -55.66      2530666     2.877     204.3658     2.750      4.254      83.6302  12.0419         58
 3.50   0.0001   1435.2375   1090.4563 -26.28     734558.1     1.633     204.3658     1.549      2.817     83.62074  13.3849         59
 4.32   0.0010   1420.2874   1126.2562 -64.72     93505.52     1.300     204.3658     1.186      2.900     83.56396  15.6229         60
 3.94   0.0006    985.6486    558.4360 -41.36     151588.5     1.318     204.3658     1.273      2.691      83.6302  15.0983         61
 4.33   0.0012    930.5248   1178.4257 -41.94     77863.23     1.189     204.3658     1.170      2.709     83.60181  15.8217         62
 3.51   0.0002   1394.2950    114.4837 -36.63     410326.1     1.526     204.3658     1.455      2.616     83.50715  14.0172         63
 3.55   0.0000   1367.0236   1159.8558 -58.65      2976370     2.473     204.3658     2.368      3.580     83.63966  11.8658         64
 5.22   0.0024   1389.5529   1428.4657 -42.73     38452.34     0.897     204.3658     0.893      2.672     83.59235  16.5877         65
 4.25   0.0009   1026.5674   1379.9438 -84.01     99478.77     1.262     204.3658     1.157      2.694     83.63966  15.5557         66
 5.04   0.0020   1373.5006   1018.7472 -78.33     45099.02     0.969     204.3658     0.942      2.693     83.51662  16.4146         67
 3.92   0.0006   1095.7095    778.1710 -30.59     154358.5     1.371     204.3658     1.268      2.653     83.58289  15.0787         68
 4.81   0.0017   1105.3590    751.7367   5.37     54732.45     1.058     204.3658     0.964      2.652     83.61128  16.2044         69
 3.77   0.0005   1080.7495    512.1101 -28.93     169951.5     1.398     204.3658     1.296      2.658     83.57343  14.9742         70
 4.93   0.0018   1082.5737   1148.1327 -22.46     49468.16     1.026     204.3658     0.946      2.660     83.62074  16.3142         71
 3.85   0.0006   1320.9321    659.9506 -24.57     155239.6     1.371     204.3658     1.305      2.633     83.60181  15.0725         72
 4.19   0.0011   1130.8640    183.4575 -18.08     83514.44     1.250     204.3658     1.135      2.604     83.57343  15.7456         73
 5.61   0.0025   1292.3480    761.8776 -75.25     35776.02     0.982     204.3658     0.746      2.632     83.56396  16.6660         74
 3.50   0.0001   1299.2850    724.8998 -34.46     965871.1     1.694     204.3658     1.594      2.713     83.50715  13.0877         75
 6.98   0.0041   1278.9838   1331.2582  89.08     21903.35     0.672     204.3658     0.438      2.447     83.62074  17.1987         76
 7.62   0.0016   1273.7045    609.7283 -44.52     57432.32     0.963     204.3658     0.765      4.736     83.56396  16.1521         77
 4.31   0.0012   1215.4818    512.9621 -12.44     75776.59     1.167     204.3658     1.113      2.614     83.60181  15.8512         78
 5.10   0.0019   1219.5741   1194.7312  83.50     49039.25     0.966     204.3658     0.946      2.719     83.62074  16.3236         79
 3.77   0.0000   1222.0573    995.4416 -16.90      2887864     3.888     204.3658     3.433      7.033     83.59235  11.8986         80
 3.66   0.0000   1152.3896    693.8918 -42.12      3053402     2.541     204.3658     2.462      3.300     83.59235  11.8380         81
 3.93   0.0006   1139.3658    148.0536 -28.31     160259.2     1.378     204.3658     1.257      2.630      83.6302  15.0379         82
 3.65   0.0004   1166.0062   1299.8251 -34.08     257167.7     1.441     204.3658     1.411      2.671     83.62074  14.5245         83
 5.79   0.0030   1158.8514    236.3468  19.75     29772.74     0.888     204.3658     0.691      2.532     83.61128  16.8655         84
 5.63   0.0026   1108.2169    427.9699 -88.64     35369.14     0.895     204.3658     0.755      2.576     83.63966  16.6784         85
 3.50   0.0000   1024.3763     50.2278 -48.04      2239734     1.815     204.3658     1.741      2.931     83.62074  12.1745         86
 4.92   0.0020   1039.5017    525.2902 -56.20     44517.54     0.969     204.3658     0.949      2.645     83.52609  16.4287         87
 3.65   0.0004   1041.0862    633.0443 -40.55     218331.3     1.457     204.3658     1.364      2.636     83.58289  14.7022         88
