#   1 KRON_RADIUS            Kron apertures in units of A or B                         
#   2 Y_IMAGE                Object position along y                                    [pixel]
#   3 MAG_BEST               Best of MAG_AUTO and MAG_ISOCOR                            [mag]
#   4 FLUX_BEST              Best of FLUX_AUTO and FLUX_ISOCOR                          [count]
#   5 X_IMAGE                Object position along x                                    [pixel]
#   6 THETA_IMAGE            Position angle (CCW/x)                                     [deg]
#   7 A_IMAGE                Profile RMS along major axis                               [pixel]
#   8 B_IMAGE                Profile RMS along minor axis                               [pixel]
#   9 MAGERR_BEST            RMS error for MAG_BEST                                     [mag]
#  10 NUMBER                 Running object number                                     
#  11 FLUXERR_BEST           RMS error for BEST flux                                    [count]
 3.50    182.2387  13.5727     617882.1   1107.8212 -39.89     4.912     4.532   0.0003          1     170.4837
 3.50     59.9974  16.3202     49192.71   1078.7438 -71.19     3.045     3.014   0.0024          2     109.6346
 3.80     53.4462  16.4582        43325     63.9191   1.33     5.337     4.876   0.0050          3     199.9098
 4.08     16.9279  18.6437     5787.775    985.4625 -87.34     4.427     2.434   0.0258          4     137.5224
 3.50     18.2198  19.0820     3865.515     91.5117 -89.07     2.184     2.115   0.0215          5     76.42053
 3.54     14.9005  18.0163      10315.6   1446.0903 -42.62     2.591     2.467   0.0097          6     92.31722
 8.06      7.3019  22.8420     121.1184   1466.3320 -43.42     0.563     0.340   0.3304          7     36.85326
 6.31      5.0664  21.6110     376.3416    144.8630 -83.56     0.803     0.681   0.1397          8     48.40279
 8.49      4.0000  22.9450     110.1506   1580.0042   0.00     0.836     0.289   0.4413          9     44.75812
 6.11     25.1080  20.6168      940.338    367.6416  25.91     1.770     1.749   0.1284         10     111.1723
 8.10     17.1741  21.5468     399.2919    385.0856 -33.22     1.396     0.608   0.2091         11     76.86356
 6.87     34.8687  21.5293     405.7673   1109.8557  64.00     1.403     0.661   0.1832         12     68.45188
 3.50     80.3081  16.3762     46720.17    537.8431 -75.15     2.976     2.935   0.0025         13     106.9697
 7.99     37.7023  21.6750     354.7982   1521.1277  69.14     0.976     0.690   0.2041         14     66.69319
 7.59     38.6061  21.8014     315.8296   1170.7451  18.03     0.754     0.451   0.1590         15     46.25047
 6.75     42.1870  22.0860     242.9922    915.0546  36.06     0.940     0.466   0.2067         16     46.25047
 0.00     44.2103  99.0000    -47.03296    564.4238  70.29     0.750     0.451  99.0000         17     32.96255
 4.53     75.2320  20.0938     1522.295    128.0787  -2.00     2.038     1.769   0.0635         18     88.94547
 3.50    121.9990  15.9474     69348.59    789.4222 -43.34     3.091     2.991   0.0017         19     109.7893
 8.19     80.6871  21.6406      366.238    422.8607 -69.48     1.831     0.583   0.2580         20     87.01583
 6.63     90.7526  20.6044     951.1104    377.0970  89.82     2.137     1.682   0.1482         21     129.7737
 4.32     96.7815  19.6145     2367.087     56.4106 -47.91     2.142     1.995   0.0424         22     92.31722
 3.50    193.6603  14.3607     299037.1    318.2503 -65.56     3.620     3.229   0.0004         23     123.7468
 6.51     97.9849  20.8889     731.8563    453.0418 -10.20     1.999     0.927   0.1359         24     91.57867
 3.96    170.5666  18.1787     8882.059    877.6066 -15.84     2.602     2.549   0.0129         25     105.5317
 3.50    162.5963  16.5664     39214.49   1468.6017 -50.03     2.946     2.848   0.0029         26     105.0479
 4.04    234.9475  16.2965     50279.14    403.9568 -44.17     6.716     5.681   0.0056         27     257.7094
 0.00    131.7585  99.0000    -44.26782   1511.9980  -0.09     0.691     0.428  99.0000         28     26.05919
 7.85    131.3489  22.3064     198.3514    417.6746  45.96     0.580     0.331   0.1967         29     35.92011
 6.89    165.6580  20.9948     663.8877   1446.0771 -42.49     1.415     1.198   0.1513         30     92.50094
 4.73    166.8963  21.2533     523.2015    104.9961 -74.33     1.508     1.309   0.1416         31     68.20341
 5.90    159.3234  25.3430     12.10046    537.6866  45.51     0.564     0.340   2.3965         32     26.70272
 6.19    192.8279  20.4098     1137.812   1350.5507 -34.85     2.995     1.451   0.1268         33     132.8763
 5.02    211.0280  18.9139     4512.558    827.9761  -4.84     4.227     2.650   0.0418         34     173.7388
 4.53    206.7372  19.9494     1738.681    549.4034 -48.39     2.105     1.879   0.0580         35     92.86728
 4.65    212.5210  20.0826     1538.064   1306.4326 -68.03     2.091     1.821   0.0665         36     94.13824
 5.40    230.1652  18.9485     4371.315    562.5081 -38.49     3.810     3.408   0.0500         37     201.1796
 6.08    209.1250  20.7733     814.0861    349.5309  12.30     2.423     1.452   0.1566         38      117.411
 3.50    260.0322  15.4920     105482.5    997.7167 -32.12     3.194     3.098   0.0012         39     113.5894
 7.81    202.8634  22.0108     260.4114    250.2823  19.02     0.953     0.674   0.2695         40     64.62468
 6.93    210.9014  21.3483     479.3829    684.3036 -59.48     1.540     1.020   0.2036         41     89.89475
 4.16    224.0377  19.6878     2212.561   1226.2937 -23.73     2.086     1.923   0.0423         42     86.23189
 7.03    221.8811  20.8393     766.0894    346.7842   7.61     2.225     1.519   0.1893         43     133.5136
 5.37    222.7527  21.3821     464.6649    775.3899 -54.77     1.809     1.449   0.2088         44     89.32639
 3.50    266.0527  15.6779     88888.91     67.7354 -43.78     3.128     3.024   0.0014         45     110.7132
 5.84    243.7053  19.9871     1679.348    113.0364 -77.12     2.694     1.956   0.0895         46     138.3839
 3.50    312.5910  14.1416     365894.8    439.6373 -48.13     3.406     3.276   0.0004         47     120.4092
 7.24    239.4138  21.5862     385.0468    838.7144 -80.72     1.844     0.858   0.2650         48     93.95773
 4.74    255.5604  19.0699     3908.855    613.4468 -39.07     3.019     2.554   0.0378         49     136.0329
 7.87    229.6942  25.1418     14.56335    538.6587 -43.29     0.568     0.338   2.7482         50     36.85326
 3.50    287.9363  17.2535     20826.54   1486.5533 -28.72     3.094     2.740   0.0055         51     105.0479
 8.46    252.1395  21.2056      546.712   1374.1746   9.83     0.995     0.700   0.1436         52     72.31131
 7.81    253.6793  22.5244     162.2714   1353.6771 -44.89     0.567     0.339   0.2404         53     35.92011
 3.50    282.1217  18.9538     4349.812   1522.4907 -38.99     2.404     2.334   0.0213         54     85.44076
 3.50    351.6739  14.2762     323248.4    891.0381 -50.77     3.498     3.322   0.0004         55     122.9209
 3.50    318.9506  16.0879     60930.61    905.7338 -52.66     3.057     2.975   0.0019         56     108.8576
 3.50    303.2986  17.5866     15324.07    201.9461  81.04     2.728     2.688   0.0069         57     97.85216
 4.90    289.9463  19.9896     1675.573    515.3391  73.50     2.317     2.098   0.0724         58     111.7815
 3.50    351.7511  14.3158     311663.2   1346.0488 -34.10     3.424     3.249   0.0004         59     120.1269
 4.32    294.1810  19.8665     1876.714   1327.9517 -78.21     2.116     1.894   0.0517         60     89.32639
 5.65    298.0721  20.5082     1039.222   1413.6317 -45.20     2.558     1.413   0.1155         61     110.5598
 3.50    322.3132  18.0617     9892.523    697.5565  78.95     2.545     2.527   0.0101         62     91.94868
 6.17    302.6077  21.2668     516.7677    563.7846  -2.74     1.690     1.453   0.2110         63     100.4209
 4.52    346.6619  18.3811     7371.649    867.2843  27.15     2.916     2.612   0.0143         64     96.91774
 8.03    308.3838  21.1075     598.4237     86.2233  87.87     1.279     0.996   0.1692         65     93.23218
 5.75    327.8482  19.9433     1748.598    595.7621 -36.78     2.316     2.180   0.0829         66     133.5136
 7.13    323.0114  20.9698     679.3021    640.0057  69.43     1.493     1.018   0.1446         67     90.45954
 7.88    321.4943  21.1978     550.6487    643.4767  50.10     1.843     0.825   0.1997         68     101.2627
 4.04    355.9810  18.6362     5827.802    432.0928  80.61     2.694     2.476   0.0200         69     107.1283
 7.19    331.8545  21.4185     449.3463     93.1126  72.97     1.157     0.864   0.1814         70     75.07579
 3.66    368.6590  17.9903     10564.85    760.9850 -48.40     3.229     2.592   0.0113         71     109.4796
 7.55    329.5132  22.3478     190.9279   1546.5171  -0.14     1.090     0.500   0.3298         72     57.97803
 6.66    335.8877  21.5914     383.2229   1440.3259   8.40     1.151     0.720   0.1755         73     61.94198
 5.33    349.9268  20.8884      732.204     54.7275 -33.05     1.707     1.422   0.1270         74     85.63923
 4.08    367.4095  19.0432     4005.915    442.9427  73.16     2.468     2.457   0.0280         75     103.4192
 3.50    395.3917  16.2694     51553.25    231.5978 -62.86     3.045     2.976   0.0023         76     108.2319
 4.55    361.4847  20.0418     1596.959   1500.6577 -19.24     2.057     1.898   0.0633         77      93.0499
 5.79    361.1364  21.8524     301.3208   1034.1516  63.30     1.358     0.944   0.2467         78     68.45188
 7.96    359.5301  21.8192     310.6783    533.7626 -62.94     1.324     0.535   0.2419         79     69.19193
 7.34    362.5314  22.3663     187.7007   1415.3390 -89.56     0.920     0.473   0.2900         80     50.12585
 5.59    381.1294  23.6446      57.8324      1.9302  89.15     2.381     0.903   1.2993         81     69.19193
 5.49    372.8766  21.3077     497.6393    992.5557 -78.52     1.555     1.090   0.1614         82     73.93649
 6.97    372.0318  21.5599     394.4762     70.7653 -55.38     1.399     0.754   0.2035         83     73.93649
 3.83    398.3482  18.2612     8232.406    354.7326  46.69     2.574     2.564   0.0134         84     101.5974
 3.62    397.4170  18.4483     6929.163   1461.3718 -31.94     2.577     2.377   0.0145         85     92.50094
 6.50    370.0134  22.3883     183.9418    209.0098  -0.68     0.615     0.606   0.2333         86     39.52071
 8.08    372.8884  21.4604     432.3601   1084.1632 -12.05     1.030     0.665   0.1738         87     69.19193
 3.50    419.8457  16.3676     47095.43    433.5670 -54.32     2.911     2.899   0.0024         88     104.7242
 3.73    393.9712  19.9100     1803.005   1088.8979 -52.36     1.987     1.909   0.0458         89     75.97493
 5.12    412.5887  21.3453     480.6849      2.3713  89.00     3.544     1.277   0.2086         90     92.31722
 3.50    415.8865  17.1678     22536.95    837.5073 -42.69     2.795     2.687   0.0048         91     99.23042
 7.66    382.1581  22.1001     239.8511     67.4952 -36.04     0.910     0.678   0.2780         92     61.39137
 7.63    383.7711  22.8019     125.6773      9.8583  11.59     1.358     0.557   0.2995         93     34.65901
 7.90    397.2685  21.0421     635.5813    626.1052 -77.88     1.385     0.808   0.1470         94     86.03479
 3.50    424.4074  19.0434     4005.444    926.5994 -74.38     2.411     2.207   0.0226         95     83.43011
 3.50    438.1793  17.4936     16694.49    252.3252  -7.72     2.790     2.705   0.0065         96     99.74236
 3.50    461.3314  15.1388     146046.2    807.6804 -41.34     3.178     3.081   0.0008         97     113.5894
 6.42    420.9558  20.6350     924.6981    159.3079  43.28     2.158     1.705   0.1491         98     126.9968
 5.20    433.1000  20.3839     1165.311   1422.1897  69.53     1.816     1.716   0.0887         99     95.21415
 4.50    450.5894  18.7214     5388.085     21.4207  29.10     2.486     2.460   0.0231        100     114.7788
 5.81    426.7534  21.3336      485.912   1180.0172  34.23     1.461     0.792   0.1444        101     64.62468
 4.72    468.1039  18.3597      7518.35    851.1541  23.76     7.117     2.572   0.0302        102      208.799
 6.89    434.3987  21.4425     439.5319    150.7365   5.03     1.835     1.044   0.2435        103      98.5437
 8.49    431.0077  21.5843     385.7205    720.1688  54.18     0.930     0.469   0.1607        104     57.09282
 6.20    444.9543  20.5033     1043.936    122.5157  59.24     1.881     1.549   0.1139        105     109.4796
 4.06    457.9190  18.6144     5946.408     34.5368 -17.68     2.654     2.427   0.0194        106     106.4925
 5.31    440.3495  21.3729     468.6455    305.9941   4.53     1.300     1.115   0.1528        107     65.92511
 5.33    447.8613  20.7798     809.2147    885.2292   1.04     1.961     1.221   0.1149        108     85.63923
 4.20    463.9481  19.8773     1858.144    468.8448  47.85     2.214     1.898   0.0520        109     88.94547
 5.99    461.4201  21.4353     442.4713   1096.9908  70.01     1.411     1.077   0.1859        110     75.75114
 8.24    452.3464  22.2284     213.1321   1534.3280 -45.75     0.581     0.331   0.1924        111     37.76335
 3.50    478.1534  19.4170     2839.335    923.1714 -42.86     2.291     2.063   0.0299        112     78.17756
 3.63    472.2752  19.6935     2200.819    735.0540  13.65     2.058     1.947   0.0374        113     75.75114
 5.14    471.5919  20.1243     1480.052    254.7253   9.05     1.980     1.869   0.0750        114     102.2636
 5.65    455.3133  24.0496     39.82458   1227.3334 -44.02     0.568     0.338   0.6926        115     25.39935
 3.98    596.9890  18.5080     6558.351    782.9262 -87.82     3.615     3.453   0.0239        116     144.6226
 4.31    478.5005  20.5257     1022.588   1277.1139 -65.71     2.064     1.726   0.0892        117     84.03835
 7.45    462.3968  22.0181     258.6859    722.7952 -12.80     1.120     0.417   0.2202        118      52.4431
 3.50    512.7224  17.7353      13361.9   1303.0808   1.00     3.397     2.606   0.0087        119     107.2867
 4.37    533.1533  17.1859     22163.49    519.0990  25.24     4.785     4.361   0.0101        120     206.8384
 6.02    495.6913  19.4359      2790.25     82.7940 -76.01     2.777     2.530   0.0642        121     164.9157
 3.92    483.9861  20.3879     1161.047   1070.6866 -32.20     1.908     1.620   0.0665        122     71.12774
 4.69    495.7628  19.6720     2244.896   1186.4955 -10.67     3.121     2.244   0.0621        123     128.3266
 6.94    489.6826  21.0884      609.014    839.3377  48.25     1.545     1.140   0.1695        124     95.03568
 4.65    502.2021  21.0127     652.9948    863.7810 -39.11     1.826     1.368   0.1264        125     75.97493
 5.54    504.4456  20.3681     1182.333    763.2783 -18.82     2.324     1.464   0.0972        126     105.8529
 4.30    515.7267  19.3223      3098.04   1461.0349  21.85     4.019     2.030   0.0446        127     127.1304
 8.21    499.3254  21.8040     315.0693    366.3373 -44.48     0.576     0.334   0.1302        128     37.76335
 3.50    588.2134  14.2382     334743.6   1315.9587 -42.43     3.351     3.219   0.0004        129     118.9909
 8.43    510.5000  21.0244     646.0135    163.0072 -31.60     1.377     0.905   0.1642        130      97.6785
 7.83    509.5540  21.1649     567.6195    166.5013  60.62     1.072     0.826   0.1466        131     76.64236
 6.71    509.5146  22.2896     201.4471    454.2385 -89.84     0.978     0.719   0.3110        132     57.68447
 6.10    513.6796  21.0792     614.2207   1179.5034   5.85     1.539     1.119   0.1461        133     82.61214
 6.29    518.5699  21.1982     550.4614    642.8600 -29.67     1.255     0.759   0.1265        134     64.09712
 3.53    540.5427  19.8772     1858.236   1000.0333 -48.23     2.151     1.744   0.0416        135     71.12774
 8.69    536.4771  22.0483     251.5803    402.4881 -37.00     0.500     0.499   0.1948        136     45.13583
 3.52    559.1711  19.5966      2406.28   1041.8425 -30.51     2.139     1.954   0.0336        137      74.3943
 3.56    572.9426  18.3748     7414.708   1242.7992 -27.79     2.522     2.450   0.0133        138     91.02083
 3.50    631.4161  13.9925     419758.1    483.3755 -44.03     3.483     3.337   0.0003        139     123.7468
 3.83    580.9929  18.0743     9778.842    145.0090 -71.13     2.633     2.498   0.0112        140     101.2627
 3.54    582.3829  18.0800     9727.682    319.3545 -38.03     2.643     2.519   0.0106        141     95.03568
 4.74    571.4081  20.0660     1561.746     45.8489  54.95     2.361     1.903   0.0721        142      103.747
 0.00    550.7809  99.0000    -8.294556    143.9820  -0.87     0.655     0.414  99.0000        143     23.30804
 4.61    571.8535  20.0480     1587.782   1447.7355  40.13     2.426     1.906   0.0698        144     102.0975
 8.47    565.4221  21.4286     445.1925    139.1938 -84.40     1.745     0.805   0.2531        145      103.747
 6.35    575.3669  20.1609     1430.934   1336.4686 -61.19     2.361     1.801   0.0591        146     77.86434
 5.78    577.0038  20.8738      742.118   1002.5832  -1.68     1.329     1.013   0.1013        147     69.19193
 4.94    584.7218  20.9203     711.0225     75.8023  73.68     1.554     1.136   0.1026        148     67.20037
 3.50    605.4258  20.4197     1127.471    586.3757 -89.35     1.953     1.583   0.0612        149     63.56519
 3.50    985.2014  16.8526     30126.77    558.6801 -34.53     2.937     2.856   0.0038        150     104.7242
 5.26   1598.7227  21.2998     501.2707    655.0228 -33.96     1.480     1.007   0.0780        151     35.98721
 6.25   1595.9941  20.2020     1377.843    652.7838 -22.73     1.121     0.683   0.0420        152     53.28978
 0.00   1599.4045  99.0000    -10.04443     20.3169 -17.39     1.692     0.641  99.0000        153     39.94798
 8.91   1594.3894  21.8046     314.8989   1387.1508  19.77     0.757     0.441   0.1842        154     53.40544
 4.10   1584.9974  20.3004     1258.508   1108.8921  -5.70     1.845     1.581   0.0622        155     72.07615
 5.03   1585.4873  23.3201     77.97668   1068.7311  53.74     1.360     0.225   0.3976        156     28.54641
 3.50   1566.8105  19.8228      1953.71     22.0706  39.44     2.151     1.984   0.0415        157     74.62215
 3.54   1565.8353  20.1163     1490.995    784.5983  73.81     2.207     1.782   0.0525        158     72.07615
 3.50   1558.1235  16.0887     60884.05    487.7611 -84.10     2.956     2.930   0.0019        159     106.8109
 3.50   1552.8148  17.0483     25158.68    682.2031 -28.16     4.833     4.349   0.0072        160      165.942
 5.03    860.5712  20.5794     973.3281   1157.2614  64.74     1.678     1.440   0.0903        161     80.95142
 5.33    858.9348  20.7919     800.2797   1339.6710 -55.93     1.493     1.142   0.0981        162     72.31131
 7.29    888.8391  21.0465     633.0098    326.1275 -21.70     1.643     1.358   0.1936        163     112.8396
 7.89    857.8146  24.5837     24.35217    144.3609 -72.36     0.763     0.442   2.1270        164     47.69614
 7.36    845.2385  21.0572      626.764   1206.7559  81.58     1.556     1.285   0.0865        165     49.93425
 6.71    845.2845  20.9923      665.385   1064.4720 -12.05     1.499     1.313   0.1586        166     97.15569
 5.66    843.5905  20.2610     1304.946   1106.4135  36.83     1.834     1.672   0.0857        167     102.9255
 5.49    838.0015  19.5904     2420.085   1247.0173 -49.58     2.417     2.125   0.0579        168      129.118
 5.67    836.8416  20.4280      1118.96    299.0053 -59.74     2.103     1.772   0.1100        169       113.29
 8.05    837.6497  22.1610     226.7703   1521.6752 -46.05     0.581     0.331   0.1808        170     37.76335
 6.16    836.1196  21.5569     395.5854    819.3091 -20.89     0.916     0.679   0.1385        171      50.4634
 3.50    823.2621  18.4456     6946.374    654.5388 -44.83     2.488     2.416   0.0139        172     88.94547
 3.50    803.3778  18.5415     6359.025   1378.7488 -35.95     2.436     2.303   0.0147        173     85.83723
 3.50    798.7994  17.3997     18202.61    695.8089 -82.98     3.169     2.692   0.0063        174     105.5317
 4.14    800.9179  19.5136     2597.622     41.2440 -35.56     2.371     2.164   0.0406        175     97.15569
 5.85    797.7188  26.8634      2.98291   1544.2725 -69.71     0.853     0.355  11.4244        176     31.37942
 3.50    774.7056  19.3863     2920.584   1427.5811  88.74     2.780     2.435   0.0350        177     94.13824
 5.34    766.9963  20.3088     1248.709    392.1560  23.59     2.053     1.800   0.0919        178     105.6924
 7.04    767.9082  21.6179     373.9833    142.2719  -7.29     1.058     0.677   0.1783        179     61.39137
 8.00    757.6758  22.1700     224.9132   1342.3060  45.97     0.561     0.341   0.1757        180     36.38968
 4.38    742.8175  20.1042     1507.705    556.4475  36.94     1.969     1.806   0.0608        181     84.44141
 3.50    724.3953  14.0156     410911.5    405.0844 -45.56     3.523     3.346   0.0003        182     124.0209
 6.27    737.9290  20.9780     674.1964   1158.6467 -60.22     1.599     1.111   0.1402        183     87.01583
 3.98    727.8657  20.2552     1311.926   1178.3289  -4.90     1.896     1.746   0.0614        184     74.16574
 7.37    723.0043  21.2033     547.8591   1395.6741 -15.87     1.218     0.677   0.1376        185     69.43685
 3.50    726.8715  15.9287     70551.05    848.5637 -46.77     3.084     2.997   0.0017        186     110.2522
 3.50    715.9310  20.1740     1413.817    808.4232   3.82     1.831     1.767   0.0502        187     65.40804
 3.84    709.0284  20.0532     1580.294   1164.1351 -18.22     1.890     1.633   0.0486        188     70.64876
 4.75    736.2467  20.7481     833.2367    649.9886 -54.96     1.406     1.214   0.0839        189     64.36144
 4.73    704.5935  19.9030     1814.653   1339.0583 -47.86     2.128     1.899   0.0588        190     98.19854
 4.10    703.0588  19.4039     2873.662    952.6016 -17.93     2.164     2.110   0.0341        191     90.27167
 6.69    698.3197  21.3127     495.3385    583.5120  20.28     1.702     1.316   0.2267        192     103.4192
 6.73    691.0156  21.2362     531.5042   1214.0000 -37.90     1.666     1.096   0.0892        193     43.67465
 5.93    687.3190  20.9526      690.175   1214.3245 -15.60     1.880     1.215   0.1461        194     92.86728
 5.26    683.3900  19.4351     2792.287    472.1355 -82.59     2.724     2.361   0.0537        195     138.1383
 8.76    687.4053  22.8308     122.3763    132.1882  19.49     0.759     0.446   0.4739        196     53.40544
 5.14    681.3306  19.8327     1936.142    543.5062 -79.88     2.544     2.318   0.0725        197     129.2494
 3.90    685.7884  19.7535     2082.519    644.3531 -76.82     2.205     2.099   0.0450        198     86.23189
 3.50    648.6778  15.9588     68623.73   1464.4425 -41.77     3.032     2.936   0.0017        199     107.6027
 4.48    654.8028  21.1370     582.3905    871.6137  16.84     1.473     1.161   0.1129        200     60.55608
 3.50   1541.9684  19.1224     3724.414    134.9627 -88.98     2.309     2.183   0.0237        201     81.36978
 3.50    639.9554  17.9828     10638.17    537.0042 -77.65     2.603     2.508   0.0094        202     91.94868
 7.45    644.9847  21.7296     337.4106    653.9762  45.87     0.903     0.526   0.1729        203     53.72239
 3.92    630.8015  20.8788     738.7416    806.2889  -7.28     1.543     1.099   0.0776        204     52.76583
 3.66    623.5600  20.2426     1327.274   1581.1152   6.84     1.716     1.666   0.0529        205     64.62468
 9.28    618.5421  21.5135     411.7032   1151.5134 -42.69     0.509     0.489   0.1267        206     48.05077
 7.59   1594.4321  21.0697     619.5984    374.4944 -88.56     1.109     0.499   0.0995        207     56.79468
 5.57    878.4634  21.0933     606.2767    960.6149  41.36     1.300     0.644   0.0945        208     52.76583
 3.50    913.3269  20.5647     986.5743    838.5448 -74.58     1.717     1.401   0.0625        209     56.79468
 9.33   1536.9894  21.4371     441.7289   1428.7147 -86.80     0.740     0.689   0.1677        210     68.20341
 6.47   1516.2203  21.1895     554.8762   1547.8488  86.81     1.542     1.161   0.1756        211      89.7057
 3.50   1570.5266  19.9742     1699.494     92.6435 -55.10     1.908     1.798   0.0426        212     66.69319
 3.50    880.6585  15.3789     117065.7   1592.4357 -70.60     3.100     2.929   0.0010        213     105.6924
 3.50   1563.8154  16.0797     61394.66    304.2059 -48.02     3.028     2.968   0.0019        214      109.169
 7.91   1550.8585  21.7068      344.573   1221.9041 -43.50     0.840     0.673   0.1935        215     61.39137
 3.50   1507.2974  16.7533     33012.43    269.3668 -83.66     2.892     2.852   0.0034        216     104.0737
 7.93    869.6841  22.0768     245.0559    642.6816 -44.87     0.563     0.341   0.1592        217     35.92011
 4.82   1561.5085  20.6677     897.2255    861.5500  13.31     1.943     1.459   0.1012        218     83.63335
 3.74   1546.2635  20.7786     810.1077    863.2228  11.30     2.004     1.434   0.0884        219     65.92511
 7.07    595.3417  22.8205     123.5338    882.6633  45.20     0.582     0.330   0.2759        220     31.37942
 4.65    868.4896  20.3859     1163.199    939.5784  10.68     2.196     1.445   0.0803        221     86.03479
 6.36   1532.8143  21.1121     595.8925    415.7062  51.44     1.225     0.867   0.1229        222     67.45253
 7.13    901.4646  23.8800     46.55762      1.5281  44.22     0.507     0.490   0.7320        223     31.37942
 7.25   1504.3042  22.5923     152.4282   1312.3025 -45.11     0.551     0.345   0.2274        224     31.91586
 5.43    896.1943  20.1927      1389.64    538.6276 -19.70     2.337     2.200   0.0995        225     127.2638
 3.50   1542.7661  19.5750     2454.784    654.7966 -57.64     2.277     2.084   0.0348        226     78.61068
 7.79   1515.3047  21.3589     474.7083    483.5810 -40.07     1.280     0.506   0.1478        227     64.62468
 4.90    876.1676  22.2767     203.8512    542.0864 -47.54     0.851     0.656   0.1988        228     37.31108
 3.50    859.6343  14.3510     301727.1   1224.5459 -40.66     3.396     3.237   0.0004        229     119.8439
 4.79    869.7753  19.2793     3223.058   1104.0787 -26.09     2.597     2.296   0.0408        230     121.1122
 3.99    900.7181  18.5088     6553.414    303.0515 -32.65     2.680     2.385   0.0173        231      104.562
 7.19   1496.8009  21.9415       277.59    844.6091  70.45     0.764     0.441   0.1660        232     42.42128
 3.50   1514.9398  18.2510     8310.158    392.6765 -49.10     2.545     2.449   0.0118        233      90.0834
 5.72    879.2748  18.3258     7756.889    224.6334  89.97     6.994     2.595   0.0353        234     252.1151
 3.50    886.1868  20.5794     973.2767   1500.2448 -41.32     1.734     1.507   0.0647        235     57.97803
 5.71   1504.2100  20.4463     1100.255    723.5041 -13.85     1.558     1.364   0.0851        236     86.23189
 5.66    877.8342  20.1504     1444.882   1177.6235 -22.53     2.037     1.581   0.0788        237     104.8862
 4.83    885.9565  20.6636     900.6566   1304.5952  74.75     1.837     1.309   0.0935        238     77.52334
 4.16    939.6153  19.7934     2007.419   1067.3606 -62.21     2.125     1.952   0.0475        239     87.79278
 4.22    912.7669  21.4739     426.9977   1000.8740  -5.73     1.258     0.702   0.1058        240     41.61318
 8.46   1437.4961  22.1275     233.8925   1347.4993  44.96     0.505     0.495   0.1951        241     42.01918
 6.71    938.1220  20.7788     809.9994    516.4686 -38.73     1.776     1.478   0.1505        242     112.2362
 3.50    930.0122  17.5698     15561.96   1178.4865 -34.70     2.779     2.627   0.0068        243     97.85216
 4.71   1400.8264  20.5595     991.2816   1031.8337   3.40     1.910     1.590   0.0936        244     85.44076
 3.50   1434.5859  15.1234     148129.7   1090.4143 -59.11     3.213     3.117   0.0008        245     114.4826
 3.50    947.4985  21.8223     309.8022    445.8221  20.30     1.299     0.861   0.1339        246     38.21027
 3.50   1388.9996  18.3690     7454.277   1428.3959 -75.23     2.420     2.373   0.0127        247     87.01583
 3.50   1415.5215  20.0094     1645.253   1386.5270 -14.68     1.947     1.825   0.0452        248     68.45188
 3.50    882.3248  14.2025     345938.7    184.0812 -36.94     3.744     3.550   0.0004        249     131.4634
 3.76    929.0295  20.3901     1158.711   1322.1692 -23.98     1.747     1.621   0.0615        250     65.66708
 6.82    947.4278  22.9795     106.7128    133.6909   9.02     1.035     0.473   0.4997        251     49.09927
 3.69   1390.5596  19.4344     2794.142    713.4028 -44.33     2.299     1.973   0.0317        252     81.57816
 3.80   1435.3816  19.1340     3684.705    224.9037  54.77     2.253     2.167   0.0256        253     86.82051
 3.50   1393.5499  15.7519     83032.32    114.3857 -47.92     3.046     2.986   0.0014        254     108.7015
 3.50   1439.8134  19.5251      2570.23    619.3231 -57.22     2.161     2.065   0.0325        255     76.86356
 7.28   1434.3214  21.7718     324.5358    341.6860  45.38     0.564     0.340   0.1068        256     31.91586
 3.50   1419.4348  17.3666     18765.38   1126.3322 -54.97     2.854     2.716   0.0058        257     100.9268
 3.67   1411.3929  21.0452     633.7354    349.9223  61.00     1.809     1.631   0.1103        258     64.36144
 6.18   1406.2505  21.0151     651.5933    329.1994  37.89     1.346     1.177   0.1339        259     80.31981
 6.47   1065.9886  21.3971     458.3059   1596.7365  52.89     1.278     0.626   0.1339        260     56.49497
 5.15   1412.4729  21.9765     268.7882      1.6512 -88.48     1.958     0.672   0.2093        261     51.79161
 3.50   1366.4746  14.1531     362047.1   1159.1398  14.36     4.503     3.574   0.0004        262      145.442
 3.50   1408.4286  19.5170      2589.39    308.3497  -2.59     2.203     2.012   0.0321        263     76.64236
 6.18   1063.2089  21.5340     404.0337      7.1723 -28.41     1.389     1.243   0.2193        264     81.57816
 7.43   1145.0000  22.3352     193.1665    769.9743   0.00     0.852     0.289   0.2198        265     39.08878
 7.15   1093.4473  20.9673     680.8872    467.2915 -45.65     1.313     0.949   0.1311        266     82.20011
 3.50   1104.7153  17.9751     10714.16    751.9335 -62.11     2.653     2.610   0.0097        267     95.21415
 4.18   1392.6360  19.9770     1695.134   1038.9935 -16.29     2.029     1.869   0.0542        268     84.64223
 5.49   1060.0006  20.8026     792.4384    726.6678 -18.82     2.114     1.688   0.1472        269     107.4448
 7.57   1105.2676  21.1695      565.182    678.9073  58.21     2.062     0.931   0.2086        270     108.5452
 6.46    952.3282  22.6295     147.2958     63.3045 -46.25     0.562     0.341   0.2232        271     30.27804
 5.72    951.7155  20.4348     1111.949    654.0697 -86.18     1.785     1.414   0.0911        272     93.23218
 4.27   1307.7802  19.3215     3100.373    669.7330 -45.13     2.409     1.993   0.0245        273     70.04195
 3.50   1095.2030  16.8135     31231.16    778.2391 -50.94     2.921     2.818   0.0036        274     103.9105
 3.50   1372.7700  18.1252     9330.877   1019.0164 -69.59     2.655     2.592   0.0111        275     95.21415
 3.96   1089.7832  19.3870     2918.818    642.4955 -72.57     2.262     2.125   0.0332        276     89.32639
 3.50   1278.2843  18.9193     4490.384   1331.2640  19.82     2.367     2.229   0.0201        277     83.22636
 6.07   1331.0336  20.3255      1229.75   1139.6675 -68.68     2.240     1.595   0.1047        278     118.5621
 3.50   1214.8149  17.5857     15336.34    513.1483 -46.75     2.788     2.685   0.0070        279     99.05919
 5.37   1304.6041  20.8137     784.3555    892.9384 -82.96     1.731     1.354   0.1177        280     85.04243
 3.50   1151.9622  14.3179     311063.7    693.9587 -41.89     3.590     3.400   0.0004        281     126.3266
 8.48   1353.4644  21.9549     274.1732    154.5137 -43.11     0.507     0.491   0.1696        282     42.81961
 3.84   1107.6848  18.4121     7163.957    428.1783 -77.45     2.603     2.456   0.0153        283     100.9268
 5.86   1129.9962  21.0388     637.5021    547.0287  44.68     1.421     1.108   0.1298        284     76.19806
 3.50   1082.0327  18.0464     10033.37   1148.2699 -18.58     2.625     2.539   0.0101        285     92.86728
 6.37   1111.0759  20.0486     1586.878    479.3345  60.00     2.765     1.746   0.0994        286     145.2084
 3.50   1293.0548  20.7610     823.3575    412.8123 -59.79     1.963     1.671   0.0863        287     65.40804
 7.26   1330.6422  21.0429     635.0994    386.4968  36.27     1.074     0.780   0.1171        288     68.45188
 3.50   1321.1383  16.6831     35217.36    659.6407 -66.15     4.262     2.830   0.0039        289     125.9228
 3.69   1307.7596  19.3689     2967.796   1036.3203 -33.92     2.628     2.304   0.0343        290     93.77687
 6.37   1230.7162  20.3751     1174.745    598.6448 -26.31     1.728     1.211   0.0879        291     95.03568
 5.36   1333.0924  20.3847     1164.477    107.4513 -49.95     1.654     1.308   0.0763        292       81.786
 3.99   1291.5995  18.3518     7572.976    762.0699 -21.64     2.694     2.415   0.0151        293     105.5317
 3.50   1298.6001  14.8214     195633.5    725.0037 -23.15     3.488     3.178   0.0007        294     120.1269
 3.67   1319.2821  21.0218     647.5493    264.3346 -41.09     1.342     1.081   0.0763        295     45.51041
 3.66   1265.7429  19.2798      3221.53    807.8504 -46.62     2.311     2.070   0.0278        296     82.61214
 3.93   1172.7997  18.3514     7575.658    757.9006  69.25     3.921     3.759   0.0223        297     155.7023
 8.03   1299.5083  21.8670     297.2936     52.5046  44.92     0.509     0.491   0.1535        298     42.01918
 3.50   1299.5024  25.7149      8.59082   1089.4442 -50.96     0.506     0.491   2.5517        299     20.18536
 3.50   1273.0546  17.6908     13921.85    609.9014 -55.37     4.604     3.054   0.0106        300     135.7831
 3.50   1138.7234  16.7872     31998.01    148.0432 -43.14     2.911     2.836   0.0035        301     103.9105
 4.94   1259.4498  20.1603     1431.727    432.2961 -26.24     2.210     1.862   0.0783        302     103.2549
 7.30   1263.2916  21.7851      320.584    855.0084  21.82     0.729     0.687   0.1820        303     53.72239
 3.50   1219.2106  18.0163     10315.04   1194.9154  53.53     2.677     2.604   0.0101        304     95.92471
 4.24   1213.2943  19.8530     1900.213   1429.4354  61.87     2.704     1.979   0.0582        305     101.7644
 3.80   1202.2263  19.9767     1695.653    339.3524 -60.99     2.012     1.869   0.0487        306     75.97493
 9.02   1228.0006  22.0808     244.1523    915.5093 -58.15     0.805     0.311   0.2008        307     45.13583
 5.18   1153.7366  20.4877      1059.02   1352.9554  -1.42     1.817     1.304   0.0845        308     82.40638
 4.67   1242.6703  20.5886     965.0962    672.7222 -48.82     1.739     1.326   0.0824        309     73.24439
 6.44   1229.3447  21.3252     489.6677   1154.1084 -69.05     0.957     0.688   0.1212        310     54.66221
 7.33   1204.6571  22.4990     166.1062   1217.3334  45.38     0.581     0.331   0.2087        311     31.91586
 3.50   1221.6608  13.3552     754956.2    995.2126 -34.12     5.342     4.878   0.0003        312     184.0819
 3.50   1237.2053  19.9755      1697.43   1553.3928   3.72     1.978     1.901   0.0447        313     69.92413
 5.72   1195.3733  19.7480     2093.225    124.0835  88.88     2.308     2.127   0.0682        314     131.4634
 6.76   1238.1827  21.4724      427.585     48.1804  45.52     1.219     0.500   0.1388        315     54.66221
 7.10   1181.8228  21.3831     464.2745    176.6743 -77.08     1.082     0.412   0.1140        316     48.75227
 3.50   1010.0671  17.4408     17525.65    813.8272 -65.10     2.712     2.670   0.0061        317      97.6785
 3.50   1080.1943  16.7164     34155.39    512.3001 -68.55     2.968     2.850   0.0034        318     105.8529
 4.85   1181.3903  21.7946     317.8037    549.5241 -82.69     1.735     1.003   0.2262        319     66.18213
 6.61   1238.0029  22.3573      189.261    856.7182 -33.31     1.213     0.436   0.2817        320     49.09927
 3.61   1234.5607  19.3468     3028.756    304.9624 -43.58     2.220     2.046   0.0283        321     79.04143
 3.50   1165.4764  16.2578     52104.35   1299.7545 -45.06     2.966     2.894   0.0022        322     105.6924
 3.50   1201.2911  20.4564     1090.019   1442.0564  25.89     1.754     1.557   0.0592        323     59.42409
 4.59   1120.3330  19.4071     2865.187    330.1281  55.50     2.861     2.131   0.0442        324     116.5402
 3.63   1158.1257  18.5707     6190.272    236.4265 -45.13     2.466     2.432   0.0161        325     91.57867
 3.50   1161.9113  21.1698     565.0432    887.8843 -23.64     1.514     1.255   0.0970        326      50.4634
 5.02   1151.3293  20.3262     1228.884     99.6127 -33.82     2.056     1.777   0.0878        327     99.40137
 7.50   1114.2611  20.9362     700.6555    674.3723  66.49     1.836     1.109   0.1714        328     110.5598
 3.50   1210.8455  17.6232     14815.49   1279.0059  83.04     5.932     3.812   0.0126        329     172.1682
 4.50   1207.9048  20.2254     1348.433    839.1183 -34.12     2.099     1.911   0.0751        330     93.23218
 4.67   1203.7594  19.8497     1905.972   1075.3441  56.71     2.146     1.846   0.0546        331     95.74757
 3.60   1072.5201  19.7876     2018.229   1218.9911 -73.34     2.506     2.159   0.0460        332     85.44076
 3.50   1130.2111  17.4864     16804.68    183.5249 -48.58     2.812     2.666   0.0064        333     98.71583
 5.64   1130.5193  20.7407     838.9153    219.9609  17.17     1.933     0.961   0.1032        334     79.68318
 7.09   1084.3237  21.8542     300.8198     43.8700  68.05     1.095     0.511   0.1962        335     54.35074
 3.50   1096.0061  20.6260     932.3716   1527.0216  17.14     1.634     1.463   0.0655        336     56.19366
 6.71   1073.1526  21.4686     429.1084      7.1439  -1.00     1.238     0.855   0.1751        337     69.19193
 4.11   1030.0464  20.0401     1599.413    302.9785  66.56     2.898     2.087   0.0710        338      104.562
 7.21   1079.8993  21.4656     430.3021    329.8013  -2.51     1.332     1.111   0.2278        339     90.27167
 5.49   1065.5956  20.1322     1469.356   1562.7944 -48.94     2.215     1.456   0.0750        340     101.4302
 7.02   1016.7502  22.4678     170.9591    454.1198 -29.65     1.034     0.653   0.3757        341     59.13771
 4.16   1011.6916  19.6782      2232.17    345.0462 -65.00     2.238     2.085   0.0451        342     92.68429
 3.50   1023.8149  13.8313     486923.2     50.3203 -48.41     3.555     3.375   0.0003        343     124.7035
 3.50   1038.8405  18.2198     8552.446    525.6714 -60.67     2.697     2.528   0.0120        344     94.85687
 7.37   1042.4810  22.5786       154.37    468.0018  32.34     0.790     0.316   0.2719        345     38.65202
 3.50   1040.5178  16.4556     43425.25    633.2490 -61.50     3.017     2.912   0.0027        346     106.8109
 7.47   1037.5570  21.2291     535.0078    121.5983  22.61     1.211     0.997   0.1734        347     85.44076
 3.50   1026.0680  17.2893     20149.54   1380.0198 -55.76     2.794     2.683   0.0053        348     98.88766
 6.85    986.9518  19.9056     1810.402    454.2726  73.36     2.267     1.946   0.0893        349     148.7886
 4.48   1001.9201  19.3872     2918.268    542.7504  -3.58     2.291     2.244   0.0390        350     104.8862
 3.50   1001.7543  20.2703     1293.885   1555.5012 -25.15     1.812     1.612   0.0515        351     61.39137
 5.78    980.8538  20.3696     1180.752    798.1845 -58.31     1.865     1.469   0.0911        352     99.05919
 3.50   1000.4612  20.5986     956.1895   1273.7240 -11.68     1.795     1.409   0.0655        353     57.68447
 7.58    964.9525  21.7404      334.068    415.9614 -36.70     1.450     0.971   0.3013        354     92.68429
